 # M = 0.70 Mo, Y = 0.2880, Z = 2.00000E-02, alpha = 1.68, X_D = 2.0E-05
 # Solar Mixture: Asplund et al. (2005)         
 # ------------------------------------------------------------------------------------------------------------
 # NMD   LOG AGE    Xc      LOG L     LOG TE    LOG Tc   LOG RHOc    M-CC       L-PP       L-CNO       L-GRA
 #        (yr)              (Lo)        (K)       (K)   (gr/cm^3)    (Mo)        (L)         (L)         (L)
 # ------------------------------------------------------------------------------------------------------------
   1  4.94453890   0.692   0.71366   3.61630   6.10668  -1.12505   0.00000   8.720E-01   0.000E+00   1.280E-01
   2  5.04777632   0.692   0.70616   3.61643   6.11056  -1.11338   0.00000   8.813E-01   0.000E+00   1.187E-01
   3  5.13112519   0.692   0.69887   3.61656   6.11434  -1.10205   0.00000   8.900E-01   0.000E+00   1.101E-01
   4  5.20102456   0.692   0.69263   3.61667   6.11756  -1.09236   0.00000   8.956E-01   0.000E+00   1.045E-01
   5  5.26121785   0.692   0.68638   3.61678   6.12079  -1.08268   0.00000   9.013E-01   0.000E+00   9.885E-02
   6  5.31407484   0.692   0.68040   3.61688   6.12388  -1.07340   0.00000   9.045E-01   0.000E+00   9.573E-02
   7  5.36119111   0.692   0.67465   3.61697   6.12685  -1.06449   0.00000   9.054E-01   0.000E+00   9.485E-02
   8  5.40369236   0.692   0.66890   3.61707   6.12982  -1.05557   0.00000   9.064E-01   0.000E+00   9.396E-02
   9  5.44240258   0.692   0.66313   3.61716   6.13279  -1.04664   0.00000   9.063E-01   0.000E+00   9.407E-02
  10  5.47794302   0.692   0.65734   3.61726   6.13577  -1.03768   0.00000   9.042E-01   0.000E+00   9.590E-02
  11  5.51079374   0.692   0.65155   3.61735   6.13875  -1.02872   0.00000   9.022E-01   0.000E+00   9.774E-02
  12  5.54133337   0.692   0.64575   3.61744   6.14173  -1.01976   0.00000   9.001E-01   0.000E+00   9.958E-02
  13  5.56986582   0.692   0.63952   3.61754   6.14492  -1.01016   0.00000   8.959E-01   0.000E+00   1.039E-01
  14  5.59663874   0.692   0.63325   3.61763   6.14813  -1.00051   0.00000   8.915E-01   0.000E+00   1.084E-01
  15  5.62185660   0.692   0.62699   3.61772   6.15135  -0.99087   0.00000   8.870E-01   0.000E+00   1.129E-01
  16  5.64569016   0.692   0.62026   3.61781   6.15479  -0.98053   0.00000   8.807E-01   0.000E+00   1.193E-01
  17  5.66828352   0.692   0.61315   3.61791   6.15843  -0.96959   0.00000   8.728E-01   0.000E+00   1.272E-01
  18  5.68975941   0.692   0.60603   3.61801   6.16207  -0.95866   0.00000   8.649E-01   0.000E+00   1.351E-01
  19  5.71022317   0.692   0.59841   3.61811   6.16596  -0.94698   0.00000   8.547E-01   0.000E+00   1.453E-01
  20  5.72976591   0.692   0.59002   3.61822   6.17024  -0.93412   0.00000   8.410E-01   0.000E+00   1.590E-01
  21  5.74846700   0.692   0.58162   3.61832   6.17451  -0.92127   0.00000   8.272E-01   0.000E+00   1.728E-01
  22  5.76639593   0.692   0.57214   3.61842   6.17931  -0.90687   0.00000   8.084E-01   0.000E+00   1.916E-01
  23  5.78361396   0.692   0.56200   3.61852   6.18442  -0.89151   0.00000   7.863E-01   0.000E+00   2.137E-01
  24  5.80017531   0.692   0.55133   3.61863   6.18980  -0.87536   0.00000   7.609E-01   0.000E+00   2.391E-01
  25  5.81612825   0.692   0.53920   3.61874   6.19590  -0.85701   0.00000   7.264E-01   0.000E+00   2.736E-01
  26  5.83151589   0.692   0.52641   3.61885   6.20233  -0.83771   0.00000   6.871E-01   0.000E+00   3.129E-01
  27  5.84637693   0.692   0.51201   3.61894   6.20951  -0.81612   0.00000   6.361E-01   0.000E+00   3.639E-01
  28  5.86074622   0.692   0.49619   3.61903   6.21738  -0.79247   0.00000   5.740E-01   0.000E+00   4.260E-01
  29  5.87465527   0.692   0.47904   3.61911   6.22588  -0.76696   0.00000   5.020E-01   0.000E+00   4.980E-01
  30  5.88813265   0.692   0.46028   3.61916   6.23511  -0.73927   0.00000   4.194E-01   0.000E+00   5.806E-01
  31  5.90120435   0.692   0.44008   3.61919   6.24502  -0.70953   0.00000   3.297E-01   0.000E+00   6.703E-01
  32  5.91389407   0.692   0.41881   3.61917   6.25540  -0.67840   0.00000   2.428E-01   0.000E+00   7.572E-01
  33  5.92622351   0.692   0.39705   3.61912   6.26593  -0.64681   0.00000   1.679E-01   0.000E+00   8.321E-01
  34  5.93821257   0.692   0.37532   3.61902   6.27640  -0.61546   0.00000   1.091E-01   0.000E+00   8.909E-01
  35  5.94987953   0.692   0.35400   3.61888   6.28654  -0.58504   0.00000   6.734E-02   0.000E+00   9.327E-01
  36  5.96124125   0.692   0.33346   3.61870   6.29628  -0.55586   0.00000   3.973E-02   0.000E+00   9.603E-01
  37  5.97231329   0.692   0.31375   3.61849   6.30550  -0.52818   0.00000   2.318E-02   0.000E+00   9.768E-01
  38  5.98311006   0.692   0.29500   3.61827   6.31421  -0.50200   0.00000   1.318E-02   0.000E+00   9.868E-01
  39  5.99364492   0.692   0.27713   3.61801   6.32245  -0.47726   0.00000   8.025E-03   0.000E+00   9.920E-01
  40  6.00393027   0.692   0.26014   3.61775   6.33024  -0.45385   0.00000   4.715E-03   0.000E+00   9.953E-01
  41  6.01397765   0.692   0.24391   3.61748   6.33764  -0.43162   0.00000   3.000E-03   0.000E+00   9.970E-01
  42  6.05198844   0.692   0.18597   3.61628   6.36362  -0.35356   0.00000   0.000E+00   0.000E+00   1.000E+00
  43  6.08693849   0.692   0.13664   3.61503   6.38531  -0.28840   0.00000   0.000E+00   0.000E+00   1.000E+00
  44  6.11928421   0.692   0.09368   3.61382   6.40399  -0.23228   0.00000   0.000E+00   0.000E+00   1.000E+00
  45  6.14938694   0.692   0.05580   3.61266   6.42028  -0.18332   0.00000   0.000E+00   0.000E+00   1.000E+00
  46  6.17753771   0.692   0.02207   3.61159   6.43470  -0.13996   0.00000   0.000E+00   0.000E+00   1.000E+00
  47  6.20397430   0.692  -0.00845   3.61059   6.44770  -0.10089   0.00000   0.000E+00   0.000E+00   1.000E+00
  48  6.22889355   0.692  -0.03632   3.60966   6.45955  -0.06527   0.00000   0.000E+00   0.000E+00   1.000E+00
  49  6.25246023   0.692  -0.06187   3.60878   6.47037  -0.03277   0.00000   0.000E+00   0.000E+00   1.000E+00
  50  6.27481363   0.692  -0.08539   3.60798   6.48033  -0.00283   0.00000   0.000E+00   0.000E+00   1.000E+00
  51  6.29607259   0.692  -0.10734   3.60721   6.48959   0.02505   0.00000   0.000E+00   0.000E+00   1.000E+00
  52  6.31633929   0.692  -0.12779   3.60650   6.49824   0.05106   0.00000   0.000E+00   0.000E+00   1.000E+00
  53  6.33570226   0.692  -0.14700   3.60582   6.50634   0.07541   0.00000   0.000E+00   0.000E+00   1.000E+00
  54  6.35423864   0.692  -0.16502   3.60519   6.51395   0.09831   0.00000   0.000E+00   0.000E+00   1.000E+00
  55  6.37201615   0.692  -0.18209   3.60458   6.52113   0.11990   0.00000   0.000E+00   0.000E+00   1.000E+00
  56  6.38909447   0.692  -0.19825   3.60400   6.52794   0.14036   0.00000   0.000E+00   0.000E+00   1.000E+00
  57  6.40552653   0.692  -0.21361   3.60346   6.53441   0.15983   0.00000   0.000E+00   0.000E+00   1.000E+00
  58  6.42135947   0.692  -0.22833   3.60293   6.54060   0.17844   0.00000   0.000E+00   0.000E+00   1.000E+00
  59  6.43663543   0.692  -0.24216   3.60244   6.54645   0.19602   0.00000   0.000E+00   0.000E+00   1.000E+00
  60  6.45139229   0.692  -0.25545   3.60196   6.55204   0.21285   0.00000   0.000E+00   0.000E+00   1.000E+00
  61  6.46566415   0.692  -0.26831   3.60150   6.55745   0.22912   0.00000   0.000E+00   0.000E+00   1.000E+00
  62  6.47948190   0.692  -0.28054   3.60107   6.56261   0.24466   0.00000   0.000E+00   0.000E+00   1.000E+00
  63  6.49287353   0.692  -0.29225   3.60065   6.56755   0.25952   0.00000   0.000E+00   0.000E+00   1.000E+00
  64  6.50586455   0.692  -0.30372   3.60024   6.57238   0.27403   0.00000   0.000E+00   0.000E+00   1.000E+00
  65  6.51847823   0.692  -0.31454   3.59985   6.57694   0.28777   0.00000   0.000E+00   0.000E+00   1.000E+00
  66  6.53073588   0.692  -0.32513   3.59947   6.58140   0.30119   0.00000   0.000E+00   0.000E+00   1.000E+00
  67  6.54265703   0.692  -0.33532   3.59910   6.58569   0.31411   0.00000   0.000E+00   0.000E+00   1.000E+00
  68  6.55425969   0.692  -0.34518   3.59875   6.58985   0.32662   0.00000   0.000E+00   0.000E+00   1.000E+00
  69  6.56556041   0.692  -0.35473   3.59842   6.59389   0.33876   0.00000   0.000E+00   0.000E+00   1.000E+00
  70  6.57657452   0.692  -0.36398   3.59809   6.59779   0.35050   0.00000   0.000E+00   0.000E+00   1.000E+00
  71  6.58731619   0.692  -0.37298   3.59777   6.60158   0.36192   0.00000   0.000E+00   0.000E+00   1.000E+00
  72  6.59779859   0.692  -0.38172   3.59746   6.60527   0.37302   0.00000   0.000E+00   0.000E+00   1.000E+00
  73  6.60803393   0.692  -0.39015   3.59716   6.60883   0.38375   0.00000   0.000E+00   0.000E+00   1.000E+00
  74  6.61803359   0.692  -0.39847   3.59687   6.61232   0.39435   0.00000   0.000E+00   0.000E+00   1.000E+00
  75  6.62780818   0.692  -0.40640   3.59659   6.61560   0.40454   0.00000   0.000E+00   0.000E+00   1.000E+00
  76  6.63736760   0.692  -0.41434   3.59631   6.61887   0.41472   0.00000   0.000E+00   0.000E+00   1.000E+00
  77  6.64672114   0.692  -0.42185   3.59605   6.62190   0.42445   0.00000   0.000E+00   0.000E+00   1.000E+00
  78  6.65587746   0.692  -0.42929   3.59579   6.62490   0.43412   0.00000   0.000E+00   0.000E+00   1.000E+00
  79  6.66484472   0.692  -0.43658   3.59553   6.62781   0.44362   0.00000   0.000E+00   0.000E+00   1.000E+00
  80  6.67363056   0.692  -0.44357   3.59529   6.63056   0.45282   0.00000   0.000E+00   0.000E+00   1.000E+00
  81  6.68224219   0.692  -0.45056   3.59504   6.63331   0.46201   0.00000   0.000E+00   0.000E+00   1.000E+00
  82  6.69068636   0.692  -0.45726   3.59481   6.63591   0.47090   0.00000   0.000E+00   0.000E+00   1.000E+00
  83  6.69896948   0.692  -0.46383   3.59458   6.63843   0.47963   0.00000   0.000E+00   0.000E+00   1.000E+00
  84  6.70709758   0.692  -0.47039   3.59435   6.64095   0.48837   0.00000   0.000E+00   0.000E+00   1.000E+00
  85  6.71507634   0.692  -0.47662   3.59414   6.64331   0.49677   0.00000   0.000E+00   0.000E+00   1.000E+00
  86  6.72291115   0.692  -0.48277   3.59393   6.64562   0.50508   0.00000   0.000E+00   0.000E+00   1.000E+00
  87  6.73060713   0.692  -0.48891   3.59372   6.64794   0.51339   0.00000   0.000E+00   0.000E+00   1.000E+00
  88  6.73816910   0.692  -0.49477   3.59352   6.65011   0.52140   0.00000   0.000E+00   0.000E+00   1.000E+00
  89  6.74560165   0.692  -0.50053   3.59333   6.65224   0.52930   0.00000   0.000E+00   0.000E+00   1.000E+00
  90  6.75290914   0.692  -0.50629   3.59313   6.65437   0.53721   0.00000   0.000E+00   0.000E+00   1.000E+00
  91  6.76009570   0.692  -0.51186   3.59295   6.65641   0.54492   0.00000   0.000E+00   0.000E+00   1.000E+00
  92  6.76716527   0.692  -0.51726   3.59277   6.65838   0.55245   0.00000   0.000E+00   0.000E+00   1.000E+00
  93  6.77412160   0.692  -0.52265   3.59258   6.66034   0.55998   0.00000   0.000E+00   0.000E+00   1.000E+00
  94  6.78096827   0.692  -0.52803   3.59240   6.66230   0.56749   0.00000   0.000E+00   0.000E+00   1.000E+00
  95  6.78770867   0.692  -0.53307   3.59224   6.66412   0.57466   0.00000   0.000E+00   0.000E+00   1.000E+00
  96  6.79434605   0.692  -0.53811   3.59207   6.66593   0.58182   0.00000   0.000E+00   0.000E+00   1.000E+00
  97  6.80088352   0.692  -0.54315   3.59190   6.66774   0.58898   0.00000   0.000E+00   0.000E+00   1.000E+00
  98  6.80732404   0.692  -0.54808   3.59174   6.66951   0.59603   0.00000   0.000E+00   0.000E+00   1.000E+00
  99  6.81367044   0.692  -0.55279   3.59159   6.67118   0.60285   0.00000   0.000E+00   0.000E+00   1.000E+00
 100  6.81992543   0.692  -0.55751   3.59144   6.67286   0.60966   0.00000   0.000E+00   0.000E+00   1.000E+00
 101  6.82609161   0.692  -0.56222   3.59129   6.67453   0.61648   0.00000   0.000E+00   0.000E+00   1.000E+00
 102  6.83217147   0.692  -0.56682   3.59114   6.67616   0.62318   0.00000   0.000E+00   0.000E+00   1.000E+00
 103  6.83816739   0.692  -0.57120   3.59100   6.67772   0.62967   0.00000   0.000E+00   0.000E+00   1.000E+00
 104  6.84408165   0.692  -0.57559   3.59086   6.67927   0.63615   0.00000   0.000E+00   0.000E+00   1.000E+00
 105  6.84991645   0.692  -0.57998   3.59072   6.68082   0.64264   0.00000   0.000E+00   0.000E+00   1.000E+00
 106  6.85567390   0.692  -0.58433   3.59058   6.68236   0.64909   0.00000   0.000E+00   0.000E+00   1.000E+00
 107  6.86135602   0.692  -0.58842   3.59046   6.68380   0.65527   0.00000   0.000E+00   0.000E+00   1.000E+00
 108  6.86696476   0.692  -0.59252   3.59033   6.68524   0.66144   0.00000   0.000E+00   0.000E+00   1.000E+00
 109  6.87250199   0.692  -0.59661   3.59021   6.68668   0.66761   0.00000   0.000E+00   0.000E+00   1.000E+00
 110  6.87796950   0.692  -0.60070   3.59008   6.68812   0.67379   0.00000   0.000E+00   0.000E+00   1.000E+00
 111  6.88336904   0.692  -0.60463   3.58997   6.68950   0.67979   0.00000   0.000E+00   0.000E+00   1.000E+00
 112  6.88870226   0.692  -0.60843   3.58986   6.69083   0.68567   0.00000   0.000E+00   0.000E+00   1.000E+00
 113  6.89397079   0.692  -0.61222   3.58975   6.69217   0.69155   0.00000   0.000E+00   0.000E+00   1.000E+00
 114  6.89917617   0.692  -0.61602   3.58964   6.69350   0.69743   0.00000   0.000E+00   0.000E+00   1.000E+00
 115  6.90431990   0.692  -0.61982   3.58953   6.69484   0.70330   0.00000   0.000E+00   0.000E+00   1.000E+00
 116  6.90940342   0.692  -0.62344   3.58942   6.69611   0.70899   0.00000   1.281E-04   0.000E+00   9.999E-01
 117  6.91442812   0.692  -0.62697   3.58932   6.69735   0.71459   0.00000   3.180E-04   0.000E+00   9.997E-01
 118  6.91939535   0.692  -0.63049   3.58923   6.69859   0.72019   0.00000   5.080E-04   0.000E+00   9.995E-01
 119  6.92430641   0.692  -0.63402   3.58913   6.69983   0.72578   0.00000   6.980E-04   0.000E+00   9.993E-01
 120  6.92916256   0.692  -0.63755   3.58903   6.70107   0.73138   0.00000   8.880E-04   0.000E+00   9.991E-01
 121  6.93396500   0.692  -0.64097   3.58893   6.70227   0.73687   0.00000   1.000E-03   0.000E+00   9.990E-01
 122  6.93871492   0.692  -0.64423   3.58885   6.70343   0.74220   0.00000   1.000E-03   0.000E+00   9.990E-01
 123  6.94341346   0.692  -0.64749   3.58876   6.70458   0.74753   0.00000   1.000E-03   0.000E+00   9.990E-01
 124  6.94806170   0.692  -0.65076   3.58868   6.70573   0.75285   0.00000   1.000E-03   0.000E+00   9.990E-01
 125  6.95266072   0.692  -0.65402   3.58859   6.70689   0.75818   0.00000   1.000E-03   0.000E+00   9.990E-01
 126  6.95721155   0.692  -0.65728   3.58850   6.70804   0.76351   0.00000   1.000E-03   0.000E+00   9.990E-01
 127  6.96171518   0.692  -0.66036   3.58843   6.70914   0.76865   0.00000   1.000E-03   0.000E+00   9.990E-01
 128  6.96617259   0.692  -0.66337   3.58835   6.71022   0.77373   0.00000   1.000E-03   0.000E+00   9.990E-01
 129  6.97058472   0.692  -0.66638   3.58828   6.71129   0.77880   0.00000   1.000E-03   0.000E+00   9.990E-01
 130  6.97495247   0.692  -0.66939   3.58821   6.71237   0.78388   0.00000   1.000E-03   0.000E+00   9.990E-01
 131  6.97927674   0.692  -0.67240   3.58813   6.71345   0.78895   0.00000   1.000E-03   0.000E+00   9.990E-01
 132  6.98355837   0.692  -0.67541   3.58806   6.71453   0.79402   0.00000   1.000E-03   0.000E+00   9.990E-01
 133  6.98779820   0.692  -0.67827   3.58799   6.71556   0.79895   0.00000   1.000E-03   0.000E+00   9.990E-01
 134  6.99199704   0.692  -0.68104   3.58793   6.71657   0.80378   0.00000   1.000E-03   0.000E+00   9.990E-01
 135  6.99615567   0.692  -0.68382   3.58787   6.71758   0.80861   0.00000   1.000E-03   0.000E+00   9.990E-01
 136  7.00027486   0.692  -0.68659   3.58781   6.71859   0.81344   0.00000   1.000E-03   0.000E+00   9.990E-01
 137  7.00435534   0.692  -0.68936   3.58775   6.71959   0.81827   0.00000   1.000E-03   0.000E+00   9.990E-01
 138  7.00839784   0.692  -0.69213   3.58768   6.72060   0.82310   0.00000   1.000E-03   0.000E+00   9.990E-01
 139  7.01240307   0.692  -0.69490   3.58762   6.72161   0.82793   0.00000   1.000E-03   0.000E+00   9.990E-01
 140  7.01637169   0.692  -0.69746   3.58757   6.72255   0.83252   0.00000   1.000E-03   0.000E+00   9.990E-01
 141  7.02030437   0.692  -0.70001   3.58752   6.72349   0.83711   0.00000   1.000E-03   0.000E+00   9.990E-01
 142  7.02420176   0.692  -0.70256   3.58747   6.72443   0.84169   0.00000   1.000E-03   0.000E+00   9.990E-01
 143  7.02806449   0.692  -0.70510   3.58742   6.72537   0.84628   0.00000   1.000E-03   0.000E+00   9.990E-01
 144  7.03189316   0.692  -0.70765   3.58737   6.72631   0.85087   0.00000   1.000E-03   0.000E+00   9.990E-01
 145  7.03568838   0.692  -0.71020   3.58732   6.72725   0.85545   0.00000   1.000E-03   0.000E+00   9.990E-01
 146  7.03945071   0.692  -0.71275   3.58727   6.72819   0.86004   0.00000   1.000E-03   0.000E+00   9.990E-01
 147  7.04318073   0.692  -0.71510   3.58723   6.72908   0.86444   0.00000   1.115E-03   0.000E+00   9.989E-01
 148  7.04687899   0.692  -0.71743   3.58719   6.72997   0.86881   0.00000   1.248E-03   0.000E+00   9.988E-01
 149  7.05054602   0.692  -0.71975   3.58715   6.73085   0.87318   0.00000   1.382E-03   0.000E+00   9.986E-01
 150  7.05418235   0.692  -0.72207   3.58711   6.73173   0.87754   0.00000   1.515E-03   0.000E+00   9.985E-01
 151  7.05778849   0.692  -0.72440   3.58707   6.73262   0.88191   0.00000   1.648E-03   0.000E+00   9.984E-01
 152  7.06136492   0.692  -0.72672   3.58703   6.73350   0.88628   0.00000   1.782E-03   0.000E+00   9.982E-01
 153  7.06491215   0.692  -0.72904   3.58699   6.73439   0.89065   0.00000   1.915E-03   0.000E+00   9.981E-01
 154  7.06843064   0.692  -0.73129   3.58696   6.73525   0.89494   0.00000   2.000E-03   0.000E+00   9.980E-01
 155  7.07192085   0.692  -0.73341   3.58693   6.73609   0.89910   0.00000   2.000E-03   0.000E+00   9.980E-01
 156  7.07538323   0.692  -0.73552   3.58691   6.73692   0.90326   0.00000   2.000E-03   0.000E+00   9.980E-01
 157  7.07881823   0.692  -0.73764   3.58688   6.73775   0.90741   0.00000   2.000E-03   0.000E+00   9.980E-01
 158  7.08222627   0.692  -0.73976   3.58685   6.73858   0.91157   0.00000   2.000E-03   0.000E+00   9.980E-01
 159  7.08560778   0.692  -0.74187   3.58683   6.73942   0.91573   0.00000   2.000E-03   0.000E+00   9.980E-01
 160  7.08896316   0.692  -0.74399   3.58680   6.74025   0.91989   0.00000   2.000E-03   0.000E+00   9.980E-01
 161  7.09229282   0.692  -0.74611   3.58677   6.74108   0.92405   0.00000   2.000E-03   0.000E+00   9.980E-01
 162  7.09559714   0.692  -0.74814   3.58675   6.74189   0.92811   0.00000   2.000E-03   0.000E+00   9.980E-01
 163  7.09887651   0.692  -0.75007   3.58674   6.74268   0.93208   0.00000   2.000E-03   0.000E+00   9.980E-01
 164  7.10213131   0.692  -0.75200   3.58672   6.74346   0.93604   0.00000   2.000E-03   0.000E+00   9.980E-01
 165  7.10536189   0.692  -0.75393   3.58670   6.74425   0.94001   0.00000   2.000E-03   0.000E+00   9.980E-01
 166  7.10856862   0.692  -0.75586   3.58668   6.74503   0.94397   0.00000   2.000E-03   0.000E+00   9.980E-01
 167  7.11175185   0.692  -0.75779   3.58667   6.74582   0.94794   0.00000   2.000E-03   0.000E+00   9.980E-01
 168  7.11491191   0.692  -0.75972   3.58665   6.74661   0.95190   0.00000   2.000E-03   0.000E+00   9.980E-01
 169  7.11804914   0.692  -0.76166   3.58663   6.74739   0.95587   0.00000   2.000E-03   0.000E+00   9.980E-01
 170  7.12116388   0.692  -0.76356   3.58662   6.74817   0.95980   0.00000   2.020E-03   0.000E+00   9.980E-01
 171  7.12425643   0.692  -0.76531   3.58661   6.74892   0.96358   0.00000   2.135E-03   0.000E+00   9.979E-01
 172  7.12732712   0.692  -0.76706   3.58661   6.74966   0.96737   0.00000   2.249E-03   0.000E+00   9.978E-01
 173  7.13037625   0.692  -0.76881   3.58660   6.75041   0.97115   0.00000   2.364E-03   0.000E+00   9.976E-01
 174  7.13340412   0.692  -0.77057   3.58659   6.75115   0.97494   0.00000   2.479E-03   0.000E+00   9.975E-01
 175  7.13641103   0.692  -0.77232   3.58658   6.75190   0.97872   0.00000   2.594E-03   0.000E+00   9.974E-01
 176  7.13939726   0.692  -0.77407   3.58658   6.75264   0.98250   0.00000   2.708E-03   0.000E+00   9.973E-01
 177  7.14236310   0.692  -0.77582   3.58657   6.75339   0.98629   0.00000   2.823E-03   0.000E+00   9.972E-01
 178  7.14530882   0.692  -0.77758   3.58656   6.75413   0.99007   0.00000   2.938E-03   0.000E+00   9.971E-01
 179  7.14823470   0.692  -0.77926   3.58656   6.75486   0.99378   0.00000   3.000E-03   0.000E+00   9.970E-01
 180  7.15114099   0.692  -0.78084   3.58656   6.75557   0.99740   0.00000   3.000E-03   0.000E+00   9.970E-01
 181  7.15402797   0.692  -0.78243   3.58657   6.75628   1.00102   0.00000   3.000E-03   0.000E+00   9.970E-01
 182  7.15689588   0.692  -0.78402   3.58657   6.75699   1.00464   0.00000   3.000E-03   0.000E+00   9.970E-01
 183  7.15974498   0.692  -0.78561   3.58657   6.75769   1.00826   0.00000   3.000E-03   0.000E+00   9.970E-01
 184  7.16257551   0.692  -0.78720   3.58658   6.75840   1.01188   0.00000   3.000E-03   0.000E+00   9.970E-01
 185  7.16538771   0.692  -0.78879   3.58658   6.75911   1.01550   0.00000   3.000E-03   0.000E+00   9.970E-01
 186  7.16818181   0.692  -0.79037   3.58658   6.75982   1.01911   0.00000   3.000E-03   0.000E+00   9.970E-01
 187  7.17095806   0.692  -0.79196   3.58659   6.76053   1.02273   0.00000   3.000E-03   0.000E+00   9.970E-01
 188  7.17371667   0.692  -0.79350   3.58659   6.76122   1.02630   0.00000   3.033E-03   0.000E+00   9.970E-01
 189  7.17645787   0.692  -0.79494   3.58661   6.76190   1.02977   0.00000   3.138E-03   0.000E+00   9.969E-01
 190  7.17918187   0.692  -0.79637   3.58662   6.76258   1.03323   0.00000   3.242E-03   0.000E+00   9.968E-01
 191  7.18188890   0.692  -0.79781   3.58663   6.76325   1.03669   0.00000   3.347E-03   0.000E+00   9.967E-01
 192  7.18457916   0.692  -0.79924   3.58664   6.76393   1.04016   0.00000   3.451E-03   0.000E+00   9.965E-01
 193  7.18725285   0.692  -0.80068   3.58665   6.76460   1.04362   0.00000   3.556E-03   0.000E+00   9.964E-01
 194  7.18991019   0.692  -0.80211   3.58666   6.76528   1.04709   0.00000   3.660E-03   0.000E+00   9.963E-01
 195  7.19255136   0.692  -0.80355   3.58667   6.76596   1.05055   0.00000   3.765E-03   0.000E+00   9.962E-01
 196  7.19517657   0.692  -0.80498   3.58669   6.76663   1.05401   0.00000   3.869E-03   0.000E+00   9.961E-01
 197  7.19778601   0.692  -0.80642   3.58670   6.76731   1.05748   0.00000   3.974E-03   0.000E+00   9.960E-01
 198  7.20037986   0.692  -0.80774   3.58671   6.76796   1.06083   0.00000   4.075E-03   0.000E+00   9.959E-01
 199  7.20295831   0.692  -0.80903   3.58673   6.76861   1.06415   0.00000   4.175E-03   0.000E+00   9.958E-01
 200  7.20552154   0.692  -0.81032   3.58675   6.76926   1.06748   0.00000   4.275E-03   0.000E+00   9.957E-01
 201  7.20806973   0.692  -0.81161   3.58677   6.76991   1.07080   0.00000   4.375E-03   0.000E+00   9.956E-01
 202  7.21060306   0.692  -0.81290   3.58679   6.77055   1.07412   0.00000   4.475E-03   0.000E+00   9.955E-01
 203  7.21312170   0.692  -0.81419   3.58681   6.77120   1.07744   0.00000   4.575E-03   0.000E+00   9.954E-01
 204  7.21562581   0.692  -0.81548   3.58683   6.77185   1.08076   0.00000   4.675E-03   0.000E+00   9.953E-01
 205  7.21811557   0.692  -0.81677   3.58685   6.77249   1.08408   0.00000   4.775E-03   0.000E+00   9.952E-01
 206  7.22059113   0.692  -0.81806   3.58688   6.77314   1.08740   0.00000   4.875E-03   0.000E+00   9.951E-01
 207  7.22305267   0.692  -0.81935   3.58690   6.77379   1.09072   0.00000   4.975E-03   0.000E+00   9.950E-01
 208  7.22550033   0.692  -0.82054   3.58692   6.77442   1.09394   0.00000   5.072E-03   0.000E+00   9.949E-01
 209  7.22793428   0.692  -0.82169   3.58695   6.77504   1.09713   0.00000   5.168E-03   0.000E+00   9.948E-01
 210  7.23035466   0.692  -0.82285   3.58698   6.77566   1.10031   0.00000   5.264E-03   0.000E+00   9.947E-01
 211  7.23276162   0.692  -0.82400   3.58701   6.77628   1.10350   0.00000   5.360E-03   0.000E+00   9.946E-01
 212  7.23515532   0.692  -0.82516   3.58704   6.77691   1.10669   0.00000   5.456E-03   0.000E+00   9.945E-01
 213  7.23753590   0.692  -0.82632   3.58707   6.77753   1.10987   0.00000   5.552E-03   0.000E+00   9.944E-01
 214  7.23990350   0.692  -0.82747   3.58709   6.77815   1.11306   0.00000   5.647E-03   0.000E+00   9.944E-01
 215  7.24225826   0.692  -0.82863   3.58712   6.77877   1.11624   0.00000   5.743E-03   0.000E+00   9.943E-01
 216  7.24460032   0.692  -0.82978   3.58715   6.77940   1.11943   0.00000   5.839E-03   0.000E+00   9.942E-01
 217  7.24692982   0.692  -0.83094   3.58718   6.78002   1.12262   0.00000   5.935E-03   0.000E+00   9.941E-01
 218  7.24924690   0.692  -0.83205   3.58721   6.78063   1.12576   0.00000   6.060E-03   0.000E+00   9.939E-01
 219  7.25155167   0.692  -0.83308   3.58725   6.78123   1.12882   0.00000   6.244E-03   0.000E+00   9.938E-01
 220  7.25384428   0.692  -0.83411   3.58729   6.78183   1.13189   0.00000   6.428E-03   0.000E+00   9.936E-01
 221  7.25612485   0.692  -0.83514   3.58732   6.78243   1.13495   0.00000   6.612E-03   0.000E+00   9.934E-01
 222  7.25839351   0.692  -0.83616   3.58736   6.78303   1.13801   0.00000   6.797E-03   0.000E+00   9.932E-01
 223  7.26065038   0.692  -0.83719   3.58740   6.78363   1.14107   0.00000   6.981E-03   0.000E+00   9.930E-01
 224  7.26289558   0.692  -0.83822   3.58743   6.78423   1.14414   0.00000   7.165E-03   0.000E+00   9.928E-01
 225  7.26512923   0.692  -0.83925   3.58747   6.78483   1.14720   0.00000   7.349E-03   0.000E+00   9.927E-01
 226  7.26735145   0.692  -0.84028   3.58751   6.78543   1.15026   0.00000   7.533E-03   0.000E+00   9.925E-01
 227  7.26956236   0.692  -0.84130   3.58754   6.78603   1.15333   0.00000   7.718E-03   0.000E+00   9.923E-01
 228  7.27176207   0.692  -0.84233   3.58758   6.78663   1.15639   0.00000   7.902E-03   0.000E+00   9.921E-01
 229  7.27395070   0.692  -0.84330   3.58762   6.78722   1.15940   0.00000   8.041E-03   0.000E+00   9.920E-01
 230  7.27612835   0.692  -0.84421   3.58767   6.78780   1.16234   0.00000   8.130E-03   0.000E+00   9.919E-01
 231  7.27829514   0.692  -0.84512   3.58771   6.78839   1.16529   0.00000   8.219E-03   0.000E+00   9.918E-01
 232  7.28045117   0.692  -0.84603   3.58776   6.78897   1.16823   0.00000   8.307E-03   0.000E+00   9.917E-01
 233  7.28259655   0.692  -0.84693   3.58780   6.78955   1.17118   0.00000   8.396E-03   0.000E+00   9.916E-01
 234  7.28473138   0.692  -0.84784   3.58785   6.79013   1.17412   0.00000   8.484E-03   0.000E+00   9.915E-01
 235  7.28685578   0.692  -0.84875   3.58789   6.79071   1.17707   0.00000   8.573E-03   0.000E+00   9.914E-01
 236  7.28896983   0.692  -0.84965   3.58794   6.79130   1.18001   0.00000   8.662E-03   0.000E+00   9.913E-01
 237  7.29107364   0.692  -0.85056   3.58798   6.79188   1.18296   0.00000   8.750E-03   0.000E+00   9.912E-01
 238  7.29316730   0.692  -0.85147   3.58803   6.79246   1.18590   0.00000   8.839E-03   0.000E+00   9.912E-01
 239  7.29525092   0.692  -0.85238   3.58807   6.79304   1.18885   0.00000   8.927E-03   0.000E+00   9.911E-01
 240  7.29732460   0.692  -0.85326   3.58812   6.79362   1.19177   0.00000   9.031E-03   0.000E+00   9.910E-01
 241  7.29938842   0.692  -0.85406   3.58817   6.79419   1.19461   0.00000   9.202E-03   0.000E+00   9.908E-01
 242  7.30144247   0.692  -0.85485   3.58822   6.79475   1.19745   0.00000   9.372E-03   0.000E+00   9.906E-01
 243  7.30348686   0.692  -0.85565   3.58828   6.79531   1.20029   0.00000   9.543E-03   0.000E+00   9.905E-01
 244  7.30552167   0.692  -0.85644   3.58833   6.79588   1.20313   0.00000   9.714E-03   0.000E+00   9.903E-01
 245  7.30754699   0.692  -0.85724   3.58838   6.79644   1.20597   0.00000   9.885E-03   0.000E+00   9.901E-01
 246  7.30956291   0.692  -0.85803   3.58843   6.79701   1.20880   0.00000   1.006E-02   0.000E+00   9.899E-01
 247  7.31156952   0.692  -0.85883   3.58848   6.79757   1.21164   0.00000   1.023E-02   0.000E+00   9.898E-01
 248  7.31356689   0.692  -0.85962   3.58854   6.79814   1.21448   0.00000   1.040E-02   0.000E+00   9.896E-01
 249  7.31555513   0.692  -0.86042   3.58859   6.79870   1.21732   0.00000   1.057E-02   0.000E+00   9.894E-01
 250  7.31753430   0.692  -0.86121   3.58864   6.79926   1.22016   0.00000   1.074E-02   0.000E+00   9.893E-01
 251  7.31950449   0.692  -0.86201   3.58869   6.79983   1.22300   0.00000   1.091E-02   0.000E+00   9.891E-01
 252  7.32146579   0.692  -0.86275   3.58875   6.80039   1.22579   0.00000   1.108E-02   0.000E+00   9.889E-01
 253  7.32341826   0.692  -0.86344   3.58881   6.80094   1.22853   0.00000   1.124E-02   0.000E+00   9.888E-01
 254  7.32536200   0.692  -0.86412   3.58887   6.80149   1.23126   0.00000   1.141E-02   0.000E+00   9.886E-01
 255  7.32729708   0.692  -0.86481   3.58893   6.80204   1.23400   0.00000   1.157E-02   0.000E+00   9.884E-01
 256  7.32922358   0.692  -0.86550   3.58899   6.80259   1.23674   0.00000   1.174E-02   0.000E+00   9.883E-01
 257  7.33114156   0.692  -0.86619   3.58905   6.80314   1.23948   0.00000   1.190E-02   0.000E+00   9.881E-01
 258  7.33305112   0.692  -0.86687   3.58911   6.80369   1.24222   0.00000   1.207E-02   0.000E+00   9.879E-01
 259  7.33495231   0.692  -0.86756   3.58917   6.80424   1.24495   0.00000   1.223E-02   0.000E+00   9.878E-01
 260  7.33684522   0.692  -0.86825   3.58923   6.80479   1.24769   0.00000   1.239E-02   0.000E+00   9.876E-01
 261  7.33872991   0.692  -0.86893   3.58929   6.80534   1.25043   0.00000   1.256E-02   0.000E+00   9.874E-01
 262  7.34060646   0.692  -0.86962   3.58935   6.80589   1.25317   0.00000   1.272E-02   0.000E+00   9.873E-01
 263  7.34247494   0.692  -0.87031   3.58941   6.80644   1.25591   0.00000   1.289E-02   0.000E+00   9.871E-01
 264  7.34433541   0.692  -0.87096   3.58947   6.80699   1.25861   0.00000   1.308E-02   0.000E+00   9.869E-01
 265  7.34618794   0.692  -0.87154   3.58954   6.80752   1.26126   0.00000   1.332E-02   0.000E+00   9.867E-01
 266  7.34803261   0.692  -0.87213   3.58961   6.80806   1.26390   0.00000   1.356E-02   0.000E+00   9.864E-01
 267  7.34986947   0.692  -0.87271   3.58968   6.80860   1.26655   0.00000   1.379E-02   0.000E+00   9.862E-01
 268  7.35169860   0.692  -0.87329   3.58974   6.80914   1.26919   0.00000   1.403E-02   0.000E+00   9.860E-01
 269  7.35352006   0.692  -0.87388   3.58981   6.80967   1.27183   0.00000   1.427E-02   0.000E+00   9.857E-01
 270  7.35533391   0.692  -0.87446   3.58988   6.81021   1.27448   0.00000   1.451E-02   0.000E+00   9.855E-01
 271  7.35714021   0.692  -0.87505   3.58995   6.81075   1.27712   0.00000   1.475E-02   0.000E+00   9.853E-01
 272  7.35893904   0.692  -0.87563   3.59001   6.81128   1.27977   0.00000   1.499E-02   0.000E+00   9.850E-01
 273  7.36073044   0.692  -0.87621   3.59008   6.81182   1.28241   0.00000   1.523E-02   0.000E+00   9.848E-01
 274  7.36251449   0.692  -0.87680   3.59015   6.81236   1.28505   0.00000   1.547E-02   0.000E+00   9.845E-01
 275  7.36429123   0.692  -0.87738   3.59022   6.81290   1.28770   0.00000   1.571E-02   0.000E+00   9.843E-01
 276  7.36606074   0.692  -0.87796   3.59028   6.81343   1.29034   0.00000   1.594E-02   0.000E+00   9.841E-01
 277  7.36782306   0.692  -0.87847   3.59036   6.81396   1.29292   0.00000   1.612E-02   0.000E+00   9.839E-01
 278  7.36957827   0.692  -0.87896   3.59043   6.81449   1.29547   0.00000   1.627E-02   0.000E+00   9.837E-01
 279  7.37132641   0.692  -0.87945   3.59050   6.81502   1.29803   0.00000   1.643E-02   0.000E+00   9.836E-01
 280  7.37306754   0.692  -0.87994   3.59058   6.81554   1.30059   0.00000   1.658E-02   0.000E+00   9.834E-01
 281  7.37480171   0.692  -0.88043   3.59065   6.81607   1.30314   0.00000   1.673E-02   0.000E+00   9.833E-01
 282  7.37652900   0.692  -0.88092   3.59073   6.81660   1.30570   0.00000   1.689E-02   0.000E+00   9.831E-01
 283  7.37824943   0.692  -0.88141   3.59080   6.81712   1.30826   0.00000   1.704E-02   0.000E+00   9.830E-01
 284  7.37996308   0.692  -0.88189   3.59087   6.81765   1.31081   0.00000   1.720E-02   0.000E+00   9.828E-01
 285  7.38167000   0.692  -0.88238   3.59095   6.81817   1.31337   0.00000   1.735E-02   0.000E+00   9.826E-01
 286  7.38337023   0.692  -0.88287   3.59102   6.81870   1.31593   0.00000   1.751E-02   0.000E+00   9.825E-01
 287  7.38506383   0.692  -0.88336   3.59110   6.81923   1.31848   0.00000   1.766E-02   0.000E+00   9.823E-01
 288  7.38675085   0.692  -0.88385   3.59117   6.81975   1.32104   0.00000   1.781E-02   0.000E+00   9.822E-01
 289  7.38843135   0.692  -0.88434   3.59124   6.82028   1.32359   0.00000   1.797E-02   0.000E+00   9.820E-01
 290  7.39010536   0.692  -0.88475   3.59132   6.82080   1.32609   0.00000   1.824E-02   0.000E+00   9.818E-01
 291  7.39177295   0.692  -0.88515   3.59140   6.82132   1.32856   0.00000   1.854E-02   0.000E+00   9.815E-01
 292  7.39343416   0.692  -0.88555   3.59149   6.82183   1.33103   0.00000   1.883E-02   0.000E+00   9.812E-01
 293  7.39508904   0.692  -0.88595   3.59157   6.82235   1.33351   0.00000   1.913E-02   0.000E+00   9.809E-01
 294  7.39673764   0.692  -0.88635   3.59165   6.82287   1.33598   0.00000   1.943E-02   0.000E+00   9.806E-01
 295  7.39838001   0.692  -0.88675   3.59173   6.82339   1.33846   0.00000   1.973E-02   0.000E+00   9.803E-01
 296  7.40001618   0.692  -0.88714   3.59181   6.82391   1.34093   0.00000   2.003E-02   0.000E+00   9.800E-01
 297  7.40164622   0.692  -0.88754   3.59189   6.82442   1.34340   0.00000   2.033E-02   0.000E+00   9.797E-01
 298  7.40327016   0.692  -0.88794   3.59197   6.82494   1.34588   0.00000   2.063E-02   0.000E+00   9.794E-01
 299  7.40488805   0.692  -0.88834   3.59205   6.82546   1.34835   0.00000   2.093E-02   0.000E+00   9.791E-01
 300  7.40649994   0.692  -0.88874   3.59213   6.82598   1.35083   0.00000   2.122E-02   0.000E+00   9.788E-01
 301  7.40810586   0.692  -0.88913   3.59221   6.82649   1.35330   0.00000   2.152E-02   0.000E+00   9.785E-01
 302  7.40970587   0.692  -0.88953   3.59229   6.82701   1.35578   0.00000   2.182E-02   0.000E+00   9.782E-01
 303  7.41130001   0.692  -0.88989   3.59238   6.82753   1.35822   0.00000   2.212E-02   0.000E+00   9.779E-01
 304  7.41288831   0.692  -0.89020   3.59246   6.82804   1.36061   0.00000   2.241E-02   0.000E+00   9.776E-01
 305  7.41447083   0.692  -0.89050   3.59255   6.82855   1.36301   0.00000   2.270E-02   0.000E+00   9.773E-01
 306  7.41604760   0.692  -0.89081   3.59264   6.82906   1.36541   0.00000   2.299E-02   0.000E+00   9.770E-01
 307  7.41761867   0.692  -0.89111   3.59273   6.82956   1.36780   0.00000   2.328E-02   0.000E+00   9.767E-01
 308  7.41918408   0.692  -0.89142   3.59281   6.83007   1.37020   0.00000   2.357E-02   0.000E+00   9.764E-01
 309  7.42074386   0.692  -0.89172   3.59290   6.83058   1.37260   0.00000   2.386E-02   0.000E+00   9.761E-01
 310  7.42229806   0.692  -0.89203   3.59299   6.83109   1.37499   0.00000   2.415E-02   0.000E+00   9.759E-01
 311  7.42384672   0.692  -0.89234   3.59308   6.83160   1.37739   0.00000   2.444E-02   0.000E+00   9.756E-01
 312  7.42538988   0.692  -0.89264   3.59317   6.83211   1.37978   0.00000   2.473E-02   0.000E+00   9.753E-01
 313  7.42692757   0.692  -0.89295   3.59325   6.83262   1.38218   0.00000   2.502E-02   0.000E+00   9.750E-01
 314  7.42845984   0.692  -0.89325   3.59334   6.83313   1.38458   0.00000   2.531E-02   0.000E+00   9.747E-01
 315  7.42998672   0.692  -0.89356   3.59343   6.83364   1.38697   0.00000   2.560E-02   0.000E+00   9.744E-01
 316  7.43150825   0.692  -0.89386   3.59352   6.83415   1.38937   0.00000   2.589E-02   0.000E+00   9.741E-01
 317  7.43302447   0.692  -0.89411   3.59361   6.83466   1.39172   0.00000   2.622E-02   0.000E+00   9.738E-01
 318  7.43453541   0.692  -0.89433   3.59370   6.83516   1.39404   0.00000   2.657E-02   0.000E+00   9.734E-01
 319  7.43604112   0.692  -0.89455   3.59380   6.83567   1.39637   0.00000   2.692E-02   0.000E+00   9.731E-01
 320  7.43754162   0.692  -0.89477   3.59390   6.83617   1.39869   0.00000   2.727E-02   0.000E+00   9.727E-01
 321  7.43903696   0.692  -0.89499   3.59399   6.83667   1.40101   0.00000   2.762E-02   0.000E+00   9.724E-01
 322  7.44052716   0.692  -0.89521   3.59409   6.83718   1.40333   0.00000   2.798E-02   0.000E+00   9.720E-01
 323  7.44201227   0.692  -0.89542   3.59418   6.83768   1.40565   0.00000   2.833E-02   0.000E+00   9.717E-01
 324  7.44349232   0.692  -0.89564   3.59428   6.83818   1.40798   0.00000   2.868E-02   0.000E+00   9.713E-01
 325  7.44496734   0.692  -0.89586   3.59438   6.83869   1.41030   0.00000   2.903E-02   0.000E+00   9.710E-01
 326  7.44643737   0.692  -0.89608   3.59447   6.83919   1.41262   0.00000   2.939E-02   0.000E+00   9.706E-01
 327  7.44790244   0.692  -0.89630   3.59457   6.83970   1.41494   0.00000   2.974E-02   0.000E+00   9.703E-01
 328  7.44936259   0.692  -0.89652   3.59466   6.84020   1.41727   0.00000   3.009E-02   0.000E+00   9.699E-01
 329  7.45081784   0.692  -0.89673   3.59476   6.84070   1.41959   0.00000   3.044E-02   0.000E+00   9.696E-01
 330  7.45226823   0.692  -0.89695   3.59485   6.84121   1.42191   0.00000   3.080E-02   0.000E+00   9.692E-01
 331  7.45371379   0.692  -0.89714   3.59495   6.84171   1.42420   0.00000   3.114E-02   0.000E+00   9.689E-01
 332  7.45515456   0.692  -0.89727   3.59506   6.84221   1.42646   0.00000   3.149E-02   0.000E+00   9.685E-01
 333  7.45659057   0.692  -0.89741   3.59516   6.84271   1.42871   0.00000   3.183E-02   0.000E+00   9.682E-01
 334  7.45802184   0.692  -0.89754   3.59526   6.84321   1.43096   0.00000   3.217E-02   0.000E+00   9.678E-01
 335  7.45944841   0.692  -0.89767   3.59536   6.84371   1.43321   0.00000   3.251E-02   0.000E+00   9.675E-01
 336  7.46087031   0.692  -0.89781   3.59547   6.84421   1.43546   0.00000   3.286E-02   0.000E+00   9.671E-01
 337  7.46228757   0.692  -0.89794   3.59557   6.84471   1.43771   0.00000   3.320E-02   0.000E+00   9.668E-01
 338  7.46370022   0.692  -0.89808   3.59567   6.84521   1.43997   0.00000   3.354E-02   0.000E+00   9.665E-01
 339  7.46510829   0.692  -0.89821   3.59578   6.84571   1.44222   0.00000   3.389E-02   0.000E+00   9.661E-01
 340  7.46651180   0.692  -0.89835   3.59588   6.84621   1.44447   0.00000   3.423E-02   0.000E+00   9.658E-01
 341  7.46791080   0.692  -0.89848   3.59598   6.84671   1.44672   0.00000   3.457E-02   0.000E+00   9.654E-01
 342  7.46930531   0.692  -0.89861   3.59608   6.84721   1.44897   0.00000   3.491E-02   0.000E+00   9.651E-01
 343  7.47069535   0.692  -0.89875   3.59619   6.84771   1.45122   0.00000   3.526E-02   0.000E+00   9.647E-01
 344  7.47208096   0.692  -0.89888   3.59629   6.84821   1.45348   0.00000   3.560E-02   0.000E+00   9.644E-01
 345  7.47346216   0.692  -0.89902   3.59639   6.84871   1.45573   0.00000   3.594E-02   0.000E+00   9.641E-01
 346  7.47483898   0.692  -0.89908   3.59650   6.84920   1.45792   0.00000   3.633E-02   0.000E+00   9.637E-01
 347  7.47621145   0.692  -0.89913   3.59661   6.84970   1.46010   0.00000   3.673E-02   0.000E+00   9.633E-01
 348  7.47757960   0.692  -0.89918   3.59673   6.85019   1.46229   0.00000   3.713E-02   0.000E+00   9.629E-01
 349  7.47894345   0.692  -0.89923   3.59684   6.85069   1.46447   0.00000   3.753E-02   0.000E+00   9.625E-01
 350  7.48030303   0.692  -0.89928   3.59695   6.85118   1.46665   0.00000   3.793E-02   0.000E+00   9.621E-01
 351  7.48165837   0.692  -0.89932   3.59706   6.85168   1.46883   0.00000   3.833E-02   0.000E+00   9.617E-01
 352  7.48300949   0.692  -0.89937   3.59717   6.85217   1.47102   0.00000   3.874E-02   0.000E+00   9.613E-01
 353  7.48435642   0.692  -0.89942   3.59728   6.85267   1.47320   0.00000   3.914E-02   0.000E+00   9.609E-01
 354  7.48569919   0.692  -0.89947   3.59739   6.85316   1.47538   0.00000   3.954E-02   0.000E+00   9.605E-01
 355  7.48703781   0.692  -0.89952   3.59751   6.85366   1.47757   0.00000   3.994E-02   0.000E+00   9.601E-01
 356  7.48837233   0.692  -0.89957   3.59762   6.85415   1.47975   0.00000   4.034E-02   0.000E+00   9.597E-01
 357  7.48970276   0.692  -0.89962   3.59773   6.85465   1.48193   0.00000   4.074E-02   0.000E+00   9.593E-01
 358  7.49102912   0.692  -0.89967   3.59784   6.85514   1.48411   0.00000   4.114E-02   0.000E+00   9.589E-01
 359  7.49235144   0.692  -0.89971   3.59795   6.85564   1.48630   0.00000   4.154E-02   0.000E+00   9.585E-01
 360  7.49366975   0.692  -0.89976   3.59806   6.85613   1.48848   0.00000   4.194E-02   0.000E+00   9.581E-01
 361  7.49498407   0.692  -0.89974   3.59818   6.85663   1.49060   0.00000   4.244E-02   0.000E+00   9.576E-01
 362  7.49629443   0.692  -0.89970   3.59830   6.85712   1.49272   0.00000   4.296E-02   0.000E+00   9.570E-01
 363  7.49760084   0.692  -0.89966   3.59843   6.85761   1.49484   0.00000   4.348E-02   0.000E+00   9.565E-01
 364  7.49890334   0.692  -0.89962   3.59855   6.85810   1.49696   0.00000   4.401E-02   0.000E+00   9.560E-01
 365  7.50020194   0.692  -0.89958   3.59867   6.85859   1.49907   0.00000   4.453E-02   0.000E+00   9.555E-01
 366  7.50149667   0.692  -0.89954   3.59879   6.85909   1.50119   0.00000   4.505E-02   0.000E+00   9.550E-01
 367  7.50278755   0.692  -0.89950   3.59891   6.85958   1.50331   0.00000   4.557E-02   0.000E+00   9.544E-01
 368  7.50407461   0.692  -0.89946   3.59903   6.86007   1.50542   0.00000   4.609E-02   0.000E+00   9.539E-01
 369  7.50535786   0.692  -0.89942   3.59915   6.86056   1.50754   0.00000   4.661E-02   0.000E+00   9.534E-01
 370  7.50663733   0.692  -0.89938   3.59927   6.86105   1.50966   0.00000   4.713E-02   0.000E+00   9.529E-01
 371  7.50791304   0.692  -0.89934   3.59939   6.86155   1.51178   0.00000   4.765E-02   0.000E+00   9.523E-01
 372  7.50918502   0.692  -0.89930   3.59952   6.86204   1.51389   0.00000   4.818E-02   0.000E+00   9.518E-01
 373  7.51045328   0.692  -0.89926   3.59964   6.86253   1.51601   0.00000   4.870E-02   0.000E+00   9.513E-01
 374  7.51171785   0.692  -0.89922   3.59976   6.86302   1.51813   0.00000   4.922E-02   0.000E+00   9.508E-01
 375  7.51297875   0.692  -0.89918   3.59988   6.86351   1.52024   0.00000   4.974E-02   0.000E+00   9.503E-01
 376  7.51423600   0.692  -0.89910   3.60001   6.86401   1.52233   0.00000   5.026E-02   0.000E+00   9.497E-01
 377  7.51548962   0.692  -0.89897   3.60014   6.86450   1.52438   0.00000   5.077E-02   0.000E+00   9.492E-01
 378  7.51673963   0.692  -0.89884   3.60027   6.86499   1.52643   0.00000   5.129E-02   0.000E+00   9.487E-01
 379  7.51798605   0.692  -0.89871   3.60040   6.86548   1.52849   0.00000   5.181E-02   0.000E+00   9.482E-01
 380  7.51922891   0.692  -0.89858   3.60054   6.86597   1.53054   0.00000   5.232E-02   0.000E+00   9.477E-01
 381  7.52046822   0.692  -0.89845   3.60067   6.86646   1.53259   0.00000   5.284E-02   0.000E+00   9.472E-01
 382  7.52170400   0.692  -0.89832   3.60080   6.86695   1.53464   0.00000   5.336E-02   0.000E+00   9.466E-01
 383  7.52293628   0.692  -0.89819   3.60093   6.86744   1.53670   0.00000   5.387E-02   0.000E+00   9.461E-01
 384  7.52416507   0.692  -0.89806   3.60106   6.86793   1.53875   0.00000   5.439E-02   0.000E+00   9.456E-01
 385  7.52539039   0.692  -0.89793   3.60120   6.86842   1.54080   0.00000   5.490E-02   0.000E+00   9.451E-01
 386  7.52661227   0.692  -0.89780   3.60133   6.86891   1.54286   0.00000   5.542E-02   0.000E+00   9.446E-01
 387  7.52783071   0.692  -0.89767   3.60146   6.86940   1.54491   0.00000   5.594E-02   0.000E+00   9.441E-01
 388  7.52904575   0.692  -0.89754   3.60159   6.86989   1.54696   0.00000   5.645E-02   0.000E+00   9.435E-01
 389  7.53025740   0.692  -0.89741   3.60173   6.87038   1.54901   0.00000   5.697E-02   0.000E+00   9.430E-01
 390  7.53146568   0.692  -0.89728   3.60186   6.87087   1.55107   0.00000   5.748E-02   0.000E+00   9.425E-01
 391  7.53267061   0.692  -0.89715   3.60199   6.87136   1.55312   0.00000   5.800E-02   0.000E+00   9.420E-01
 392  7.54052739   0.692  -0.89570   3.60295   6.87458   1.56623   0.00000   6.180E-02   0.000E+00   9.382E-01
 393  7.54824455   0.692  -0.89424   3.60391   6.87780   1.57934   0.00000   6.561E-02   0.000E+00   9.344E-01
 394  7.55582697   0.692  -0.89244   3.60492   6.88103   1.59220   0.00000   6.993E-02   0.000E+00   9.301E-01
 395  7.56327928   0.692  -0.89043   3.60596   6.88425   1.60491   0.00000   7.456E-02   0.000E+00   9.254E-01
 396  7.57060587   0.692  -0.88829   3.60701   6.88747   1.61753   0.00000   7.928E-02   0.000E+00   9.207E-01
 397  7.57781090   0.692  -0.88579   3.60813   6.89070   1.62985   0.00000   8.430E-02   0.000E+00   9.157E-01
 398  7.58489835   0.692  -0.88328   3.60924   6.89393   1.64217   0.00000   8.931E-02   0.000E+00   9.107E-01
 399  7.59187199   0.692  -0.88043   3.61040   6.89716   1.65417   0.00000   9.463E-02   0.000E+00   9.054E-01
 400  7.59873542   0.692  -0.87751   3.61157   6.90040   1.66611   0.00000   1.000E-01   0.000E+00   9.000E-01
 401  7.60549206   0.692  -0.87447   3.61275   6.90364   1.67785   0.00000   1.056E-01   0.000E+00   8.944E-01
 402  7.61214520   0.692  -0.87125   3.61396   6.90688   1.68934   0.00000   1.114E-01   0.000E+00   8.886E-01
 403  7.61869795   0.692  -0.86803   3.61517   6.91013   1.70081   0.00000   1.172E-01   0.000E+00   8.828E-01
 404  7.62515330   0.692  -0.86449   3.61638   6.91319   1.71151   0.00000   1.231E-01   0.000E+00   8.769E-01
 405  7.63151410   0.692  -0.86086   3.61759   6.91626   1.72203   0.00000   1.295E-01   0.000E+00   8.705E-01
 406  7.63778308   0.692  -0.85714   3.61882   6.91934   1.73240   0.00000   1.360E-01   0.000E+00   8.640E-01
 407  7.64396286   0.692  -0.85338   3.62006   6.92242   1.74260   0.00000   1.426E-01   0.000E+00   8.574E-01
 408  7.65005593   0.692  -0.84957   3.62129   6.92552   1.75265   0.00000   1.493E-01   0.000E+00   8.507E-01
 409  7.65606470   0.692  -0.84574   3.62254   6.92861   1.76251   0.00000   1.570E-01   0.000E+00   8.430E-01
 410  7.66199147   0.692  -0.84194   3.62377   6.93170   1.77220   0.00000   1.637E-01   0.000E+00   8.353E-01
 411  7.66783844   0.692  -0.83803   3.62503   6.93481   1.78172   0.00000   1.723E-01   0.000E+00   8.277E-01
 412  7.67360774   0.692  -0.83413   3.62627   6.93791   1.79106   0.00000   1.802E-01   0.000E+00   8.198E-01
 413  7.67930140   0.692  -0.83028   3.62750   6.94103   1.80021   0.00000   1.886E-01   0.000E+00   8.114E-01
 414  7.68492138   0.692  -0.82632   3.62876   6.94414   1.80918   0.00000   1.967E-01   0.000E+00   8.026E-01
 415  7.69046957   0.692  -0.82239   3.63002   6.94726   1.81794   0.00000   2.062E-01   0.000E+00   7.938E-01
 416  7.69594777   0.692  -0.81846   3.63127   6.95038   1.82651   0.00000   2.151E-01   0.000E+00   7.849E-01
 417  7.70135772   0.692  -0.81452   3.63253   6.95351   1.83486   0.00000   2.249E-01   0.000E+00   7.751E-01
 418  7.70670112   0.692  -0.81059   3.63380   6.95665   1.84296   0.00000   2.347E-01   0.000E+00   7.647E-01
 419  7.71197957   0.692  -0.80668   3.63506   6.95978   1.85082   0.00000   2.456E-01   0.000E+00   7.544E-01
 420  7.71719463   0.692  -0.80286   3.63631   6.96294   1.85845   0.00000   2.566E-01   0.000E+00   7.434E-01
 421  7.72234781   0.692  -0.79898   3.63758   6.96610   1.86580   0.00000   2.673E-01   0.000E+00   7.317E-01
 422  7.72744057   0.692  -0.79523   3.63882   6.96929   1.87288   0.00000   2.790E-01   0.000E+00   7.203E-01
 423  7.73247429   0.692  -0.79149   3.64008   6.97250   1.87967   0.00000   2.919E-01   0.000E+00   7.079E-01
 424  7.73745034   0.692  -0.78795   3.64130   6.97574   1.88616   0.00000   3.049E-01   0.000E+00   6.951E-01
 425  7.74237002   0.692  -0.78442   3.64252   6.97900   1.89230   0.00000   3.180E-01   0.000E+00   6.817E-01
 426  7.74723459   0.692  -0.78113   3.64370   6.98233   1.89807   0.00000   3.322E-01   0.000E+00   6.668E-01
 427  7.75204528   0.692  -0.77792   3.64486   6.98571   1.90346   0.00000   3.469E-01   1.000E-03   6.521E-01
 428  7.75680326   0.692  -0.77502   3.64596   6.98916   1.90838   0.00000   3.630E-01   1.000E-03   6.360E-01
 429  7.76150968   0.692  -0.77220   3.64706   6.99258   1.91272   0.00000   3.799E-01   1.000E-03   6.191E-01
 430  7.76616565   0.692  -0.76966   3.64808   6.99620   1.91664   0.00000   3.987E-01   1.000E-03   6.008E-01
 431  7.77077223   0.692  -0.76737   3.64907   6.99989   1.92005   0.00039   4.180E-01   1.000E-03   5.813E-01
 432  7.77533045   0.692  -0.76526   3.65002   7.00355   1.92296   0.00193   4.386E-01   1.000E-03   5.604E-01
 433  7.77984134   0.692  -0.76347   3.65089   7.00709   1.92544   0.00564   4.612E-01   1.000E-03   5.378E-01
 434  7.78430585   0.692  -0.76203   3.65169   7.01044   1.92749   0.00937   4.851E-01   1.000E-03   5.131E-01
 435  7.78872493   0.692  -0.76089   3.65243   7.01359   1.92907   0.01257   5.105E-01   1.501E-03   4.875E-01
 436  7.79309950   0.692  -0.76005   3.65310   7.01658   1.93027   0.01584   5.370E-01   2.000E-03   4.610E-01
 437  7.79743044   0.692  -0.75971   3.65367   7.01934   1.93092   0.01981   5.645E-01   2.000E-03   4.335E-01
 438  7.80171862   0.692  -0.75969   3.65416   7.02191   1.93123   0.02356   5.924E-01   2.127E-03   4.055E-01
 439  7.80596487   0.692  -0.76025   3.65453   7.02419   1.93092   0.02692   6.209E-01   2.474E-03   3.767E-01
 440  7.81017001   0.692  -0.76081   3.65490   7.02647   1.93061   0.03027   6.493E-01   2.821E-03   3.479E-01
 441  7.81433482   0.692  -0.76195   3.65514   7.02844   1.92980   0.03413   6.777E-01   3.136E-03   3.192E-01
 442  7.81846007   0.692  -0.76370   3.65524   7.03007   1.92845   0.03852   7.060E-01   3.416E-03   2.906E-01
 443  7.82254651   0.692  -0.76545   3.65533   7.03170   1.92709   0.04290   7.343E-01   3.696E-03   2.620E-01
 444  7.82659485   0.692  -0.76720   3.65543   7.03333   1.92574   0.04729   7.627E-01   3.977E-03   2.334E-01
 445  7.83060580   0.692  -0.76919   3.65546   7.03473   1.92420   0.05064   7.899E-01   4.803E-03   2.061E-01
 446  7.83458005   0.692  -0.77145   3.65543   7.03598   1.92260   0.05426   8.131E-01   5.000E-03   1.822E-01
 447  7.83851826   0.692  -0.77399   3.65534   7.03710   1.92094   0.05509   8.343E-01   5.000E-03   1.607E-01
 448  7.84242107   0.692  -0.77685   3.65518   7.03808   1.91918   0.05807   8.558E-01   5.218E-03   1.392E-01
 449  7.84628913   0.692  -0.77996   3.65495   7.03893   1.91741   0.06010   8.749E-01   6.000E-03   1.195E-01
 450  7.85012304   0.692  -0.78331   3.65467   7.03966   1.91561   0.06105   8.921E-01   6.000E-03   1.019E-01
 451  7.85392340   0.692  -0.78687   3.65433   7.04026   1.91371   0.06105   9.100E-01   6.000E-03   8.412E-02
 452  7.85769079   0.692  -0.79062   3.65395   7.04079   1.91188   0.06351   9.256E-01   6.000E-03   6.834E-02
 453  7.86142578   0.692  -0.79452   3.65351   7.04122   1.91007   0.06403   9.392E-01   6.737E-03   5.402E-02
 454  7.86512893   0.691  -0.79852   3.65305   7.04158   1.90829   0.06403   9.523E-01   7.000E-03   4.090E-02
 455  7.86880076   0.691  -0.80263   3.65255   7.04185   1.90655   0.06403   9.637E-01   7.000E-03   2.912E-02
 456  7.87244181   0.691  -0.80681   3.65202   7.04206   1.90488   0.06403   9.741E-01   7.000E-03   1.868E-02
 457  7.87605259   0.691  -0.81103   3.65147   7.04221   1.90330   0.06403   9.837E-01   7.000E-03   9.346E-03
 458  7.87963360   0.691  -0.81527   3.65090   7.04230   1.90179   0.06403   9.921E-01   7.000E-03   1.015E-03
 459  7.88318532   0.691  -0.81947   3.65031   7.04233   1.90037   0.06105   9.994E-01   7.000E-03  -6.294E-03
 460  7.88670823   0.691  -0.82359   3.64973   7.04233   1.89906   0.06105   1.005E+00   7.000E-03  -1.222E-02
 461  7.89020279   0.691  -0.82760   3.64914   7.04229   1.89785   0.06105   1.011E+00   7.000E-03  -1.753E-02
 462  7.89366945   0.691  -0.83149   3.64857   7.04222   1.89674   0.06033   1.015E+00   7.000E-03  -2.223E-02
 463  7.89710867   0.691  -0.83525   3.64800   7.04211   1.89571   0.05807   1.018E+00   7.000E-03  -2.596E-02
 464  7.90052086   0.691  -0.83885   3.64746   7.04198   1.89479   0.05807   1.022E+00   7.000E-03  -2.900E-02
 465  7.90390645   0.691  -0.84225   3.64693   7.04184   1.89397   0.05583   1.025E+00   7.000E-03  -3.180E-02
 466  7.90726585   0.691  -0.84546   3.64642   7.04168   1.89324   0.05509   1.026E+00   7.000E-03  -3.362E-02
 467  7.91059947   0.691  -0.84848   3.64594   7.04150   1.89260   0.05509   1.028E+00   7.000E-03  -3.509E-02
 468  7.91390769   0.691  -0.85127   3.64549   7.04132   1.89205   0.05249   1.029E+00   7.000E-03  -3.623E-02
 469  7.91719091   0.691  -0.85387   3.64506   7.04113   1.89156   0.05249   1.030E+00   7.000E-03  -3.683E-02
 470  7.92044948   0.691  -0.85624   3.64467   7.04094   1.89114   0.05025   1.030E+00   7.000E-03  -3.739E-02
 471  7.92368379   0.691  -0.85839   3.64430   7.04074   1.89080   0.05025   1.030E+00   7.000E-03  -3.727E-02
 472  7.92689420   0.691  -0.86033   3.64397   7.04055   1.89051   0.04940   1.030E+00   7.000E-03  -3.717E-02
 473  7.93008104   0.691  -0.86206   3.64366   7.04036   1.89027   0.04765   1.030E+00   7.000E-03  -3.680E-02
 474  7.93324467   0.691  -0.86360   3.64338   7.04017   1.89009   0.04765   1.029E+00   7.000E-03  -3.593E-02
 475  7.93638542   0.691  -0.86496   3.64313   7.03998   1.88995   0.04765   1.028E+00   7.000E-03  -3.513E-02
 476  7.93950362   0.691  -0.86608   3.64292   7.03980   1.88984   0.04570   1.027E+00   7.000E-03  -3.438E-02
 477  7.94259959   0.691  -0.86706   3.64273   7.03963   1.88977   0.04467   1.026E+00   7.000E-03  -3.337E-02
 478  7.94567364   0.691  -0.86790   3.64256   7.03946   1.88973   0.04467   1.025E+00   7.000E-03  -3.209E-02
 479  7.94872609   0.691  -0.86854   3.64243   7.03930   1.88972   0.04402   1.024E+00   7.000E-03  -3.097E-02
 480  7.95175724   0.691  -0.86908   3.64230   7.03915   1.88972   0.04308   1.023E+00   7.000E-03  -2.992E-02
 481  7.95476738   0.691  -0.86952   3.64220   7.03900   1.88973   0.04218   1.022E+00   7.000E-03  -2.886E-02
 482  7.95775679   0.691  -0.86974   3.64214   7.03887   1.88976   0.04134   1.021E+00   7.000E-03  -2.780E-02
 483  7.96072577   0.691  -0.86996   3.64207   7.03875   1.88979   0.04051   1.020E+00   7.000E-03  -2.673E-02
 484  7.96367459   0.691  -0.87018   3.64201   7.03862   1.88982   0.03967   1.019E+00   7.000E-03  -2.567E-02
 485  7.96660353   0.691  -0.87021   3.64198   7.03851   1.88987   0.03925   1.018E+00   6.861E-03  -2.463E-02
 486  7.96951284   0.691  -0.87016   3.64196   7.03841   1.88993   0.03897   1.017E+00   6.674E-03  -2.361E-02
 487  7.97240279   0.691  -0.87012   3.64194   7.03831   1.88998   0.03870   1.016E+00   6.487E-03  -2.258E-02
 488  7.97527364   0.691  -0.87008   3.64192   7.03821   1.89004   0.03842   1.015E+00   6.300E-03  -2.155E-02
 489  7.97812564   0.691  -0.87004   3.64190   7.03810   1.89010   0.03814   1.014E+00   6.113E-03  -2.052E-02
 490  7.98095902   0.691  -0.86995   3.64189   7.03801   1.89013   0.03782   1.013E+00   6.000E-03  -1.978E-02
 491  7.98377405   0.691  -0.86979   3.64190   7.03794   1.89014   0.03745   1.013E+00   6.000E-03  -1.948E-02
 492  7.98657094   0.691  -0.86964   3.64190   7.03786   1.89014   0.03708   1.012E+00   6.000E-03  -1.918E-02
 493  7.98934994   0.691  -0.86948   3.64191   7.03779   1.89014   0.03671   1.012E+00   6.000E-03  -1.889E-02
 494  7.99211127   0.691  -0.86933   3.64191   7.03771   1.89015   0.03634   1.012E+00   6.000E-03  -1.859E-02
 495  7.99485515   0.691  -0.86917   3.64192   7.03764   1.89015   0.03597   1.012E+00   6.000E-03  -1.829E-02
 496  7.99758180   0.691  -0.86901   3.64192   7.03756   1.89015   0.03560   1.011E+00   6.000E-03  -1.799E-02
 497  8.00029145   0.691  -0.86886   3.64193   7.03749   1.89016   0.03523   1.011E+00   6.000E-03  -1.769E-02
 498  8.00298429   0.691  -0.86872   3.64193   7.03742   1.89014   0.03487   1.011E+00   6.000E-03  -1.748E-02
 499  8.00566054   0.691  -0.86861   3.64193   7.03735   1.89010   0.03453   1.011E+00   6.000E-03  -1.742E-02
 500  8.00832039   0.691  -0.86851   3.64193   7.03729   1.89005   0.03419   1.011E+00   6.000E-03  -1.736E-02
 501  8.01096406   0.691  -0.86840   3.64193   7.03722   1.89000   0.03385   1.011E+00   6.000E-03  -1.730E-02
 502  8.01359173   0.691  -0.86829   3.64193   7.03716   1.88995   0.03351   1.011E+00   6.000E-03  -1.725E-02
 503  8.01620359   0.691  -0.86818   3.64193   7.03709   1.88991   0.03317   1.011E+00   6.000E-03  -1.719E-02
 504  8.01879985   0.691  -0.86807   3.64194   7.03703   1.88986   0.03283   1.011E+00   6.000E-03  -1.713E-02
 505  8.02138067   0.691  -0.86797   3.64194   7.03696   1.88981   0.03249   1.011E+00   6.000E-03  -1.707E-02
 506  8.02394625   0.691  -0.86786   3.64194   7.03690   1.88976   0.03215   1.011E+00   6.000E-03  -1.701E-02
 507  8.02649676   0.691  -0.86775   3.64194   7.03683   1.88972   0.03181   1.011E+00   6.000E-03  -1.696E-02
 508  8.02903238   0.691  -0.86764   3.64194   7.03677   1.88967   0.03147   1.011E+00   6.000E-03  -1.690E-02
 509  8.03155328   0.691  -0.86753   3.64194   7.03670   1.88962   0.03113   1.011E+00   6.000E-03  -1.684E-02
 510  8.03405963   0.691  -0.86745   3.64194   7.03664   1.88957   0.03079   1.011E+00   6.000E-03  -1.680E-02
 511  8.03655161   0.691  -0.86742   3.64193   7.03657   1.88950   0.03044   1.011E+00   6.000E-03  -1.679E-02
 512  8.03902936   0.691  -0.86739   3.64192   7.03650   1.88943   0.03009   1.011E+00   6.000E-03  -1.677E-02
 513  8.04149306   0.691  -0.86737   3.64191   7.03644   1.88937   0.02974   1.011E+00   6.000E-03  -1.676E-02
 514  8.04394286   0.691  -0.86734   3.64190   7.03637   1.88930   0.02939   1.011E+00   6.000E-03  -1.675E-02
 515  8.04637892   0.691  -0.86731   3.64189   7.03630   1.88923   0.02904   1.011E+00   6.000E-03  -1.674E-02
 516  8.04880139   0.691  -0.86728   3.64188   7.03624   1.88916   0.02869   1.011E+00   6.000E-03  -1.673E-02
 517  8.05121042   0.691  -0.86725   3.64187   7.03617   1.88910   0.02834   1.011E+00   6.000E-03  -1.672E-02
 518  8.05360617   0.691  -0.86723   3.64186   7.03610   1.88903   0.02799   1.011E+00   6.000E-03  -1.671E-02
 519  8.05598877   0.691  -0.86720   3.64185   7.03604   1.88896   0.02764   1.011E+00   6.000E-03  -1.670E-02
 520  8.05835837   0.691  -0.86717   3.64184   7.03597   1.88889   0.02729   1.011E+00   6.000E-03  -1.669E-02
 521  8.06071511   0.691  -0.86714   3.64183   7.03590   1.88883   0.02694   1.011E+00   6.000E-03  -1.667E-02
 522  8.06305914   0.691  -0.86711   3.64182   7.03584   1.88876   0.02659   1.011E+00   6.000E-03  -1.666E-02
 523  8.06539057   0.691  -0.86708   3.64181   7.03577   1.88869   0.02624   1.011E+00   6.000E-03  -1.665E-02
 524  8.06770956   0.691  -0.86706   3.64181   7.03570   1.88862   0.02588   1.011E+00   6.000E-03  -1.664E-02
 525  8.07001624   0.691  -0.86703   3.64180   7.03563   1.88856   0.02553   1.011E+00   6.000E-03  -1.663E-02
 526  8.07231072   0.691  -0.86700   3.64179   7.03557   1.88849   0.02518   1.011E+00   6.000E-03  -1.662E-02
 527  8.07459315   0.691  -0.86697   3.64178   7.03550   1.88842   0.02483   1.011E+00   6.000E-03  -1.661E-02
 528  8.07686364   0.691  -0.86695   3.64177   7.03543   1.88835   0.02451   1.011E+00   5.991E-03  -1.659E-02
 529  8.07912233   0.691  -0.86696   3.64175   7.03537   1.88829   0.02425   1.011E+00   5.954E-03  -1.656E-02
 530  8.08136933   0.691  -0.86697   3.64174   7.03530   1.88822   0.02399   1.011E+00   5.917E-03  -1.653E-02
 531  8.08360476   0.691  -0.86698   3.64172   7.03524   1.88816   0.02373   1.011E+00   5.880E-03  -1.649E-02
 532  8.08582875   0.691  -0.86698   3.64171   7.03517   1.88810   0.02348   1.011E+00   5.843E-03  -1.646E-02
 533  8.08804140   0.691  -0.86699   3.64169   7.03511   1.88803   0.02322   1.011E+00   5.806E-03  -1.643E-02
 534  8.09024284   0.691  -0.86700   3.64168   7.03504   1.88797   0.02296   1.011E+00   5.770E-03  -1.639E-02
 535  8.09243318   0.690  -0.86701   3.64166   7.03498   1.88790   0.02270   1.011E+00   5.733E-03  -1.636E-02
 536  8.09461253   0.690  -0.86702   3.64165   7.03491   1.88784   0.02245   1.011E+00   5.696E-03  -1.633E-02
 537  8.09678099   0.690  -0.86703   3.64163   7.03485   1.88777   0.02219   1.011E+00   5.659E-03  -1.629E-02
 538  8.09893868   0.690  -0.86703   3.64162   7.03478   1.88771   0.02193   1.011E+00   5.622E-03  -1.626E-02
 539  8.10108570   0.690  -0.86704   3.64160   7.03472   1.88764   0.02167   1.011E+00   5.585E-03  -1.623E-02
 540  8.10322216   0.690  -0.86705   3.64159   7.03465   1.88758   0.02142   1.011E+00   5.548E-03  -1.619E-02
 541  8.10534817   0.690  -0.86706   3.64157   7.03458   1.88751   0.02116   1.011E+00   5.511E-03  -1.616E-02
 542  8.10746381   0.690  -0.86707   3.64156   7.03452   1.88745   0.02090   1.011E+00   5.474E-03  -1.613E-02
 543  8.10956920   0.690  -0.86707   3.64154   7.03445   1.88739   0.02064   1.011E+00   5.437E-03  -1.609E-02
 544  8.11166443   0.690  -0.86708   3.64153   7.03439   1.88732   0.02039   1.011E+00   5.401E-03  -1.606E-02
 545  8.11374960   0.690  -0.86709   3.64152   7.03432   1.88726   0.02013   1.011E+00   5.364E-03  -1.603E-02
 546  8.11582481   0.690  -0.86710   3.64150   7.03426   1.88719   0.01987   1.011E+00   5.327E-03  -1.599E-02
 547  8.11789015   0.690  -0.86711   3.64149   7.03419   1.88713   0.01961   1.011E+00   5.290E-03  -1.596E-02
 548  8.11994572   0.690  -0.86711   3.64147   7.03413   1.88706   0.01936   1.011E+00   5.253E-03  -1.593E-02
 549  8.12199160   0.690  -0.86712   3.64146   7.03406   1.88700   0.01910   1.011E+00   5.216E-03  -1.589E-02
 550  8.12402788   0.690  -0.86713   3.64144   7.03400   1.88693   0.01884   1.011E+00   5.179E-03  -1.586E-02
 551  8.12605467   0.690  -0.86714   3.64143   7.03393   1.88687   0.01858   1.011E+00   5.142E-03  -1.583E-02
 552  8.12807204   0.690  -0.86715   3.64141   7.03387   1.88680   0.01833   1.011E+00   5.105E-03  -1.579E-02
 553  8.13008008   0.690  -0.86715   3.64140   7.03380   1.88674   0.01807   1.011E+00   5.068E-03  -1.576E-02
 554  8.13207888   0.690  -0.86716   3.64138   7.03374   1.88668   0.01781   1.011E+00   5.032E-03  -1.573E-02
 555  8.13406853   0.690  -0.86717   3.64137   7.03367   1.88662   0.01757   1.011E+00   5.000E-03  -1.569E-02
 556  8.13604910   0.690  -0.86717   3.64136   7.03362   1.88658   0.01742   1.011E+00   5.000E-03  -1.558E-02
 557  8.13802067   0.690  -0.86717   3.64135   7.03357   1.88655   0.01727   1.011E+00   5.000E-03  -1.548E-02
 558  8.13998334   0.690  -0.86717   3.64134   7.03352   1.88651   0.01712   1.011E+00   5.000E-03  -1.538E-02
 559  8.14193718   0.690  -0.86717   3.64133   7.03346   1.88648   0.01697   1.011E+00   5.000E-03  -1.528E-02
 560  8.14388227   0.690  -0.86717   3.64132   7.03341   1.88645   0.01682   1.010E+00   5.000E-03  -1.518E-02
 561  8.14581868   0.690  -0.86717   3.64131   7.03336   1.88641   0.01668   1.010E+00   5.000E-03  -1.508E-02
 562  8.14774650   0.690  -0.86717   3.64130   7.03331   1.88638   0.01653   1.010E+00   5.000E-03  -1.498E-02
 563  8.14966580   0.690  -0.86717   3.64129   7.03326   1.88635   0.01638   1.010E+00   5.000E-03  -1.488E-02
 564  8.15157666   0.690  -0.86717   3.64128   7.03321   1.88631   0.01623   1.010E+00   5.000E-03  -1.478E-02
 565  8.15347914   0.690  -0.86717   3.64127   7.03315   1.88628   0.01608   1.010E+00   5.000E-03  -1.468E-02
 566  8.15537333   0.690  -0.86717   3.64126   7.03310   1.88624   0.01593   1.010E+00   5.000E-03  -1.458E-02
 567  8.15725929   0.690  -0.86717   3.64125   7.03305   1.88621   0.01578   1.010E+00   5.000E-03  -1.448E-02
 568  8.15913710   0.690  -0.86717   3.64124   7.03300   1.88618   0.01563   1.010E+00   5.000E-03  -1.437E-02
 569  8.16100682   0.690  -0.86717   3.64123   7.03295   1.88614   0.01549   1.010E+00   5.000E-03  -1.427E-02
 570  8.16286853   0.690  -0.86717   3.64122   7.03289   1.88611   0.01534   1.010E+00   5.000E-03  -1.417E-02
 571  8.16472229   0.690  -0.86717   3.64121   7.03284   1.88608   0.01519   1.009E+00   5.000E-03  -1.407E-02
 572  8.16656817   0.690  -0.86717   3.64120   7.03279   1.88604   0.01504   1.009E+00   5.000E-03  -1.397E-02
 573  8.16840624   0.690  -0.86717   3.64119   7.03274   1.88601   0.01489   1.009E+00   5.000E-03  -1.387E-02
 574  8.17023656   0.690  -0.86717   3.64118   7.03269   1.88597   0.01474   1.009E+00   5.000E-03  -1.377E-02
 575  8.17205920   0.690  -0.86717   3.64117   7.03263   1.88594   0.01459   1.009E+00   5.000E-03  -1.367E-02
 576  8.17387422   0.690  -0.86716   3.64116   7.03258   1.88591   0.01444   1.009E+00   5.000E-03  -1.357E-02
 577  8.17568169   0.690  -0.86716   3.64115   7.03253   1.88587   0.01429   1.009E+00   5.000E-03  -1.347E-02
 578  8.17748167   0.690  -0.86716   3.64114   7.03248   1.88584   0.01415   1.009E+00   5.000E-03  -1.337E-02
 579  8.17927422   0.690  -0.86716   3.64113   7.03243   1.88581   0.01400   1.009E+00   5.000E-03  -1.327E-02
 580  8.18105940   0.690  -0.86716   3.64112   7.03238   1.88577   0.01385   1.009E+00   5.000E-03  -1.316E-02
 581  8.18283728   0.690  -0.86716   3.64111   7.03232   1.88574   0.01370   1.008E+00   5.000E-03  -1.306E-02
 582  8.18460790   0.690  -0.86716   3.64110   7.03227   1.88571   0.01355   1.008E+00   5.000E-03  -1.296E-02
 583  8.18637134   0.690  -0.86716   3.64109   7.03222   1.88567   0.01340   1.008E+00   5.000E-03  -1.286E-02
 584  8.18812764   0.690  -0.86716   3.64108   7.03217   1.88564   0.01325   1.008E+00   5.000E-03  -1.276E-02
 585  8.18987687   0.690  -0.86716   3.64107   7.03212   1.88560   0.01310   1.008E+00   5.000E-03  -1.266E-02
 586  8.19161908   0.690  -0.86716   3.64106   7.03206   1.88557   0.01296   1.008E+00   5.000E-03  -1.256E-02
 587  8.19335433   0.690  -0.86716   3.64105   7.03201   1.88554   0.01281   1.008E+00   5.000E-03  -1.246E-02
 588  8.19508268   0.690  -0.86716   3.64104   7.03196   1.88550   0.01266   1.008E+00   5.000E-03  -1.236E-02
 589  8.19680417   0.690  -0.86716   3.64103   7.03191   1.88547   0.01251   1.008E+00   5.000E-03  -1.226E-02
 590  8.19851887   0.690  -0.86716   3.64102   7.03186   1.88544   0.01236   1.008E+00   5.000E-03  -1.216E-02
 591  8.20022682   0.690  -0.86716   3.64101   7.03180   1.88540   0.01221   1.007E+00   5.000E-03  -1.206E-02
 592  8.20192809   0.690  -0.86716   3.64100   7.03175   1.88537   0.01206   1.007E+00   5.000E-03  -1.195E-02
 593  8.20362271   0.690  -0.86716   3.64099   7.03170   1.88533   0.01191   1.007E+00   5.000E-03  -1.185E-02
 594  8.20531075   0.690  -0.86716   3.64098   7.03165   1.88530   0.01176   1.007E+00   5.000E-03  -1.175E-02
 595  8.20699225   0.690  -0.86716   3.64097   7.03160   1.88527   0.01162   1.007E+00   5.000E-03  -1.165E-02
 596  8.20866727   0.690  -0.86716   3.64096   7.03155   1.88524   0.01150   1.007E+00   4.992E-03  -1.157E-02
 597  8.21033585   0.690  -0.86715   3.64095   7.03152   1.88522   0.01142   1.007E+00   4.976E-03  -1.150E-02
 598  8.21199805   0.690  -0.86714   3.64094   7.03149   1.88520   0.01134   1.007E+00   4.959E-03  -1.144E-02
 599  8.21365391   0.690  -0.86714   3.64094   7.03145   1.88519   0.01126   1.007E+00   4.943E-03  -1.137E-02
 600  8.21530347   0.690  -0.86713   3.64093   7.03142   1.88517   0.01118   1.007E+00   4.926E-03  -1.131E-02
 601  8.21694680   0.690  -0.86713   3.64093   7.03138   1.88515   0.01110   1.007E+00   4.910E-03  -1.124E-02
 602  8.21858393   0.690  -0.86712   3.64092   7.03135   1.88513   0.01102   1.007E+00   4.894E-03  -1.118E-02
 603  8.22021492   0.690  -0.86711   3.64091   7.03132   1.88511   0.01093   1.007E+00   4.877E-03  -1.111E-02
 604  8.22183980   0.690  -0.86711   3.64091   7.03128   1.88510   0.01085   1.007E+00   4.861E-03  -1.105E-02
 605  8.22345862   0.690  -0.86710   3.64090   7.03125   1.88508   0.01077   1.007E+00   4.844E-03  -1.098E-02
 606  8.22507144   0.690  -0.86710   3.64090   7.03121   1.88506   0.01069   1.006E+00   4.828E-03  -1.092E-02
 607  8.22667828   0.690  -0.86709   3.64089   7.03118   1.88504   0.01061   1.006E+00   4.812E-03  -1.085E-02
 608  8.22827921   0.690  -0.86708   3.64088   7.03115   1.88502   0.01053   1.006E+00   4.795E-03  -1.079E-02
 609  8.22987425   0.689  -0.86708   3.64088   7.03111   1.88500   0.01045   1.006E+00   4.779E-03  -1.072E-02
 610  8.23146345   0.689  -0.86707   3.64087   7.03108   1.88499   0.01037   1.006E+00   4.762E-03  -1.066E-02
 611  8.23304687   0.689  -0.86707   3.64087   7.03104   1.88497   0.01029   1.006E+00   4.746E-03  -1.059E-02
 612  8.23462453   0.689  -0.86706   3.64086   7.03101   1.88495   0.01021   1.006E+00   4.730E-03  -1.053E-02
 613  8.23619648   0.689  -0.86705   3.64085   7.03098   1.88493   0.01013   1.006E+00   4.713E-03  -1.046E-02
 614  8.23776276   0.689  -0.86705   3.64085   7.03094   1.88491   0.01005   1.006E+00   4.697E-03  -1.040E-02
 615  8.23932341   0.689  -0.86704   3.64084   7.03091   1.88490   0.00996   1.006E+00   4.680E-03  -1.033E-02
 616  8.24087847   0.689  -0.86704   3.64084   7.03087   1.88488   0.00988   1.006E+00   4.664E-03  -1.027E-02
 617  8.24242799   0.689  -0.86703   3.64083   7.03084   1.88486   0.00980   1.006E+00   4.648E-03  -1.020E-02
 618  8.24397199   0.689  -0.86702   3.64082   7.03081   1.88484   0.00972   1.006E+00   4.631E-03  -1.014E-02
 619  8.24551053   0.689  -0.86702   3.64082   7.03077   1.88482   0.00964   1.006E+00   4.615E-03  -1.007E-02
 620  8.24704364   0.689  -0.86701   3.64081   7.03074   1.88480   0.00956   1.006E+00   4.598E-03  -1.001E-02
 621  8.24857135   0.689  -0.86701   3.64081   7.03070   1.88479   0.00948   1.006E+00   4.582E-03  -9.941E-03
 622  8.25009371   0.689  -0.86700   3.64080   7.03067   1.88477   0.00940   1.006E+00   4.566E-03  -9.876E-03
 623  8.25161074   0.689  -0.86699   3.64079   7.03064   1.88475   0.00932   1.006E+00   4.549E-03  -9.811E-03
 624  8.25312250   0.689  -0.86699   3.64079   7.03060   1.88473   0.00924   1.006E+00   4.533E-03  -9.745E-03
 625  8.25462902   0.689  -0.86698   3.64078   7.03057   1.88471   0.00916   1.006E+00   4.516E-03  -9.680E-03
 626  8.25613032   0.689  -0.86698   3.64078   7.03054   1.88470   0.00908   1.006E+00   4.500E-03  -9.615E-03
 627  8.25762646   0.689  -0.86697   3.64077   7.03050   1.88468   0.00899   1.005E+00   4.484E-03  -9.550E-03
 628  8.25911746   0.689  -0.86696   3.64076   7.03047   1.88466   0.00891   1.005E+00   4.467E-03  -9.485E-03
 629  8.26060336   0.689  -0.86696   3.64076   7.03043   1.88464   0.00883   1.005E+00   4.451E-03  -9.420E-03
 630  8.26208419   0.689  -0.86695   3.64075   7.03040   1.88462   0.00875   1.005E+00   4.434E-03  -9.355E-03
 631  8.26355998   0.689  -0.86694   3.64074   7.03037   1.88460   0.00867   1.005E+00   4.418E-03  -9.290E-03
 632  8.26503078   0.689  -0.86694   3.64074   7.03033   1.88459   0.00859   1.005E+00   4.402E-03  -9.225E-03
 633  8.26649662   0.689  -0.86693   3.64073   7.03030   1.88457   0.00851   1.005E+00   4.385E-03  -9.160E-03
 634  8.26795753   0.689  -0.86693   3.64073   7.03026   1.88455   0.00843   1.005E+00   4.369E-03  -9.094E-03
 635  8.26941353   0.689  -0.86692   3.64072   7.03023   1.88453   0.00835   1.005E+00   4.352E-03  -9.029E-03
 636  8.27086468   0.689  -0.86691   3.64071   7.03020   1.88451   0.00827   1.005E+00   4.336E-03  -8.964E-03
 637  8.27231099   0.689  -0.86691   3.64071   7.03016   1.88449   0.00819   1.005E+00   4.320E-03  -8.899E-03
 638  8.27375249   0.689  -0.86690   3.64070   7.03013   1.88448   0.00811   1.005E+00   4.303E-03  -8.834E-03
 639  8.27518923   0.689  -0.86690   3.64070   7.03009   1.88446   0.00802   1.005E+00   4.287E-03  -8.769E-03
 640  8.27662124   0.689  -0.86689   3.64069   7.03006   1.88444   0.00794   1.005E+00   4.270E-03  -8.704E-03
 641  8.27804853   0.689  -0.86688   3.64068   7.03003   1.88442   0.00786   1.005E+00   4.254E-03  -8.639E-03
 642  8.27947116   0.689  -0.86688   3.64068   7.02999   1.88440   0.00778   1.005E+00   4.238E-03  -8.574E-03
 643  8.28088913   0.689  -0.86687   3.64067   7.02996   1.88439   0.00770   1.005E+00   4.221E-03  -8.509E-03
 644  8.28230249   0.689  -0.86687   3.64067   7.02992   1.88437   0.00762   1.005E+00   4.205E-03  -8.443E-03
 645  8.28371127   0.689  -0.86686   3.64066   7.02989   1.88435   0.00754   1.005E+00   4.188E-03  -8.378E-03
 646  8.28511549   0.689  -0.86685   3.64065   7.02986   1.88433   0.00746   1.005E+00   4.172E-03  -8.313E-03
 647  8.28651519   0.689  -0.86685   3.64065   7.02982   1.88431   0.00738   1.004E+00   4.156E-03  -8.248E-03
 648  8.28791039   0.689  -0.86684   3.64064   7.02979   1.88429   0.00730   1.004E+00   4.139E-03  -8.183E-03
 649  8.28930112   0.689  -0.86684   3.64064   7.02975   1.88428   0.00722   1.004E+00   4.123E-03  -8.118E-03
 650  8.29068741   0.689  -0.86683   3.64063   7.02972   1.88426   0.00714   1.004E+00   4.107E-03  -8.053E-03
 651  8.29206929   0.689  -0.86682   3.64062   7.02969   1.88424   0.00705   1.004E+00   4.090E-03  -7.988E-03
 652  8.29344679   0.689  -0.86682   3.64062   7.02965   1.88422   0.00697   1.004E+00   4.074E-03  -7.923E-03
 653  8.29481994   0.689  -0.86681   3.64061   7.02962   1.88420   0.00689   1.004E+00   4.057E-03  -7.858E-03
 654  8.29618875   0.689  -0.86681   3.64061   7.02958   1.88419   0.00681   1.004E+00   4.041E-03  -7.792E-03
 655  8.29755327   0.689  -0.86680   3.64060   7.02955   1.88417   0.00673   1.004E+00   4.025E-03  -7.727E-03
 656  8.29891351   0.689  -0.86679   3.64059   7.02952   1.88415   0.00665   1.004E+00   4.008E-03  -7.662E-03
 657  8.30026950   0.689  -0.86679   3.64059   7.02949   1.88414   0.00659   1.004E+00   4.000E-03  -7.614E-03
 658  8.30162127   0.689  -0.86678   3.64058   7.02947   1.88413   0.00655   1.004E+00   4.000E-03  -7.584E-03
 659  8.30296885   0.689  -0.86677   3.64058   7.02945   1.88412   0.00652   1.004E+00   4.000E-03  -7.553E-03
 660  8.30431226   0.689  -0.86677   3.64058   7.02942   1.88411   0.00648   1.004E+00   4.000E-03  -7.522E-03
 661  8.30565153   0.689  -0.86676   3.64057   7.02940   1.88410   0.00645   1.004E+00   4.000E-03  -7.491E-03
 662  8.30698668   0.689  -0.86676   3.64057   7.02938   1.88410   0.00641   1.004E+00   4.000E-03  -7.460E-03
 663  8.30831774   0.689  -0.86675   3.64057   7.02936   1.88409   0.00637   1.004E+00   4.000E-03  -7.429E-03
 664  8.30964473   0.689  -0.86674   3.64056   7.02934   1.88408   0.00634   1.004E+00   4.000E-03  -7.399E-03
 665  8.31096768   0.689  -0.86674   3.64056   7.02932   1.88407   0.00630   1.004E+00   4.000E-03  -7.368E-03
 666  8.31228661   0.689  -0.86673   3.64056   7.02930   1.88407   0.00626   1.004E+00   4.000E-03  -7.337E-03
 667  8.31360155   0.689  -0.86672   3.64055   7.02927   1.88406   0.00623   1.004E+00   4.000E-03  -7.306E-03
 668  8.31491251   0.689  -0.86672   3.64055   7.02925   1.88405   0.00619   1.004E+00   4.000E-03  -7.275E-03
 669  8.31621954   0.689  -0.86671   3.64055   7.02923   1.88404   0.00615   1.004E+00   4.000E-03  -7.244E-03
 670  8.31752264   0.689  -0.86671   3.64054   7.02921   1.88403   0.00612   1.004E+00   4.000E-03  -7.214E-03
 671  8.31882184   0.689  -0.86670   3.64054   7.02919   1.88403   0.00608   1.004E+00   4.000E-03  -7.183E-03
 672  8.32011717   0.689  -0.86669   3.64054   7.02917   1.88402   0.00604   1.003E+00   4.000E-03  -7.152E-03
 673  8.32140864   0.689  -0.86669   3.64053   7.02915   1.88401   0.00601   1.003E+00   4.000E-03  -7.121E-03
 674  8.32269629   0.689  -0.86668   3.64053   7.02912   1.88400   0.00597   1.003E+00   4.000E-03  -7.090E-03
 675  8.32398013   0.689  -0.86667   3.64053   7.02910   1.88399   0.00593   1.003E+00   4.000E-03  -7.060E-03
 676  8.32526019   0.689  -0.86667   3.64052   7.02908   1.88399   0.00590   1.003E+00   4.000E-03  -7.029E-03
 677  8.32653648   0.689  -0.86666   3.64052   7.02906   1.88398   0.00586   1.003E+00   4.000E-03  -6.998E-03
 678  8.32780904   0.689  -0.86666   3.64051   7.02904   1.88397   0.00582   1.003E+00   4.000E-03  -6.967E-03
 679  8.32907787   0.688  -0.86665   3.64051   7.02902   1.88396   0.00579   1.003E+00   4.000E-03  -6.936E-03
 680  8.33034301   0.688  -0.86664   3.64051   7.02900   1.88395   0.00575   1.003E+00   4.000E-03  -6.905E-03
 681  8.33160448   0.688  -0.86664   3.64050   7.02897   1.88395   0.00571   1.003E+00   4.000E-03  -6.875E-03
 682  8.33286229   0.688  -0.86663   3.64050   7.02895   1.88394   0.00568   1.003E+00   4.000E-03  -6.844E-03
 683  8.33411647   0.688  -0.86662   3.64050   7.02893   1.88393   0.00564   1.003E+00   4.000E-03  -6.813E-03
 684  8.33536704   0.688  -0.86662   3.64049   7.02891   1.88392   0.00560   1.003E+00   4.000E-03  -6.782E-03
 685  8.33661402   0.688  -0.86661   3.64049   7.02889   1.88392   0.00557   1.003E+00   4.000E-03  -6.751E-03
 686  8.33785742   0.688  -0.86661   3.64049   7.02887   1.88391   0.00553   1.003E+00   4.000E-03  -6.720E-03
 687  8.33909728   0.688  -0.86660   3.64048   7.02885   1.88390   0.00549   1.003E+00   4.000E-03  -6.690E-03
 688  8.34033361   0.688  -0.86659   3.64048   7.02882   1.88389   0.00546   1.003E+00   4.000E-03  -6.659E-03
 689  8.34156643   0.688  -0.86659   3.64048   7.02880   1.88388   0.00542   1.003E+00   4.000E-03  -6.628E-03
 690  8.34279576   0.688  -0.86658   3.64047   7.02878   1.88388   0.00538   1.003E+00   4.000E-03  -6.597E-03
 691  8.34402162   0.688  -0.86657   3.64047   7.02876   1.88387   0.00535   1.003E+00   4.000E-03  -6.566E-03
 692  8.34524402   0.688  -0.86657   3.64047   7.02874   1.88386   0.00531   1.003E+00   4.000E-03  -6.535E-03
 693  8.34646300   0.688  -0.86656   3.64046   7.02872   1.88385   0.00527   1.003E+00   4.000E-03  -6.505E-03
 694  8.34767857   0.688  -0.86656   3.64046   7.02870   1.88384   0.00524   1.003E+00   4.000E-03  -6.474E-03
 695  8.34889074   0.688  -0.86655   3.64046   7.02867   1.88384   0.00520   1.003E+00   4.000E-03  -6.443E-03
 696  8.35009954   0.688  -0.86654   3.64045   7.02865   1.88383   0.00516   1.003E+00   4.000E-03  -6.412E-03
 697  8.35130498   0.688  -0.86654   3.64045   7.02863   1.88382   0.00513   1.003E+00   4.000E-03  -6.381E-03
 698  8.35250709   0.688  -0.86653   3.64044   7.02861   1.88381   0.00509   1.003E+00   4.000E-03  -6.350E-03
 699  8.35370588   0.688  -0.86653   3.64044   7.02859   1.88381   0.00505   1.003E+00   4.000E-03  -6.320E-03
 700  8.35490137   0.688  -0.86652   3.64044   7.02857   1.88380   0.00502   1.003E+00   4.000E-03  -6.289E-03
 701  8.35609357   0.688  -0.86651   3.64043   7.02855   1.88379   0.00498   1.003E+00   4.000E-03  -6.258E-03
 702  8.35728252   0.688  -0.86651   3.64043   7.02852   1.88378   0.00494   1.003E+00   4.000E-03  -6.227E-03
 703  8.35846822   0.688  -0.86650   3.64043   7.02850   1.88377   0.00491   1.002E+00   4.000E-03  -6.196E-03
 704  8.35965068   0.688  -0.86649   3.64042   7.02848   1.88377   0.00487   1.002E+00   4.000E-03  -6.166E-03
 705  8.36082994   0.688  -0.86649   3.64042   7.02846   1.88376   0.00483   1.002E+00   4.000E-03  -6.135E-03
 706  8.36200601   0.688  -0.86648   3.64042   7.02844   1.88375   0.00480   1.002E+00   4.000E-03  -6.104E-03
 707  8.36317890   0.688  -0.86648   3.64041   7.02842   1.88374   0.00476   1.002E+00   4.000E-03  -6.073E-03
 708  8.36434863   0.688  -0.86647   3.64041   7.02840   1.88373   0.00472   1.002E+00   4.000E-03  -6.042E-03
 709  8.36551521   0.688  -0.86646   3.64041   7.02837   1.88373   0.00469   1.002E+00   4.000E-03  -6.011E-03
 710  8.36667868   0.688  -0.86646   3.64040   7.02835   1.88372   0.00465   1.002E+00   4.000E-03  -5.981E-03
 711  8.36783903   0.688  -0.86645   3.64040   7.02833   1.88371   0.00461   1.002E+00   4.000E-03  -5.950E-03
 712  8.36899629   0.688  -0.86644   3.64040   7.02831   1.88370   0.00458   1.002E+00   4.000E-03  -5.919E-03
 713  8.37015048   0.688  -0.86644   3.64039   7.02829   1.88370   0.00454   1.002E+00   4.000E-03  -5.888E-03
 714  8.37130160   0.688  -0.86643   3.64039   7.02827   1.88369   0.00450   1.002E+00   4.000E-03  -5.857E-03
 715  8.37244969   0.688  -0.86643   3.64039   7.02825   1.88368   0.00447   1.002E+00   4.000E-03  -5.826E-03
 716  8.37359474   0.688  -0.86642   3.64038   7.02823   1.88367   0.00443   1.002E+00   4.000E-03  -5.796E-03
 717  8.37473679   0.688  -0.86641   3.64038   7.02820   1.88366   0.00439   1.002E+00   4.000E-03  -5.765E-03
 718  8.37587584   0.688  -0.86641   3.64037   7.02818   1.88366   0.00436   1.002E+00   4.000E-03  -5.734E-03
 719  8.37701191   0.688  -0.86640   3.64037   7.02816   1.88365   0.00432   1.002E+00   4.000E-03  -5.703E-03
 720  8.37814502   0.688  -0.86639   3.64037   7.02814   1.88364   0.00428   1.002E+00   4.000E-03  -5.672E-03
 721  8.37927517   0.688  -0.86639   3.64036   7.02812   1.88363   0.00425   1.002E+00   4.000E-03  -5.641E-03
 722  8.38040240   0.688  -0.86638   3.64036   7.02810   1.88362   0.00421   1.002E+00   4.000E-03  -5.611E-03
 723  8.38152671   0.688  -0.86638   3.64036   7.02808   1.88362   0.00417   1.002E+00   4.000E-03  -5.580E-03
 724  8.38264811   0.688  -0.86637   3.64035   7.02805   1.88361   0.00414   1.002E+00   4.000E-03  -5.549E-03
 725  8.38376662   0.688  -0.86636   3.64035   7.02803   1.88360   0.00410   1.002E+00   4.000E-03  -5.518E-03
 726  8.38488227   0.688  -0.86636   3.64035   7.02801   1.88359   0.00406   1.002E+00   4.000E-03  -5.487E-03
 727  8.38599505   0.688  -0.86635   3.64034   7.02799   1.88359   0.00403   1.002E+00   4.000E-03  -5.456E-03
 728  8.38710499   0.688  -0.86634   3.64034   7.02797   1.88358   0.00399   1.002E+00   4.000E-03  -5.426E-03
 729  8.38821210   0.688  -0.86634   3.64034   7.02795   1.88357   0.00395   1.002E+00   4.000E-03  -5.395E-03
 730  8.38931639   0.688  -0.86633   3.64033   7.02793   1.88356   0.00392   1.002E+00   4.000E-03  -5.364E-03
 731  8.39041789   0.688  -0.86633   3.64033   7.02790   1.88355   0.00388   1.002E+00   4.000E-03  -5.333E-03
 732  8.39151659   0.688  -0.86632   3.64033   7.02788   1.88355   0.00384   1.002E+00   4.000E-03  -5.302E-03
 733  8.39261253   0.688  -0.86631   3.64032   7.02786   1.88354   0.00381   1.001E+00   4.000E-03  -5.271E-03
 734  8.39370570   0.688  -0.86631   3.64032   7.02784   1.88353   0.00377   1.001E+00   4.000E-03  -5.241E-03
 735  8.39479614   0.688  -0.86630   3.64032   7.02782   1.88352   0.00373   1.001E+00   4.000E-03  -5.210E-03
 736  8.39588384   0.688  -0.86629   3.64031   7.02780   1.88351   0.00370   1.001E+00   4.000E-03  -5.179E-03
 737  8.39696882   0.688  -0.86629   3.64031   7.02778   1.88351   0.00366   1.001E+00   4.000E-03  -5.148E-03
 738  8.39805110   0.688  -0.86628   3.64030   7.02775   1.88350   0.00363   1.001E+00   4.000E-03  -5.117E-03
 739  8.39913069   0.688  -0.86628   3.64030   7.02773   1.88349   0.00359   1.001E+00   4.000E-03  -5.087E-03
 740  8.40020760   0.688  -0.86627   3.64030   7.02771   1.88348   0.00355   1.001E+00   4.000E-03  -5.056E-03
 741  8.40128185   0.688  -0.86626   3.64029   7.02769   1.88347   0.00352   1.001E+00   4.000E-03  -5.025E-03
 742  8.40235344   0.688  -0.86626   3.64029   7.02767   1.88347   0.00348   1.001E+00   4.000E-03  -4.994E-03
 743  8.40342240   0.688  -0.86625   3.64029   7.02765   1.88346   0.00344   1.001E+00   4.000E-03  -4.963E-03
 744  8.40448874   0.688  -0.86624   3.64028   7.02763   1.88345   0.00341   1.001E+00   4.000E-03  -4.932E-03
 745  8.40555246   0.688  -0.86624   3.64028   7.02760   1.88344   0.00337   1.001E+00   4.000E-03  -4.902E-03
 746  8.40661359   0.688  -0.86623   3.64028   7.02758   1.88344   0.00333   1.001E+00   4.000E-03  -4.871E-03
 747  8.40767212   0.688  -0.86623   3.64027   7.02756   1.88343   0.00330   1.001E+00   4.000E-03  -4.840E-03
 748  8.40872809   0.687  -0.86622   3.64027   7.02754   1.88342   0.00326   1.001E+00   4.000E-03  -4.810E-03
 749  8.40978149   0.687  -0.86621   3.64027   7.02753   1.88342   0.00324   1.001E+00   3.992E-03  -4.796E-03
 750  8.41083234   0.687  -0.86621   3.64027   7.02752   1.88342   0.00323   1.001E+00   3.985E-03  -4.782E-03
 751  8.41188066   0.687  -0.86620   3.64026   7.02750   1.88341   0.00321   1.001E+00   3.978E-03  -4.768E-03
 752  8.41292645   0.687  -0.86619   3.64026   7.02749   1.88341   0.00319   1.001E+00   3.971E-03  -4.754E-03
 753  8.41396973   0.687  -0.86619   3.64026   7.02748   1.88341   0.00317   1.001E+00   3.963E-03  -4.741E-03
 754  8.41501051   0.687  -0.86618   3.64026   7.02747   1.88341   0.00316   1.001E+00   3.956E-03  -4.727E-03
 755  8.41604881   0.687  -0.86618   3.64026   7.02746   1.88341   0.00314   1.001E+00   3.949E-03  -4.713E-03
 756  8.41708462   0.687  -0.86617   3.64025   7.02744   1.88341   0.00312   1.001E+00   3.941E-03  -4.699E-03
 757  8.41811797   0.687  -0.86616   3.64025   7.02743   1.88340   0.00311   1.001E+00   3.934E-03  -4.686E-03
 758  8.41914887   0.687  -0.86616   3.64025   7.02742   1.88340   0.00309   1.001E+00   3.927E-03  -4.672E-03
 759  8.42017733   0.687  -0.86615   3.64025   7.02741   1.88340   0.00307   1.001E+00   3.920E-03  -4.658E-03
 760  8.42120336   0.687  -0.86614   3.64025   7.02740   1.88340   0.00306   1.001E+00   3.912E-03  -4.644E-03
 761  8.42222697   0.687  -0.86614   3.64025   7.02738   1.88340   0.00304   1.001E+00   3.905E-03  -4.631E-03
 762  8.42324817   0.687  -0.86613   3.64024   7.02737   1.88340   0.00302   1.001E+00   3.898E-03  -4.617E-03
 763  8.42426697   0.687  -0.86612   3.64024   7.02736   1.88339   0.00300   1.001E+00   3.890E-03  -4.603E-03
 764  8.42528340   0.687  -0.86612   3.64024   7.02735   1.88339   0.00299   1.001E+00   3.883E-03  -4.589E-03
 765  8.42629744   0.687  -0.86611   3.64024   7.02734   1.88339   0.00297   1.001E+00   3.876E-03  -4.575E-03
 766  8.42730913   0.687  -0.86611   3.64024   7.02732   1.88339   0.00295   1.001E+00   3.869E-03  -4.562E-03
 767  8.42831847   0.687  -0.86610   3.64023   7.02731   1.88339   0.00294   1.001E+00   3.861E-03  -4.548E-03
 768  8.42932546   0.687  -0.86609   3.64023   7.02730   1.88338   0.00292   1.001E+00   3.854E-03  -4.534E-03
 769  8.43033013   0.687  -0.86609   3.64023   7.02729   1.88338   0.00290   1.001E+00   3.847E-03  -4.520E-03
 770  8.43133247   0.687  -0.86608   3.64023   7.02728   1.88338   0.00289   1.001E+00   3.839E-03  -4.507E-03
 771  8.43233251   0.687  -0.86607   3.64023   7.02726   1.88338   0.00287   1.001E+00   3.832E-03  -4.493E-03
 772  8.43333025   0.687  -0.86607   3.64022   7.02725   1.88338   0.00285   1.001E+00   3.825E-03  -4.479E-03
 773  8.43432571   0.687  -0.86606   3.64022   7.02724   1.88338   0.00283   1.001E+00   3.818E-03  -4.465E-03
 774  8.43531888   0.687  -0.86605   3.64022   7.02723   1.88337   0.00282   1.001E+00   3.810E-03  -4.451E-03
 775  8.43630980   0.687  -0.86605   3.64022   7.02722   1.88337   0.00280   1.001E+00   3.803E-03  -4.438E-03
 776  8.43729845   0.687  -0.86604   3.64022   7.02720   1.88337   0.00278   1.001E+00   3.796E-03  -4.424E-03
 777  8.43828486   0.687  -0.86604   3.64021   7.02719   1.88337   0.00277   1.001E+00   3.788E-03  -4.410E-03
 778  8.43926904   0.687  -0.86603   3.64021   7.02718   1.88337   0.00275   1.001E+00   3.781E-03  -4.396E-03
 779  8.44025099   0.687  -0.86602   3.64021   7.02717   1.88337   0.00273   1.001E+00   3.774E-03  -4.383E-03
 780  8.44123072   0.687  -0.86602   3.64021   7.02716   1.88336   0.00272   1.001E+00   3.767E-03  -4.369E-03
 781  8.44220825   0.687  -0.86601   3.64021   7.02715   1.88336   0.00270   1.001E+00   3.759E-03  -4.355E-03
 782  8.44318358   0.687  -0.86600   3.64021   7.02713   1.88336   0.00268   1.001E+00   3.752E-03  -4.341E-03
 783  8.44415673   0.687  -0.86600   3.64020   7.02712   1.88336   0.00267   1.001E+00   3.745E-03  -4.327E-03
 784  8.44512771   0.687  -0.86599   3.64020   7.02711   1.88336   0.00265   1.001E+00   3.737E-03  -4.314E-03
 785  8.44609651   0.687  -0.86599   3.64020   7.02710   1.88336   0.00263   1.001E+00   3.730E-03  -4.300E-03
 786  8.44706316   0.687  -0.86598   3.64020   7.02709   1.88335   0.00261   1.001E+00   3.723E-03  -4.286E-03
 787  8.44802767   0.687  -0.86597   3.64020   7.02707   1.88335   0.00260   1.001E+00   3.716E-03  -4.272E-03
 788  8.44899003   0.687  -0.86597   3.64019   7.02706   1.88335   0.00258   1.001E+00   3.708E-03  -4.259E-03
 789  8.44995027   0.687  -0.86596   3.64019   7.02705   1.88335   0.00256   1.001E+00   3.701E-03  -4.245E-03
 790  8.45090839   0.687  -0.86595   3.64019   7.02704   1.88335   0.00255   1.001E+00   3.694E-03  -4.231E-03
 791  8.45186440   0.687  -0.86595   3.64019   7.02703   1.88334   0.00253   1.001E+00   3.686E-03  -4.217E-03
 792  8.45281831   0.687  -0.86594   3.64019   7.02701   1.88334   0.00251   1.001E+00   3.679E-03  -4.204E-03
 793  8.45377013   0.687  -0.86593   3.64018   7.02700   1.88334   0.00250   1.001E+00   3.672E-03  -4.190E-03
 794  8.45471987   0.687  -0.86593   3.64018   7.02699   1.88334   0.00248   1.001E+00   3.665E-03  -4.176E-03
 795  8.45566754   0.687  -0.86592   3.64018   7.02698   1.88334   0.00246   1.001E+00   3.657E-03  -4.162E-03
 796  8.45661314   0.687  -0.86592   3.64018   7.02697   1.88334   0.00244   1.001E+00   3.650E-03  -4.148E-03
 797  8.45755669   0.687  -0.86591   3.64018   7.02695   1.88333   0.00243   1.001E+00   3.643E-03  -4.135E-03
 798  8.45849819   0.687  -0.86590   3.64018   7.02694   1.88333   0.00241   1.001E+00   3.635E-03  -4.121E-03
 799  8.45943766   0.687  -0.86590   3.64017   7.02693   1.88333   0.00239   1.001E+00   3.628E-03  -4.107E-03
 800  8.46037510   0.687  -0.86589   3.64017   7.02692   1.88333   0.00238   1.001E+00   3.621E-03  -4.093E-03
 801  8.46131052   0.687  -0.86588   3.64017   7.02691   1.88333   0.00236   1.001E+00   3.614E-03  -4.080E-03
 802  8.46224393   0.687  -0.86588   3.64017   7.02689   1.88333   0.00234   1.001E+00   3.606E-03  -4.066E-03
 803  8.46317534   0.687  -0.86587   3.64017   7.02688   1.88332   0.00233   1.001E+00   3.599E-03  -4.052E-03
 804  8.46410475   0.687  -0.86586   3.64016   7.02687   1.88332   0.00231   1.001E+00   3.592E-03  -4.038E-03
 805  8.46503218   0.687  -0.86586   3.64016   7.02686   1.88332   0.00229   1.001E+00   3.584E-03  -4.024E-03
 806  8.46595763   0.687  -0.86585   3.64016   7.02685   1.88332   0.00227   1.001E+00   3.577E-03  -4.011E-03
 807  8.46688112   0.687  -0.86585   3.64016   7.02683   1.88332   0.00226   1.001E+00   3.570E-03  -3.997E-03
 808  8.46780264   0.687  -0.86584   3.64016   7.02682   1.88332   0.00224   1.001E+00   3.563E-03  -3.983E-03
 809  8.46872222   0.687  -0.86583   3.64015   7.02681   1.88331   0.00222   1.001E+00   3.555E-03  -3.969E-03
 810  8.46963985   0.687  -0.86583   3.64015   7.02680   1.88331   0.00221   1.001E+00   3.548E-03  -3.956E-03
 811  8.47055554   0.687  -0.86582   3.64015   7.02679   1.88331   0.00219   1.001E+00   3.541E-03  -3.942E-03
 812  8.47146931   0.687  -0.86581   3.64015   7.02677   1.88331   0.00217   1.001E+00   3.533E-03  -3.928E-03
 813  8.47238117   0.687  -0.86581   3.64015   7.02676   1.88331   0.00216   1.001E+00   3.526E-03  -3.914E-03
 814  8.47329111   0.687  -0.86580   3.64014   7.02675   1.88330   0.00214   1.001E+00   3.519E-03  -3.900E-03
 815  8.47419914   0.687  -0.86579   3.64014   7.02674   1.88330   0.00212   1.001E+00   3.511E-03  -3.887E-03
 816  8.47510529   0.686  -0.86579   3.64014   7.02673   1.88330   0.00210   1.001E+00   3.504E-03  -3.873E-03
 817  8.47600954   0.686  -0.86578   3.64014   7.02671   1.88330   0.00209   1.000E+00   3.497E-03  -3.859E-03
 818  8.47691192   0.686  -0.86578   3.64014   7.02670   1.88330   0.00207   1.000E+00   3.490E-03  -3.845E-03
 819  8.47781243   0.686  -0.86577   3.64014   7.02669   1.88330   0.00205   1.000E+00   3.482E-03  -3.832E-03
 820  8.47871107   0.686  -0.86576   3.64013   7.02668   1.88329   0.00204   1.000E+00   3.475E-03  -3.818E-03
 821  8.47960786   0.686  -0.86576   3.64013   7.02667   1.88329   0.00202   1.000E+00   3.468E-03  -3.804E-03
 822  8.48050280   0.686  -0.86575   3.64013   7.02666   1.88329   0.00200   1.000E+00   3.460E-03  -3.790E-03
 823  8.48139590   0.686  -0.86574   3.64013   7.02664   1.88329   0.00199   1.000E+00   3.453E-03  -3.777E-03
 824  8.48228717   0.686  -0.86574   3.64013   7.02663   1.88329   0.00197   1.000E+00   3.446E-03  -3.763E-03
 825  8.48317661   0.686  -0.86573   3.64012   7.02662   1.88329   0.00195   1.000E+00   3.439E-03  -3.749E-03
 826  8.48406423   0.686  -0.86573   3.64012   7.02661   1.88328   0.00193   1.000E+00   3.431E-03  -3.735E-03
 827  8.48495005   0.686  -0.86572   3.64012   7.02660   1.88328   0.00192   1.000E+00   3.424E-03  -3.721E-03
 828  8.48583406   0.686  -0.86571   3.64012   7.02658   1.88328   0.00190   1.000E+00   3.417E-03  -3.708E-03
 829  8.48671627   0.686  -0.86571   3.64012   7.02657   1.88328   0.00188   1.000E+00   3.409E-03  -3.694E-03
 830  8.48759670   0.686  -0.86570   3.64011   7.02656   1.88328   0.00187   1.000E+00   3.402E-03  -3.680E-03
 831  8.48847534   0.686  -0.86569   3.64011   7.02655   1.88327   0.00185   1.000E+00   3.395E-03  -3.666E-03
 832  8.48935221   0.686  -0.86569   3.64011   7.02654   1.88327   0.00183   1.000E+00   3.388E-03  -3.653E-03
 833  8.49022732   0.686  -0.86568   3.64011   7.02652   1.88327   0.00182   1.000E+00   3.380E-03  -3.639E-03
 834  8.49110066   0.686  -0.86567   3.64011   7.02651   1.88327   0.00180   1.000E+00   3.373E-03  -3.625E-03
 835  8.49197225   0.686  -0.86567   3.64011   7.02650   1.88327   0.00178   1.000E+00   3.366E-03  -3.611E-03
 836  8.49284210   0.686  -0.86566   3.64010   7.02649   1.88327   0.00177   1.000E+00   3.358E-03  -3.597E-03
 837  8.49371020   0.686  -0.86566   3.64010   7.02648   1.88326   0.00175   1.000E+00   3.351E-03  -3.584E-03
 838  8.49457658   0.686  -0.86565   3.64010   7.02646   1.88326   0.00173   1.000E+00   3.344E-03  -3.570E-03
 839  8.49544123   0.686  -0.86564   3.64010   7.02645   1.88326   0.00171   1.000E+00   3.337E-03  -3.556E-03
 840  8.49630416   0.686  -0.86564   3.64010   7.02644   1.88326   0.00170   1.000E+00   3.329E-03  -3.542E-03
 841  8.49716538   0.686  -0.86563   3.64009   7.02643   1.88326   0.00168   1.000E+00   3.322E-03  -3.529E-03
 842  8.49802490   0.686  -0.86562   3.64009   7.02642   1.88326   0.00166   1.000E+00   3.315E-03  -3.515E-03
 843  8.49888272   0.686  -0.86562   3.64009   7.02640   1.88325   0.00165   1.000E+00   3.307E-03  -3.501E-03
 844  8.49973884   0.686  -0.86561   3.64009   7.02639   1.88325   0.00163   1.000E+00   3.300E-03  -3.487E-03
 845  8.50059329   0.686  -0.86560   3.64009   7.02638   1.88325   0.00161   1.000E+00   3.293E-03  -3.473E-03
 846  8.50144605   0.686  -0.86560   3.64008   7.02637   1.88325   0.00160   1.000E+00   3.286E-03  -3.460E-03
 847  8.50229715   0.686  -0.86559   3.64008   7.02636   1.88325   0.00158   1.000E+00   3.278E-03  -3.446E-03
 848  8.50314658   0.686  -0.86559   3.64008   7.02634   1.88325   0.00156   1.000E+00   3.271E-03  -3.432E-03
 849  8.50399435   0.686  -0.86558   3.64008   7.02633   1.88324   0.00154   1.000E+00   3.264E-03  -3.418E-03
 850  8.50484047   0.686  -0.86557   3.64008   7.02632   1.88324   0.00153   1.000E+00   3.256E-03  -3.405E-03
 851  8.50568494   0.686  -0.86557   3.64007   7.02631   1.88324   0.00151   1.000E+00   3.249E-03  -3.391E-03
 852  8.50652778   0.686  -0.86556   3.64007   7.02630   1.88324   0.00149   1.000E+00   3.242E-03  -3.377E-03
 853  8.50736898   0.686  -0.86555   3.64007   7.02628   1.88324   0.00148   1.000E+00   3.235E-03  -3.363E-03
 854  8.50820856   0.686  -0.86555   3.64007   7.02627   1.88323   0.00146   1.000E+00   3.227E-03  -3.350E-03
 855  8.50904651   0.686  -0.86554   3.64007   7.02626   1.88323   0.00144   1.000E+00   3.220E-03  -3.336E-03
 856  8.50988286   0.686  -0.86554   3.64007   7.02625   1.88323   0.00143   1.000E+00   3.213E-03  -3.322E-03
 857  8.51071759   0.686  -0.86553   3.64006   7.02624   1.88323   0.00141   1.000E+00   3.205E-03  -3.308E-03
 858  8.51155073   0.686  -0.86552   3.64006   7.02622   1.88323   0.00139   1.000E+00   3.198E-03  -3.294E-03
 859  8.51238227   0.686  -0.86552   3.64006   7.02621   1.88323   0.00137   1.000E+00   3.191E-03  -3.281E-03
 860  8.51321222   0.686  -0.86551   3.64006   7.02620   1.88322   0.00136   1.000E+00   3.184E-03  -3.267E-03
 861  8.51404058   0.686  -0.86550   3.64006   7.02619   1.88322   0.00134   1.000E+00   3.176E-03  -3.253E-03
 862  8.51486737   0.686  -0.86550   3.64005   7.02618   1.88322   0.00132   1.000E+00   3.169E-03  -3.239E-03
 863  8.51569259   0.686  -0.86549   3.64005   7.02617   1.88322   0.00131   1.000E+00   3.162E-03  -3.226E-03
 864  8.51651625   0.686  -0.86548   3.64005   7.02615   1.88322   0.00129   1.000E+00   3.154E-03  -3.212E-03
 865  8.51733834   0.686  -0.86548   3.64005   7.02614   1.88322   0.00127   1.000E+00   3.147E-03  -3.198E-03
 866  8.51815888   0.686  -0.86547   3.64005   7.02613   1.88321   0.00126   1.000E+00   3.140E-03  -3.184E-03
 867  8.51897788   0.686  -0.86547   3.64004   7.02612   1.88321   0.00124   1.000E+00   3.133E-03  -3.170E-03
 868  8.51979533   0.686  -0.86546   3.64004   7.02611   1.88321   0.00122   1.000E+00   3.125E-03  -3.157E-03
 869  8.52061125   0.686  -0.86545   3.64004   7.02609   1.88321   0.00120   1.000E+00   3.118E-03  -3.143E-03
 870  8.52142564   0.686  -0.86545   3.64004   7.02608   1.88321   0.00119   1.000E+00   3.111E-03  -3.129E-03
 871  8.52223850   0.686  -0.86544   3.64004   7.02607   1.88320   0.00117   1.000E+00   3.103E-03  -3.115E-03
 872  8.52304984   0.686  -0.86543   3.64003   7.02606   1.88320   0.00115   1.000E+00   3.096E-03  -3.102E-03
 873  8.52385967   0.686  -0.86543   3.64003   7.02605   1.88320   0.00114   1.000E+00   3.089E-03  -3.088E-03
 874  8.52466800   0.686  -0.86542   3.64003   7.02603   1.88320   0.00112   1.000E+00   3.081E-03  -3.074E-03
 875  8.52547482   0.686  -0.86541   3.64003   7.02602   1.88320   0.00110   1.000E+00   3.074E-03  -3.060E-03
 876  8.52628015   0.686  -0.86541   3.64003   7.02601   1.88320   0.00109   1.000E+00   3.067E-03  -3.046E-03
 877  8.52708398   0.686  -0.86540   3.64003   7.02600   1.88319   0.00107   1.000E+00   3.060E-03  -3.033E-03
 878  8.52788633   0.686  -0.86540   3.64002   7.02599   1.88319   0.00105   1.000E+00   3.052E-03  -3.019E-03
 879  8.52868720   0.686  -0.86539   3.64002   7.02597   1.88319   0.00103   1.000E+00   3.045E-03  -3.005E-03
 880  8.52948660   0.686  -0.86538   3.64002   7.02596   1.88319   0.00102   1.000E+00   3.038E-03  -2.991E-03
 881  8.53028453   0.686  -0.86538   3.64002   7.02595   1.88319   0.00100   1.000E+00   3.030E-03  -2.978E-03
 882  8.53108099   0.686  -0.86537   3.64002   7.02594   1.88319   0.00098   1.000E+00   3.023E-03  -2.964E-03
 883  8.53187600   0.685  -0.86536   3.64001   7.02593   1.88318   0.00097   1.000E+00   3.016E-03  -2.950E-03
 884  8.53266955   0.685  -0.86536   3.64001   7.02591   1.88318   0.00095   1.000E+00   3.009E-03  -2.936E-03
 885  8.53346166   0.685  -0.86535   3.64001   7.02590   1.88318   0.00093   1.000E+00   3.001E-03  -2.923E-03
 886  8.53425232   0.685  -0.86535   3.64001   7.02589   1.88318   0.00093   1.000E+00   3.000E-03  -2.915E-03
 887  8.53504155   0.685  -0.86534   3.64001   7.02589   1.88318   0.00092   1.000E+00   3.000E-03  -2.910E-03
 888  8.53582935   0.685  -0.86533   3.64001   7.02588   1.88319   0.00092   1.000E+00   3.000E-03  -2.904E-03
 889  8.53661572   0.685  -0.86533   3.64001   7.02588   1.88319   0.00091   1.000E+00   3.000E-03  -2.898E-03
 890  8.53740067   0.685  -0.86532   3.64001   7.02587   1.88319   0.00091   1.000E+00   3.000E-03  -2.892E-03
 891  8.53818420   0.685  -0.86531   3.64000   7.02586   1.88319   0.00090   1.000E+00   3.000E-03  -2.887E-03
 892  8.53896632   0.685  -0.86531   3.64000   7.02586   1.88319   0.00090   1.000E+00   3.000E-03  -2.881E-03
 893  8.53974703   0.685  -0.86530   3.64000   7.02585   1.88320   0.00089   1.000E+00   3.000E-03  -2.875E-03
 894  8.54052635   0.685  -0.86530   3.64000   7.02585   1.88320   0.00089   1.000E+00   3.000E-03  -2.869E-03
 895  8.54130427   0.685  -0.86529   3.64000   7.02584   1.88320   0.00089   1.000E+00   3.000E-03  -2.864E-03
 896  8.54208079   0.685  -0.86528   3.64000   7.02583   1.88320   0.00088   9.999E-01   3.000E-03  -2.858E-03
 897  8.54285594   0.685  -0.86528   3.64000   7.02583   1.88321   0.00088   9.999E-01   3.000E-03  -2.852E-03
 898  8.54362970   0.685  -0.86527   3.64000   7.02582   1.88321   0.00087   9.999E-01   3.000E-03  -2.847E-03
 899  8.54440208   0.685  -0.86527   3.64000   7.02581   1.88321   0.00087   9.999E-01   3.000E-03  -2.841E-03
 900  8.54517309   0.685  -0.86526   3.64000   7.02581   1.88321   0.00086   9.999E-01   3.000E-03  -2.835E-03
 901  8.54594274   0.685  -0.86525   3.64000   7.02580   1.88321   0.00086   9.999E-01   3.000E-03  -2.829E-03
 902  8.54671102   0.685  -0.86525   3.64000   7.02580   1.88322   0.00085   9.999E-01   3.000E-03  -2.824E-03
 903  8.54747795   0.685  -0.86524   3.63999   7.02579   1.88322   0.00085   9.999E-01   3.000E-03  -2.818E-03
 904  8.54824353   0.685  -0.86524   3.63999   7.02578   1.88322   0.00084   9.999E-01   3.000E-03  -2.812E-03
 905  8.54900776   0.685  -0.86523   3.63999   7.02578   1.88322   0.00084   9.999E-01   3.000E-03  -2.806E-03
 906  8.54977065   0.685  -0.86522   3.63999   7.02577   1.88323   0.00084   9.999E-01   3.000E-03  -2.801E-03
 907  8.55053219   0.685  -0.86522   3.63999   7.02576   1.88323   0.00083   9.999E-01   3.000E-03  -2.795E-03
 908  8.55129241   0.685  -0.86521   3.63999   7.02576   1.88323   0.00083   9.999E-01   3.000E-03  -2.789E-03
 909  8.55205130   0.685  -0.86521   3.63999   7.02575   1.88323   0.00082   9.999E-01   3.000E-03  -2.783E-03
 910  8.55280886   0.685  -0.86520   3.63999   7.02575   1.88323   0.00082   9.999E-01   3.000E-03  -2.778E-03
 911  8.55356511   0.685  -0.86519   3.63999   7.02574   1.88324   0.00081   9.999E-01   3.000E-03  -2.772E-03
 912  8.55432004   0.685  -0.86519   3.63999   7.02573   1.88324   0.00081   9.999E-01   3.000E-03  -2.766E-03
 913  8.55507366   0.685  -0.86518   3.63999   7.02573   1.88324   0.00080   9.999E-01   3.000E-03  -2.761E-03
 914  8.55582597   0.685  -0.86518   3.63998   7.02572   1.88324   0.00080   9.999E-01   3.000E-03  -2.755E-03
 915  8.55657698   0.685  -0.86517   3.63998   7.02571   1.88325   0.00080   9.999E-01   3.000E-03  -2.749E-03
 916  8.55732670   0.685  -0.86516   3.63998   7.02571   1.88325   0.00079   9.999E-01   3.000E-03  -2.743E-03
 917  8.55807513   0.685  -0.86516   3.63998   7.02570   1.88325   0.00079   9.998E-01   3.000E-03  -2.738E-03
 918  8.55882226   0.685  -0.86515   3.63998   7.02570   1.88325   0.00078   9.998E-01   3.000E-03  -2.732E-03
 919  8.55956812   0.685  -0.86515   3.63998   7.02569   1.88325   0.00078   9.998E-01   3.000E-03  -2.726E-03
 920  8.56031269   0.685  -0.86514   3.63998   7.02568   1.88326   0.00077   9.998E-01   3.000E-03  -2.720E-03
 921  8.56105600   0.685  -0.86513   3.63998   7.02568   1.88326   0.00077   9.998E-01   3.000E-03  -2.715E-03
 922  8.56179803   0.685  -0.86513   3.63998   7.02567   1.88326   0.00076   9.998E-01   3.000E-03  -2.709E-03
 923  8.56253879   0.685  -0.86512   3.63998   7.02566   1.88326   0.00076   9.998E-01   3.000E-03  -2.703E-03
 924  8.56327830   0.685  -0.86512   3.63998   7.02566   1.88326   0.00075   9.998E-01   3.000E-03  -2.697E-03
 925  8.56401654   0.685  -0.86511   3.63998   7.02565   1.88327   0.00075   9.998E-01   3.000E-03  -2.692E-03
 926  8.56475354   0.685  -0.86510   3.63997   7.02565   1.88327   0.00075   9.998E-01   3.000E-03  -2.686E-03
 927  8.56548929   0.685  -0.86510   3.63997   7.02564   1.88327   0.00074   9.998E-01   3.000E-03  -2.680E-03
 928  8.56622379   0.685  -0.86509   3.63997   7.02563   1.88327   0.00074   9.998E-01   3.000E-03  -2.675E-03
 929  8.56695705   0.685  -0.86509   3.63997   7.02563   1.88328   0.00073   9.998E-01   3.000E-03  -2.669E-03
 930  8.56768907   0.685  -0.86508   3.63997   7.02562   1.88328   0.00073   9.998E-01   3.000E-03  -2.663E-03
 931  8.56841987   0.685  -0.86507   3.63997   7.02562   1.88328   0.00072   9.998E-01   3.000E-03  -2.657E-03
 932  8.56914943   0.685  -0.86507   3.63997   7.02561   1.88328   0.00072   9.998E-01   3.000E-03  -2.652E-03
 933  8.56987778   0.685  -0.86506   3.63997   7.02560   1.88328   0.00071   9.998E-01   3.000E-03  -2.646E-03
 934  8.57060490   0.685  -0.86506   3.63997   7.02560   1.88329   0.00071   9.998E-01   3.000E-03  -2.640E-03
 935  8.57133081   0.685  -0.86505   3.63997   7.02559   1.88329   0.00070   9.998E-01   3.000E-03  -2.634E-03
 936  8.57205550   0.685  -0.86504   3.63997   7.02558   1.88329   0.00070   9.998E-01   3.000E-03  -2.629E-03
 937  8.57277899   0.685  -0.86504   3.63996   7.02558   1.88329   0.00070   9.997E-01   3.000E-03  -2.623E-03
 938  8.57350128   0.685  -0.86503   3.63996   7.02557   1.88330   0.00069   9.997E-01   3.000E-03  -2.617E-03
 939  8.57422237   0.685  -0.86503   3.63996   7.02557   1.88330   0.00069   9.997E-01   3.000E-03  -2.611E-03
 940  8.57494226   0.685  -0.86502   3.63996   7.02556   1.88330   0.00068   9.997E-01   3.000E-03  -2.606E-03
 941  8.57566096   0.685  -0.86501   3.63996   7.02555   1.88330   0.00068   9.997E-01   3.000E-03  -2.600E-03
 942  8.57637847   0.685  -0.86501   3.63996   7.02555   1.88330   0.00067   9.997E-01   3.000E-03  -2.594E-03
 943  8.57709480   0.685  -0.86500   3.63996   7.02554   1.88331   0.00067   9.997E-01   3.000E-03  -2.589E-03
 944  8.57780995   0.685  -0.86500   3.63996   7.02553   1.88331   0.00066   9.997E-01   3.000E-03  -2.583E-03
 945  8.57852392   0.685  -0.86499   3.63996   7.02553   1.88331   0.00066   9.997E-01   3.000E-03  -2.577E-03
 946  8.57923672   0.685  -0.86498   3.63996   7.02552   1.88331   0.00066   9.997E-01   3.000E-03  -2.571E-03
 947  8.57994836   0.685  -0.86498   3.63996   7.02552   1.88332   0.00065   9.997E-01   3.000E-03  -2.566E-03
 948  8.58065883   0.684  -0.86497   3.63996   7.02551   1.88332   0.00065   9.997E-01   3.000E-03  -2.560E-03
 949  8.58136814   0.684  -0.86497   3.63995   7.02550   1.88332   0.00064   9.997E-01   3.000E-03  -2.554E-03
 950  8.58207629   0.684  -0.86496   3.63995   7.02550   1.88332   0.00064   9.997E-01   3.000E-03  -2.548E-03
 951  8.58278329   0.684  -0.86495   3.63995   7.02549   1.88332   0.00063   9.997E-01   3.000E-03  -2.543E-03
 952  8.58348914   0.684  -0.86495   3.63995   7.02548   1.88333   0.00063   9.997E-01   3.000E-03  -2.537E-03
 953  8.58419385   0.684  -0.86494   3.63995   7.02548   1.88333   0.00062   9.997E-01   3.000E-03  -2.531E-03
 954  8.58489741   0.684  -0.86494   3.63995   7.02547   1.88333   0.00062   9.997E-01   3.000E-03  -2.525E-03
 955  8.58559984   0.684  -0.86493   3.63995   7.02547   1.88333   0.00061   9.997E-01   3.000E-03  -2.520E-03
 956  8.58630113   0.684  -0.86492   3.63995   7.02546   1.88333   0.00061   9.997E-01   3.000E-03  -2.514E-03
 957  8.58700129   0.684  -0.86492   3.63995   7.02545   1.88334   0.00061   9.997E-01   3.000E-03  -2.508E-03
 958  8.58770033   0.684  -0.86491   3.63995   7.02545   1.88334   0.00060   9.996E-01   3.000E-03  -2.503E-03
 959  8.58839824   0.684  -0.86491   3.63995   7.02544   1.88334   0.00060   9.996E-01   3.000E-03  -2.497E-03
 960  8.58909503   0.684  -0.86490   3.63994   7.02543   1.88334   0.00059   9.996E-01   3.000E-03  -2.491E-03
 961  8.58979070   0.684  -0.86489   3.63994   7.02543   1.88335   0.00059   9.996E-01   3.000E-03  -2.485E-03
 962  8.59048526   0.684  -0.86489   3.63994   7.02542   1.88335   0.00058   9.996E-01   3.000E-03  -2.480E-03
 963  8.59117872   0.684  -0.86488   3.63994   7.02542   1.88335   0.00058   9.996E-01   3.000E-03  -2.474E-03
 964  8.59187107   0.684  -0.86488   3.63994   7.02541   1.88335   0.00057   9.996E-01   3.000E-03  -2.468E-03
 965  8.59256231   0.684  -0.86487   3.63994   7.02540   1.88335   0.00057   9.996E-01   3.000E-03  -2.462E-03
 966  8.59325246   0.684  -0.86486   3.63994   7.02540   1.88336   0.00056   9.996E-01   3.000E-03  -2.457E-03
 967  8.59394151   0.684  -0.86486   3.63994   7.02539   1.88336   0.00056   9.996E-01   3.000E-03  -2.451E-03
 968  8.59462947   0.684  -0.86485   3.63994   7.02538   1.88336   0.00056   9.996E-01   3.000E-03  -2.445E-03
 969  8.59531635   0.684  -0.86485   3.63994   7.02538   1.88336   0.00055   9.996E-01   3.000E-03  -2.439E-03
 970  8.59600213   0.684  -0.86484   3.63994   7.02537   1.88337   0.00055   9.996E-01   3.000E-03  -2.434E-03
 971  8.59668684   0.684  -0.86483   3.63993   7.02537   1.88337   0.00054   9.996E-01   3.000E-03  -2.428E-03
 972  8.59737047   0.684  -0.86483   3.63993   7.02536   1.88337   0.00054   9.996E-01   3.000E-03  -2.422E-03
 973  8.59805303   0.684  -0.86482   3.63993   7.02535   1.88337   0.00053   9.996E-01   3.000E-03  -2.417E-03
 974  8.59873451   0.684  -0.86481   3.63993   7.02535   1.88337   0.00053   9.996E-01   3.000E-03  -2.411E-03
 975  8.59941493   0.684  -0.86481   3.63993   7.02534   1.88338   0.00052   9.996E-01   3.000E-03  -2.405E-03
 976  8.60009428   0.684  -0.86480   3.63993   7.02534   1.88338   0.00052   9.996E-01   3.000E-03  -2.399E-03
 977  8.60077257   0.684  -0.86480   3.63993   7.02533   1.88338   0.00052   9.996E-01   3.000E-03  -2.394E-03
 978  8.60144980   0.684  -0.86479   3.63993   7.02532   1.88338   0.00051   9.995E-01   3.000E-03  -2.388E-03
 979  8.60212598   0.684  -0.86478   3.63993   7.02532   1.88339   0.00051   9.995E-01   3.000E-03  -2.382E-03
 980  8.60280111   0.684  -0.86478   3.63993   7.02531   1.88339   0.00050   9.995E-01   3.000E-03  -2.376E-03
 981  8.60347519   0.684  -0.86477   3.63993   7.02530   1.88339   0.00050   9.995E-01   3.000E-03  -2.371E-03
 982  8.60414822   0.684  -0.86477   3.63993   7.02530   1.88339   0.00049   9.995E-01   3.000E-03  -2.365E-03
 983  8.60482021   0.684  -0.86476   3.63992   7.02529   1.88339   0.00049   9.995E-01   3.000E-03  -2.359E-03
 984  8.60549117   0.684  -0.86475   3.63992   7.02529   1.88340   0.00048   9.995E-01   3.000E-03  -2.353E-03
 985  8.60616109   0.684  -0.86475   3.63992   7.02528   1.88340   0.00048   9.995E-01   3.000E-03  -2.348E-03
 986  8.60682998   0.684  -0.86474   3.63992   7.02527   1.88340   0.00047   9.995E-01   3.000E-03  -2.342E-03
 987  8.60749784   0.684  -0.86474   3.63992   7.02527   1.88340   0.00047   9.995E-01   3.000E-03  -2.336E-03
 988  8.60816467   0.684  -0.86473   3.63992   7.02526   1.88340   0.00047   9.995E-01   3.000E-03  -2.331E-03
 989  8.60883049   0.684  -0.86472   3.63992   7.02525   1.88341   0.00046   9.995E-01   3.000E-03  -2.325E-03
 990  8.60949528   0.684  -0.86472   3.63992   7.02525   1.88341   0.00046   9.995E-01   3.000E-03  -2.319E-03
 991  8.61015906   0.684  -0.86471   3.63992   7.02524   1.88341   0.00045   9.995E-01   3.000E-03  -2.313E-03
 992  8.61082182   0.684  -0.86471   3.63992   7.02524   1.88341   0.00045   9.995E-01   3.000E-03  -2.308E-03
 993  8.61148357   0.684  -0.86470   3.63992   7.02523   1.88342   0.00044   9.995E-01   3.000E-03  -2.302E-03
 994  8.61214432   0.684  -0.86469   3.63991   7.02522   1.88342   0.00044   9.995E-01   3.000E-03  -2.296E-03
 995  8.61280406   0.684  -0.86469   3.63991   7.02522   1.88342   0.00043   9.995E-01   3.000E-03  -2.290E-03
 996  8.61346281   0.684  -0.86468   3.63991   7.02521   1.88342   0.00043   9.995E-01   3.000E-03  -2.285E-03
 997  8.61412055   0.684  -0.86468   3.63991   7.02520   1.88342   0.00042   9.995E-01   3.000E-03  -2.279E-03
 998  8.61477730   0.684  -0.86467   3.63991   7.02520   1.88343   0.00042   9.995E-01   3.000E-03  -2.273E-03
 999  8.61543306   0.684  -0.86466   3.63991   7.02519   1.88343   0.00042   9.994E-01   3.000E-03  -2.267E-03
1000  8.61608783   0.684  -0.86466   3.63991   7.02519   1.88343   0.00041   9.994E-01   3.000E-03  -2.262E-03
1001  8.61674162   0.684  -0.86465   3.63991   7.02518   1.88343   0.00041   9.994E-01   3.000E-03  -2.256E-03
1002  8.61739442   0.684  -0.86465   3.63991   7.02517   1.88344   0.00040   9.994E-01   3.000E-03  -2.250E-03
1003  8.61804624   0.684  -0.86464   3.63991   7.02517   1.88344   0.00040   9.994E-01   3.000E-03  -2.245E-03
1004  8.61869708   0.684  -0.86463   3.63991   7.02516   1.88344   0.00039   9.994E-01   3.000E-03  -2.239E-03
1005  8.61934696   0.684  -0.86463   3.63991   7.02515   1.88344   0.00039   9.994E-01   3.000E-03  -2.233E-03
1006  8.61999586   0.684  -0.86462   3.63990   7.02515   1.88344   0.00038   9.994E-01   3.000E-03  -2.227E-03
1007  8.62064379   0.684  -0.86462   3.63990   7.02514   1.88345   0.00038   9.994E-01   3.000E-03  -2.222E-03
1008  8.62129075   0.684  -0.86461   3.63990   7.02514   1.88345   0.00038   9.994E-01   3.000E-03  -2.216E-03
1009  8.62193676   0.684  -0.86460   3.63990   7.02513   1.88345   0.00037   9.994E-01   3.000E-03  -2.210E-03
1010  8.62258180   0.684  -0.86460   3.63990   7.02512   1.88345   0.00037   9.994E-01   3.000E-03  -2.204E-03
1011  8.62322589   0.684  -0.86459   3.63990   7.02512   1.88346   0.00036   9.994E-01   3.000E-03  -2.199E-03
1012  8.62386903   0.683  -0.86459   3.63990   7.02511   1.88346   0.00036   9.994E-01   3.000E-03  -2.193E-03
1013  8.62451121   0.683  -0.86458   3.63990   7.02511   1.88346   0.00035   9.994E-01   3.000E-03  -2.187E-03
1014  8.62515245   0.683  -0.86457   3.63990   7.02510   1.88346   0.00035   9.994E-01   3.000E-03  -2.181E-03
1015  8.62579274   0.683  -0.86457   3.63990   7.02509   1.88346   0.00034   9.994E-01   3.000E-03  -2.176E-03
1016  8.62643208   0.683  -0.86456   3.63990   7.02509   1.88347   0.00034   9.994E-01   3.000E-03  -2.170E-03
1017  8.62707049   0.683  -0.86456   3.63989   7.02508   1.88347   0.00033   9.994E-01   3.000E-03  -2.164E-03
1018  8.62770796   0.683  -0.86455   3.63989   7.02507   1.88347   0.00033   9.994E-01   3.000E-03  -2.159E-03
1019  8.62834450   0.683  -0.86454   3.63989   7.02507   1.88347   0.00033   9.993E-01   3.000E-03  -2.153E-03
1020  8.62898010   0.683  -0.86454   3.63989   7.02506   1.88347   0.00032   9.993E-01   3.000E-03  -2.147E-03
1021  8.62961478   0.683  -0.86453   3.63989   7.02506   1.88348   0.00032   9.993E-01   3.000E-03  -2.141E-03
1022  8.63024853   0.683  -0.86453   3.63989   7.02505   1.88348   0.00031   9.993E-01   3.000E-03  -2.136E-03
1023  8.63088135   0.683  -0.86452   3.63989   7.02504   1.88348   0.00031   9.993E-01   3.000E-03  -2.130E-03
1024  8.63151326   0.683  -0.86451   3.63989   7.02504   1.88348   0.00030   9.993E-01   3.000E-03  -2.124E-03
1025  8.63214425   0.683  -0.86451   3.63989   7.02503   1.88349   0.00030   9.993E-01   3.000E-03  -2.118E-03
1026  8.63277432   0.683  -0.86450   3.63989   7.02502   1.88349   0.00029   9.993E-01   3.000E-03  -2.113E-03
1027  8.63340348   0.683  -0.86450   3.63989   7.02502   1.88349   0.00029   9.993E-01   3.000E-03  -2.107E-03
1028  8.63403173   0.683  -0.86449   3.63989   7.02501   1.88349   0.00028   9.993E-01   3.000E-03  -2.101E-03
1029  8.63465907   0.683  -0.86448   3.63988   7.02501   1.88349   0.00028   9.993E-01   3.000E-03  -2.095E-03
1030  8.63528550   0.683  -0.86448   3.63988   7.02500   1.88350   0.00028   9.993E-01   3.000E-03  -2.090E-03
1031  8.63591104   0.683  -0.86447   3.63988   7.02499   1.88350   0.00027   9.993E-01   3.000E-03  -2.084E-03
1032  8.63653567   0.683  -0.86447   3.63988   7.02499   1.88350   0.00027   9.993E-01   3.000E-03  -2.078E-03
1033  8.63715941   0.683  -0.86446   3.63988   7.02498   1.88350   0.00026   9.993E-01   3.000E-03  -2.073E-03
1034  8.63778225   0.683  -0.86445   3.63988   7.02497   1.88351   0.00026   9.993E-01   3.000E-03  -2.067E-03
1035  8.63840420   0.683  -0.86445   3.63988   7.02497   1.88351   0.00025   9.993E-01   3.000E-03  -2.061E-03
1036  8.63902526   0.683  -0.86444   3.63988   7.02496   1.88351   0.00025   9.993E-01   3.000E-03  -2.055E-03
1037  8.63964544   0.683  -0.86444   3.63988   7.02496   1.88351   0.00024   9.993E-01   3.000E-03  -2.050E-03
1038  8.64026473   0.683  -0.86443   3.63988   7.02495   1.88351   0.00024   9.993E-01   3.000E-03  -2.044E-03
1039  8.64088314   0.683  -0.86442   3.63988   7.02494   1.88352   0.00023   9.993E-01   3.000E-03  -2.038E-03
1040  8.64150067   0.683  -0.86442   3.63987   7.02494   1.88352   0.00023   9.992E-01   3.000E-03  -2.032E-03
1041  8.64211732   0.683  -0.86441   3.63987   7.02493   1.88352   0.00023   9.992E-01   3.000E-03  -2.027E-03
1042  8.64273310   0.683  -0.86441   3.63987   7.02492   1.88352   0.00022   9.992E-01   3.000E-03  -2.021E-03
1043  8.64334800   0.683  -0.86440   3.63987   7.02492   1.88353   0.00022   9.992E-01   3.000E-03  -2.015E-03
1044  8.64396204   0.683  -0.86439   3.63987   7.02491   1.88353   0.00021   9.992E-01   3.000E-03  -2.009E-03
1045  8.64457521   0.683  -0.86439   3.63987   7.02491   1.88353   0.00021   9.992E-01   3.000E-03  -2.004E-03
1046  8.64518751   0.683  -0.86438   3.63987   7.02490   1.88353   0.00020   9.992E-01   3.000E-03  -1.998E-03
1047  8.64579896   0.683  -0.86438   3.63987   7.02489   1.88353   0.00020   9.992E-01   3.000E-03  -1.992E-03
1048  8.64640954   0.683  -0.86437   3.63987   7.02489   1.88354   0.00019   9.992E-01   3.000E-03  -1.987E-03
1049  8.64701927   0.683  -0.86436   3.63987   7.02488   1.88354   0.00019   9.992E-01   3.000E-03  -1.981E-03
1050  8.64762814   0.683  -0.86436   3.63987   7.02487   1.88354   0.00019   9.992E-01   3.000E-03  -1.975E-03
1051  8.64823616   0.683  -0.86435   3.63986   7.02487   1.88354   0.00018   9.992E-01   3.000E-03  -1.969E-03
1052  8.64884333   0.683  -0.86434   3.63986   7.02486   1.88354   0.00018   9.992E-01   3.000E-03  -1.964E-03
1053  8.64944965   0.683  -0.86434   3.63986   7.02486   1.88355   0.00017   9.992E-01   3.000E-03  -1.958E-03
1054  8.65005512   0.683  -0.86433   3.63986   7.02485   1.88355   0.00017   9.992E-01   3.000E-03  -1.952E-03
1055  8.65065976   0.683  -0.86433   3.63986   7.02484   1.88355   0.00016   9.992E-01   3.000E-03  -1.946E-03
1056  8.65126355   0.683  -0.86432   3.63986   7.02484   1.88355   0.00016   9.992E-01   3.000E-03  -1.941E-03
1057  8.65186650   0.683  -0.86431   3.63986   7.02483   1.88356   0.00015   9.992E-01   3.000E-03  -1.935E-03
1058  8.65246862   0.683  -0.86431   3.63986   7.02483   1.88356   0.00015   9.992E-01   3.000E-03  -1.929E-03
1059  8.65306991   0.683  -0.86430   3.63986   7.02482   1.88356   0.00014   9.992E-01   3.000E-03  -1.923E-03
1060  8.65367036   0.683  -0.86430   3.63986   7.02481   1.88356   0.00014   9.992E-01   3.000E-03  -1.918E-03
1061  8.65426998   0.683  -0.86429   3.63986   7.02481   1.88356   0.00014   9.991E-01   3.000E-03  -1.912E-03
1062  8.65486878   0.683  -0.86428   3.63986   7.02480   1.88357   0.00013   9.991E-01   3.000E-03  -1.906E-03
1063  8.65546675   0.683  -0.86428   3.63985   7.02479   1.88357   0.00013   9.991E-01   3.000E-03  -1.901E-03
1064  8.65606390   0.683  -0.86427   3.63985   7.02479   1.88357   0.00012   9.991E-01   3.000E-03  -1.895E-03
1065  8.65666024   0.683  -0.86427   3.63985   7.02478   1.88357   0.00012   9.991E-01   3.000E-03  -1.889E-03
1066  8.65725575   0.683  -0.86426   3.63985   7.02478   1.88358   0.00011   9.991E-01   3.000E-03  -1.883E-03
1067  8.65785045   0.683  -0.86425   3.63985   7.02477   1.88358   0.00011   9.991E-01   3.000E-03  -1.878E-03
1068  8.65844433   0.683  -0.86425   3.63985   7.02476   1.88358   0.00010   9.991E-01   3.000E-03  -1.872E-03
1069  8.65903740   0.683  -0.86424   3.63985   7.02476   1.88358   0.00010   9.991E-01   3.000E-03  -1.866E-03
1070  8.65962967   0.683  -0.86424   3.63985   7.02475   1.88358   0.00009   9.991E-01   3.000E-03  -1.860E-03
1071  8.66022113   0.683  -0.86423   3.63985   7.02474   1.88359   0.00009   9.991E-01   3.000E-03  -1.855E-03
1072  8.66081178   0.683  -0.86422   3.63985   7.02474   1.88359   0.00009   9.991E-01   3.000E-03  -1.849E-03
1073  8.66140163   0.683  -0.86422   3.63985   7.02473   1.88359   0.00008   9.991E-01   3.000E-03  -1.843E-03
1074  8.66199068   0.683  -0.86421   3.63984   7.02473   1.88359   0.00008   9.991E-01   3.000E-03  -1.837E-03
1075  8.66257894   0.683  -0.86421   3.63984   7.02472   1.88360   0.00007   9.991E-01   3.000E-03  -1.832E-03
1076  8.66316639   0.683  -0.86420   3.63984   7.02471   1.88360   0.00007   9.991E-01   3.000E-03  -1.826E-03
1077  8.66375306   0.682  -0.86419   3.63984   7.02471   1.88360   0.00006   9.991E-01   3.000E-03  -1.820E-03
1078  8.66433893   0.682  -0.86419   3.63984   7.02470   1.88360   0.00006   9.991E-01   3.000E-03  -1.815E-03
1079  8.66492401   0.682  -0.86418   3.63984   7.02469   1.88360   0.00005   9.991E-01   3.000E-03  -1.809E-03
1080  8.66550831   0.682  -0.86418   3.63984   7.02469   1.88361   0.00005   9.991E-01   3.000E-03  -1.803E-03
1081  8.66609182   0.682  -0.86417   3.63984   7.02468   1.88361   0.00005   9.990E-01   3.000E-03  -1.797E-03
1082  8.66667455   0.682  -0.86416   3.63984   7.02468   1.88361   0.00004   9.990E-01   3.000E-03  -1.792E-03
1083  8.66725650   0.682  -0.86416   3.63984   7.02467   1.88361   0.00004   9.990E-01   3.000E-03  -1.786E-03
1084  8.66783767   0.682  -0.86415   3.63984   7.02466   1.88361   0.00003   9.990E-01   3.000E-03  -1.780E-03
1085  8.66841806   0.682  -0.86415   3.63984   7.02466   1.88362   0.00003   9.990E-01   3.000E-03  -1.774E-03
1086  8.66899768   0.682  -0.86414   3.63983   7.02465   1.88362   0.00002   9.990E-01   3.000E-03  -1.769E-03
1087  8.66957652   0.682  -0.86413   3.63983   7.02464   1.88362   0.00002   9.990E-01   3.000E-03  -1.763E-03
1088  8.67015459   0.682  -0.86413   3.63983   7.02464   1.88362   0.00001   9.990E-01   3.000E-03  -1.757E-03
1089  8.67073190   0.682  -0.86412   3.63983   7.02463   1.88363   0.00001   9.990E-01   3.000E-03  -1.751E-03
1090  8.67130844   0.682  -0.86412   3.63983   7.02463   1.88363   0.00000   9.990E-01   3.000E-03  -1.746E-03
1091  8.67188422   0.682  -0.86411   3.63983   7.02462   1.88363   0.00000   9.990E-01   3.000E-03  -1.740E-03
1092  8.87441956   0.676  -0.86153   3.63972   7.02378   1.88536   0.00000   9.980E-01   3.000E-03  -8.721E-04
1093  9.01200005   0.669  -0.85907   3.63975   7.02365   1.88774   0.00000   9.980E-01   2.170E-03  -4.599E-04
1094  9.11632217   0.663  -0.85652   3.63990   7.02392   1.89086   0.00000   9.980E-01   2.000E-03  -2.086E-04
1095  9.20037547   0.656  -0.85393   3.64011   7.02444   1.89441   0.00000   9.980E-01   2.000E-03  -6.277E-05
1096  9.27076913   0.649  -0.85134   3.64035   7.02508   1.89818   0.00000   9.980E-01   2.000E-03   2.978E-05
1097  9.33132839   0.643  -0.84873   3.64062   7.02582   1.90212   0.00000   9.980E-01   2.000E-03   8.786E-05
1098  9.38446728   0.636  -0.84613   3.64091   7.02660   1.90614   0.00000   9.980E-01   2.000E-03   1.306E-04
1099  9.43180734   0.629  -0.84353   3.64120   7.02743   1.91022   0.00000   9.980E-01   2.000E-03   1.641E-04
1100  9.47449059   0.623  -0.84094   3.64150   7.02829   1.91435   0.00000   9.980E-01   2.000E-03   1.908E-04
1101  9.51335169   0.616  -0.83836   3.64181   7.02918   1.91849   0.00000   9.980E-01   2.000E-03   2.129E-04
1102  9.54901927   0.609  -0.83577   3.64212   7.03009   1.92266   0.00000   9.980E-01   2.000E-03   2.331E-04
1103  9.58197857   0.603  -0.83318   3.64244   7.03101   1.92684   0.00000   9.980E-01   2.000E-03   2.504E-04
1104  9.61261202   0.596  -0.83059   3.64275   7.03196   1.93148   0.00000   9.980E-01   2.000E-03   2.651E-04
1105  9.64122634   0.590  -0.82800   3.64307   7.03299   1.93645   0.00000   9.980E-01   2.000E-03   2.735E-04
1106  9.66807132   0.583  -0.82541   3.64339   7.03406   1.94143   0.00000   9.980E-01   2.000E-03   2.809E-04
1107  9.69335310   0.577  -0.82280   3.64371   7.03517   1.94638   0.00000   9.980E-01   2.000E-03   2.882E-04
1108  9.71724375   0.571  -0.82018   3.64404   7.03630   1.95135   0.00000   9.980E-01   2.000E-03   2.951E-04
1109  9.73988842   0.564  -0.81754   3.64436   7.03744   1.95631   0.00000   9.980E-01   2.000E-03   3.018E-04
1110  9.76141064   0.558  -0.81488   3.64468   7.03862   1.96128   0.00000   9.980E-01   2.000E-03   3.093E-04
1111  9.78191647   0.552  -0.81220   3.64501   7.03981   1.96628   0.00000   9.980E-01   2.000E-03   3.168E-04
1112  9.80149758   0.545  -0.80950   3.64533   7.04101   1.97128   0.00000   9.980E-01   2.000E-03   3.251E-04
1113  9.82023379   0.539  -0.80677   3.64567   7.04223   1.97629   0.00000   9.980E-01   2.000E-03   3.342E-04
1114  9.83819501   0.532  -0.80403   3.64600   7.04345   1.98133   0.00000   9.980E-01   2.000E-03   3.428E-04
1115  9.85544281   0.526  -0.80125   3.64634   7.04469   1.98637   0.00000   9.980E-01   2.000E-03   3.517E-04
1116  9.87203171   0.520  -0.79845   3.64667   7.04594   1.99145   0.00000   9.980E-01   2.000E-03   3.606E-04
1117  9.88801020   0.513  -0.79561   3.64702   7.04719   1.99657   0.00000   9.980E-01   2.000E-03   3.747E-04
1118  9.90342161   0.507  -0.79275   3.64737   7.04846   2.00171   0.00000   9.980E-01   2.000E-03   3.888E-04
1119  9.91830482   0.501  -0.78986   3.64773   7.04974   2.00688   0.00000   9.980E-01   2.000E-03   4.005E-04
1120  9.93269484   0.494  -0.78695   3.64808   7.05102   2.01210   0.00000   9.980E-01   2.000E-03   4.128E-04
1121  9.94662332   0.488  -0.78401   3.64844   7.05232   2.01734   0.00000   9.980E-01   2.000E-03   4.258E-04
1122  9.96011893   0.481  -0.78105   3.64880   7.05361   2.02262   0.00000   9.980E-01   2.000E-03   4.387E-04
1123  9.97320777   0.475  -0.77806   3.64917   7.05492   2.02792   0.00000   9.980E-01   1.940E-03   4.525E-04
1124  9.98591366   0.468  -0.77504   3.64954   7.05623   2.03328   0.00000   9.980E-01   1.000E-03   4.662E-04
1125  9.99825836   0.462  -0.77200   3.64992   7.05755   2.03867   0.00000   9.980E-01   1.000E-03   4.806E-04
1126 10.01026184   0.456  -0.76893   3.65030   7.05888   2.04408   0.00000   9.980E-01   1.000E-03   4.940E-04
1127 10.02194246   0.449  -0.76584   3.65067   7.06022   2.04954   0.00000   9.980E-01   1.000E-03   5.081E-04
1128 10.03331714   0.443  -0.76272   3.65106   7.06156   2.05504   0.00000   9.980E-01   1.000E-03   5.226E-04
1129 10.04440148   0.436  -0.75957   3.65145   7.06291   2.06056   0.00000   9.980E-01   1.000E-03   5.355E-04
1130 10.05520995   0.430  -0.75640   3.65185   7.06426   2.06613   0.00000   9.980E-01   1.000E-03   5.505E-04
1131 10.06575595   0.423  -0.75321   3.65224   7.06562   2.07174   0.00000   9.980E-01   1.000E-03   5.642E-04
1132 10.07605191   0.417  -0.74998   3.65264   7.06700   2.07738   0.00000   9.980E-01   1.000E-03   5.772E-04
1133 10.08610943   0.410  -0.74673   3.65304   7.06838   2.08309   0.00000   9.980E-01   1.000E-03   5.921E-04
1134 10.09593929   0.404  -0.74346   3.65345   7.06977   2.08882   0.00000   9.980E-01   1.000E-03   6.064E-04
1135 10.10555158   0.397  -0.74015   3.65385   7.07118   2.09513   0.00000   9.980E-01   1.000E-03   6.203E-04
1136 10.11495572   0.391  -0.73683   3.65426   7.07265   2.10211   0.00000   9.980E-01   1.000E-03   6.306E-04
1137 10.12416053   0.384  -0.73348   3.65467   7.07416   2.10916   0.00000   9.980E-01   1.000E-03   6.417E-04
1138 10.13317429   0.378  -0.73011   3.65508   7.07571   2.11625   0.00000   9.980E-01   1.000E-03   6.534E-04
1139 10.14200477   0.371  -0.72669   3.65550   7.07730   2.12341   0.00000   9.980E-01   2.000E-03   6.683E-04
1140 10.15065927   0.364  -0.72325   3.65591   7.07891   2.13060   0.00000   9.980E-01   2.000E-03   6.813E-04
1141 10.15914467   0.358  -0.71979   3.65633   7.08054   2.13782   0.00000   9.980E-01   2.000E-03   6.943E-04
1142 10.16746745   0.351  -0.71629   3.65675   7.08222   2.14508   0.00000   9.980E-01   2.000E-03   7.073E-04
1143 10.17563373   0.344  -0.71276   3.65717   7.08391   2.15238   0.00000   9.980E-01   2.000E-03   7.189E-04
1144 10.18364928   0.337  -0.70920   3.65759   7.08562   2.15974   0.00000   9.980E-01   2.000E-03   7.328E-04
1145 10.19151957   0.331  -0.70560   3.65801   7.08735   2.16714   0.00000   9.980E-01   2.000E-03   7.457E-04
1146 10.19924977   0.324  -0.70197   3.65844   7.08911   2.17458   0.00000   9.980E-01   2.000E-03   7.584E-04
1147 10.20684478   0.317  -0.69830   3.65887   7.09090   2.18207   0.00000   9.980E-01   2.000E-03   7.723E-04
1148 10.21430925   0.311  -0.69459   3.65930   7.09269   2.18955   0.00000   9.980E-01   2.000E-03   7.860E-04
1149 10.22164758   0.304  -0.69085   3.65974   7.09452   2.19709   0.00000   9.980E-01   2.000E-03   8.002E-04
1150 10.22886398   0.297  -0.68707   3.66018   7.09635   2.20465   0.00000   9.980E-01   2.000E-03   8.168E-04
1151 10.23596242   0.291  -0.68324   3.66062   7.09821   2.21222   0.00000   9.980E-01   2.000E-03   8.322E-04
1152 10.24294671   0.284  -0.67938   3.66106   7.10009   2.21989   0.00000   9.979E-01   2.000E-03   8.481E-04
1153 10.24982045   0.278  -0.67547   3.66152   7.10198   2.22755   0.00000   9.970E-01   2.000E-03   8.654E-04
1154 10.25658708   0.271  -0.67152   3.66197   7.10389   2.23527   0.00000   9.970E-01   2.000E-03   8.814E-04
1155 10.26324991   0.265  -0.66752   3.66243   7.10582   2.24301   0.00000   9.970E-01   2.000E-03   8.973E-04
1156 10.26981206   0.259  -0.66348   3.66289   7.10776   2.25074   0.00000   9.970E-01   2.000E-03   9.144E-04
1157 10.27627653   0.252  -0.65939   3.66336   7.10973   2.25853   0.00000   9.970E-01   2.000E-03   9.307E-04
1158 10.28264618   0.246  -0.65526   3.66384   7.11171   2.26634   0.00000   9.970E-01   2.000E-03   9.471E-04
1159 10.28892376   0.240  -0.65109   3.66432   7.11370   2.27421   0.00000   9.970E-01   2.000E-03   9.645E-04
1160 10.29511190   0.234  -0.64686   3.66480   7.11572   2.28213   0.00000   9.970E-01   2.000E-03   9.801E-04
1161 10.30121309   0.228  -0.64258   3.66529   7.11775   2.29009   0.00000   9.970E-01   2.000E-03   9.989E-04
1162 10.30722977   0.222  -0.63826   3.66579   7.11980   2.29812   0.00000   9.970E-01   2.000E-03   1.016E-03
1163 10.31316422   0.216  -0.63388   3.66629   7.12187   2.30617   0.00000   9.970E-01   2.000E-03   1.038E-03
1164 10.31901867   0.211  -0.62945   3.66679   7.12395   2.31428   0.00000   9.970E-01   2.000E-03   1.050E-03
1165 10.32479526   0.205  -0.62497   3.66731   7.12605   2.32247   0.00000   9.970E-01   2.000E-03   1.072E-03
1166 10.33049601   0.199  -0.62043   3.66781   7.12816   2.33100   0.00000   9.970E-01   2.000E-03   1.085E-03
1167 10.33612291   0.194  -0.61584   3.66834   7.13030   2.34086   0.00000   9.970E-01   2.000E-03   1.107E-03
1168 10.34167783   0.188  -0.61121   3.66886   7.13254   2.35083   0.00000   9.960E-01   2.000E-03   1.111E-03
1169 10.34716259   0.182  -0.60652   3.66938   7.13484   2.36094   0.00000   9.960E-01   3.000E-03   1.140E-03
1170 10.35257895   0.177  -0.60178   3.66991   7.13723   2.37114   0.00000   9.960E-01   3.000E-03   1.157E-03
1171 10.35792859   0.171  -0.59697   3.67044   7.13967   2.38149   0.00000   9.960E-01   3.000E-03   1.180E-03
1172 10.36321314   0.166  -0.59212   3.67097   7.14215   2.39195   0.00000   9.960E-01   3.000E-03   1.190E-03
1173 10.36843415   0.160  -0.58719   3.67150   7.14468   2.40254   0.00000   9.960E-01   3.000E-03   1.220E-03
1174 10.37359315   0.155  -0.58221   3.67203   7.14725   2.41330   0.00000   9.955E-01   3.000E-03   1.235E-03
1175 10.37869157   0.149  -0.57717   3.67256   7.14987   2.42420   0.00000   9.950E-01   3.976E-03   1.260E-03
1176 10.38373084   0.144  -0.57206   3.67308   7.15252   2.43533   0.00000   9.950E-01   4.000E-03   1.280E-03
1177 10.38871231   0.138  -0.56687   3.67361   7.15522   2.44660   0.00000   9.950E-01   4.000E-03   1.300E-03
1178 10.39363728   0.133  -0.56162   3.67414   7.15794   2.45801   0.00000   9.940E-01   4.000E-03   1.327E-03
1179 10.39850703   0.127  -0.55628   3.67467   7.16070   2.46959   0.00000   9.940E-01   5.000E-03   1.344E-03
1180 10.40332279   0.122  -0.55086   3.67520   7.16349   2.48134   0.00000   9.939E-01   5.000E-03   1.370E-03
1181 10.40808572   0.117  -0.54536   3.67574   7.16630   2.49329   0.00000   9.930E-01   5.794E-03   1.398E-03
1182 10.41279699   0.112  -0.53977   3.67627   7.16913   2.50547   0.00000   9.924E-01   6.000E-03   1.416E-03
1183 10.41745769   0.107  -0.53407   3.67682   7.17199   2.51787   0.00000   9.920E-01   7.000E-03   1.454E-03
1184 10.42206891   0.102  -0.52825   3.67737   7.17489   2.53052   0.00000   9.910E-01   7.000E-03   1.480E-03
1185 10.42663169   0.097  -0.52237   3.67791   7.17780   2.54337   0.00000   9.908E-01   8.000E-03   1.502E-03
1186 10.43114702   0.092  -0.51636   3.67845   7.18074   2.55650   0.00000   9.898E-01   9.000E-03   1.542E-03
1187 10.43561589   0.087  -0.51026   3.67898   7.18371   2.56987   0.00000   9.888E-01   1.000E-02   1.562E-03
1188 10.44003924   0.083  -0.50402   3.67953   7.18672   2.58351   0.00000   9.877E-01   1.100E-02   1.603E-03
1189 10.44441800   0.078  -0.49767   3.68007   7.18978   2.59747   0.00000   9.860E-01   1.200E-02   1.635E-03
1190 10.44875305   0.074  -0.49119   3.68061   7.19289   2.61173   0.00000   9.843E-01   1.371E-02   1.660E-03
1191 10.45304526   0.069  -0.48458   3.68116   7.19609   2.62626   0.00000   9.830E-01   1.500E-02   1.700E-03
1192 10.45418838   0.068  -0.48278   3.68131   7.19696   2.63020   0.00000   9.821E-01   1.589E-02   1.709E-03
1193 10.45532851   0.067  -0.48098   3.68146   7.19784   2.63417   0.00000   9.820E-01   1.679E-02   1.710E-03
1194 10.45646564   0.066  -0.47915   3.68161   7.19873   2.63816   0.00000   9.813E-01   1.700E-02   1.724E-03
1195 10.45759981   0.065  -0.47733   3.68176   7.19962   2.64216   0.00000   9.804E-01   1.760E-02   1.736E-03
1196 10.45873103   0.064  -0.47549   3.68191   7.20053   2.64619   0.00000   9.800E-01   1.851E-02   1.745E-03
1197 10.45985930   0.062  -0.47365   3.68206   7.20144   2.65025   0.00000   9.796E-01   1.900E-02   1.754E-03
1198 10.46098465   0.061  -0.47180   3.68221   7.20236   2.65432   0.00000   9.786E-01   1.935E-02   1.760E-03
1199 10.46210709   0.060  -0.46994   3.68235   7.20329   2.65840   0.00000   9.780E-01   2.028E-02   1.763E-03
1200 10.46322664   0.059  -0.46807   3.68249   7.20423   2.66249   0.00000   9.778E-01   2.100E-02   1.772E-03
1201 10.46434332   0.058  -0.46618   3.68264   7.20519   2.66660   0.00000   9.769E-01   2.114E-02   1.781E-03
1202 10.46545712   0.057  -0.46429   3.68279   7.20615   2.67074   0.00000   9.759E-01   2.209E-02   1.791E-03
1203 10.46656808   0.056  -0.46238   3.68294   7.20712   2.67489   0.00000   9.750E-01   2.303E-02   1.800E-03
1204 10.46767620   0.054  -0.46047   3.68309   7.20811   2.67905   0.00000   9.740E-01   2.398E-02   1.810E-03
1205 10.46878151   0.053  -0.45856   3.68323   7.20911   2.68324   0.00000   9.731E-01   2.494E-02   1.810E-03
1206 10.46988400   0.052  -0.45663   3.68337   7.21013   2.68743   0.00000   9.721E-01   2.590E-02   1.819E-03
1207 10.47098371   0.051  -0.45469   3.68352   7.21116   2.69165   0.00000   9.711E-01   2.686E-02   1.829E-03
1208 10.47208063   0.050  -0.45274   3.68367   7.21221   2.69588   0.00000   9.702E-01   2.783E-02   1.838E-03
1209 10.47317480   0.049  -0.45078   3.68381   7.21327   2.70011   0.00000   9.692E-01   2.881E-02   1.840E-03
1210 10.47426621   0.048  -0.44882   3.68396   7.21435   2.70435   0.00000   9.682E-01   2.978E-02   1.848E-03
1211 10.47535489   0.046  -0.44685   3.68410   7.21544   2.70859   0.00000   9.672E-01   3.076E-02   1.850E-03
1212 10.47644085   0.045  -0.44486   3.68424   7.21656   2.71284   0.00000   9.663E-01   3.175E-02   1.857E-03
1213 10.47752409   0.044  -0.44287   3.68439   7.21769   2.71711   0.00000   9.653E-01   3.348E-02   1.867E-03
1214 10.47860465   0.043  -0.44088   3.68453   7.21885   2.72137   0.00000   9.635E-01   3.474E-02   1.877E-03
1215 10.47968252   0.042  -0.43887   3.68467   7.22003   2.72564   0.00000   9.623E-01   3.573E-02   1.880E-03
1216 10.48075772   0.041  -0.43687   3.68481   7.22122   2.72991   0.00000   9.605E-01   3.747E-02   1.880E-03
1217 10.48183027   0.039  -0.43485   3.68495   7.22244   2.73418   0.00000   9.593E-01   3.874E-02   1.880E-03
1218 10.48290017   0.038  -0.43282   3.68509   7.22368   2.73846   0.00000   9.575E-01   4.050E-02   1.887E-03
1219 10.48396744   0.037  -0.43079   3.68524   7.22495   2.74273   0.00000   9.562E-01   4.176E-02   1.890E-03
1220 10.48503210   0.036  -0.42875   3.68537   7.22624   2.74700   0.00000   9.544E-01   4.356E-02   1.898E-03
1221 10.48609416   0.035  -0.42665   3.68554   7.22755   2.75124   0.00000   9.524E-01   4.559E-02   1.900E-03
1222 10.48715362   0.033  -0.42458   3.68569   7.22891   2.75550   0.00000   9.503E-01   4.769E-02   1.959E-03
1223 10.48821051   0.032  -0.42253   3.68582   7.23027   2.75974   0.00000   9.491E-01   4.888E-02   1.917E-03
1224 10.48926483   0.031  -0.42048   3.68596   7.23164   2.76397   0.00000   9.472E-01   5.082E-02   1.892E-03
1225 10.49031659   0.030  -0.41841   3.68608   7.23303   2.76821   0.00000   9.451E-01   5.380E-02   1.899E-03
1226 10.49136582   0.028  -0.41635   3.68622   7.23445   2.77245   0.00000   9.421E-01   5.593E-02   1.900E-03
1227 10.49241252   0.027  -0.41427   3.68634   7.23588   2.77671   0.00000   9.400E-01   5.800E-02   1.910E-03
1228 10.49345670   0.026  -0.41219   3.68647   7.23732   2.78098   0.00000   9.379E-01   6.011E-02   1.910E-03
1229 10.49449837   0.025  -0.41011   3.68660   7.23877   2.78528   0.00000   9.348E-01   6.315E-02   1.901E-03
1230 10.49553756   0.023  -0.40802   3.68672   7.24022   2.78958   0.00000   9.326E-01   6.536E-02   1.914E-03
1231 10.49657426   0.022  -0.40591   3.68685   7.24168   2.79392   0.00000   9.296E-01   6.838E-02   1.965E-03
1232 10.49760849   0.021  -0.40376   3.68699   7.24318   2.79831   0.00000   9.270E-01   7.100E-02   2.107E-03
1233 10.49864027   0.019  -0.40160   3.68712   7.24467   2.80272   0.00000   9.239E-01   7.411E-02   2.247E-03
1234 10.49966960   0.018  -0.39943   3.68725   7.24613   2.80720   0.00000   9.204E-01   7.673E-02   2.404E-03
1235 10.50069650   0.017  -0.39724   3.68738   7.24754   2.81182   0.00000   9.172E-01   8.056E-02   2.576E-03
1236 10.50172097   0.015  -0.39504   3.68750   7.24889   2.81656   0.00000   9.134E-01   8.358E-02   2.765E-03
1237 10.50274304   0.014  -0.39282   3.68763   7.25016   2.82147   0.00000   9.102E-01   8.683E-02   2.946E-03
1238 10.50376270   0.013  -0.39058   3.68776   7.25134   2.82655   0.00000   9.067E-01   9.028E-02   3.124E-03
1239 10.50477998   0.012  -0.38833   3.68788   7.25243   2.83181   0.00000   9.030E-01   9.298E-02   3.308E-03
1240 10.50579488   0.011  -0.38605   3.68801   7.25342   2.83726   0.00000   9.001E-01   9.688E-02   3.504E-03
1241 10.50680741   0.010  -0.38373   3.68814   7.25432   2.84290   0.00000   8.970E-01   1.000E-01   3.690E-03
1242 10.50712911   0.009  -0.38299   3.68817   7.25459   2.84475   0.00000   8.956E-01   1.007E-01   3.751E-03
1243 10.50745058   0.009  -0.38224   3.68821   7.25484   2.84661   0.00000   8.946E-01   1.017E-01   3.810E-03
1244 10.50777181   0.009  -0.38150   3.68825   7.25509   2.84849   0.00000   8.939E-01   1.031E-01   3.865E-03
1245 10.50809280   0.008  -0.38074   3.68830   7.25533   2.85040   0.00000   8.924E-01   1.038E-01   3.915E-03
1246 10.50841355   0.008  -0.37999   3.68834   7.25556   2.85232   0.00000   8.915E-01   1.045E-01   3.965E-03
1247 10.50873407   0.008  -0.37924   3.68837   7.25578   2.85425   0.00000   8.905E-01   1.055E-01   4.019E-03
1248 10.50905435   0.007  -0.37848   3.68841   7.25599   2.85622   0.00000   8.890E-01   1.070E-01   4.078E-03
1249 10.50937439   0.007  -0.37772   3.68845   7.25620   2.85820   0.00000   8.883E-01   1.077E-01   4.131E-03
1250 10.50969420   0.007  -0.37696   3.68848   7.25639   2.86020   0.00000   8.870E-01   1.085E-01   4.184E-03
1251 10.51001377   0.007  -0.37619   3.68852   7.25658   2.86221   0.00000   8.857E-01   1.095E-01   4.241E-03
1252 10.51033311   0.006  -0.37541   3.68856   7.25677   2.86425   0.00000   8.850E-01   1.110E-01   4.304E-03
1253 10.51065221   0.006  -0.37456   3.68864   7.25694   2.86630   0.00000   8.842E-01   1.118E-01   4.375E-03
1254 10.51097108   0.006  -0.37378   3.68869   7.25712   2.86836   0.00000   8.827E-01   1.126E-01   4.416E-03
1255 10.51128972   0.006  -0.37301   3.68872   7.25729   2.87044   0.00000   8.815E-01   1.135E-01   4.453E-03
1256 10.51160812   0.005  -0.37223   3.68876   7.25745   2.87254   0.00000   8.807E-01   1.145E-01   4.496E-03
1257 10.51192629   0.005  -0.37145   3.68880   7.25761   2.87467   0.00000   8.799E-01   1.161E-01   4.545E-03
1258 10.51224422   0.005  -0.37067   3.68884   7.25775   2.87682   0.00000   8.791E-01   1.169E-01   4.587E-03
1259 10.51256192   0.005  -0.36988   3.68888   7.25789   2.87896   0.00000   8.774E-01   1.178E-01   4.637E-03
1260 10.51287940   0.005  -0.36908   3.68892   7.25803   2.88113   0.00000   8.764E-01   1.186E-01   4.676E-03
1261 10.51319663   0.004  -0.36829   3.68895   7.25816   2.88330   0.00000   8.755E-01   1.195E-01   4.721E-03
1262 10.51351364   0.004  -0.36750   3.68899   7.25829   2.88549   0.00000   8.746E-01   1.204E-01   4.774E-03
1263 10.51383042   0.004  -0.36670   3.68902   7.25841   2.88770   0.00000   8.737E-01   1.216E-01   4.827E-03
1264 10.51414696   0.004  -0.36590   3.68906   7.25852   2.88992   0.00000   8.727E-01   1.232E-01   4.879E-03
1265 10.51446328   0.004  -0.36509   3.68909   7.25864   2.89216   0.00000   8.709E-01   1.241E-01   4.924E-03
1266 10.51477936   0.004  -0.36428   3.68913   7.25875   2.89441   0.00000   8.700E-01   1.250E-01   4.979E-03
1267 10.51509521   0.003  -0.36347   3.68917   7.25886   2.89668   0.00000   8.691E-01   1.259E-01   5.025E-03
1268 10.51541084   0.003  -0.36266   3.68920   7.25896   2.89896   0.00000   8.682E-01   1.268E-01   5.072E-03
1269 10.51572623   0.003  -0.36185   3.68924   7.25907   2.90127   0.00000   8.672E-01   1.278E-01   5.119E-03
1270 10.51604140   0.003  -0.36103   3.68928   7.25917   2.90358   0.00000   8.663E-01   1.287E-01   5.159E-03
1271 10.51635634   0.003  -0.36022   3.68931   7.25927   2.90590   0.00000   8.653E-01   1.297E-01   5.204E-03
1272 10.51667105   0.003  -0.35939   3.68935   7.25937   2.90824   0.00000   8.637E-01   1.307E-01   5.246E-03
1273 10.51698553   0.003  -0.35857   3.68939   7.25946   2.91060   0.00000   8.624E-01   1.316E-01   5.285E-03
1274 10.51729979   0.002  -0.35775   3.68942   7.25955   2.91297   0.00000   8.614E-01   1.326E-01   5.325E-03
1275 10.51761381   0.002  -0.35692   3.68945   7.25964   2.91535   0.00000   8.604E-01   1.336E-01   5.371E-03
1276 10.51792761   0.002  -0.35608   3.68948   7.25972   2.91774   0.00000   8.594E-01   1.346E-01   5.427E-03
1277 10.51824119   0.002  -0.35525   3.68952   7.25981   2.92015   0.00000   8.584E-01   1.356E-01   5.482E-03
1278 10.51855453   0.002  -0.35441   3.68955   7.25989   2.92257   0.00000   8.573E-01   1.367E-01   5.540E-03
1279 10.51886766   0.002  -0.35357   3.68958   7.25998   2.92501   0.00000   8.563E-01   1.384E-01   5.595E-03
1280 10.51918055   0.002  -0.35273   3.68961   7.26005   2.92744   0.00000   8.552E-01   1.398E-01   5.655E-03
1281 10.51949322   0.002  -0.35188   3.68965   7.26013   2.92990   0.00000   8.542E-01   1.408E-01   5.710E-03
1282 10.51980567   0.002  -0.35104   3.68969   7.26021   2.93237   0.00000   8.531E-01   1.419E-01   5.764E-03
1283 10.52011789   0.002  -0.35018   3.68972   7.26030   2.93485   0.00000   8.520E-01   1.430E-01   5.818E-03
1284 10.52042989   0.001  -0.34933   3.68975   7.26037   2.93734   0.00000   8.510E-01   1.430E-01   5.862E-03
1285 10.52074166   0.001  -0.34848   3.68977   7.26045   2.93985   0.00000   8.499E-01   1.441E-01   5.907E-03
1286 10.52105321   0.001  -0.34762   3.68981   7.26053   2.94238   0.00000   8.487E-01   1.453E-01   5.960E-03
1287 10.52136453   0.001  -0.34676   3.68984   7.26060   2.94492   0.00000   8.476E-01   1.464E-01   6.005E-03
1288 10.52167564   0.001  -0.34589   3.68987   7.26068   2.94748   0.00000   8.465E-01   1.475E-01   6.056E-03
1289 10.52198652   0.001  -0.34503   3.68990   7.26075   2.95004   0.00000   8.453E-01   1.487E-01   6.120E-03
1290 10.52229717   0.001  -0.34416   3.68993   7.26083   2.95263   0.00000   8.442E-01   1.498E-01   6.181E-03
1291 10.52260761   0.001  -0.34329   3.68996   7.26090   2.95523   0.00000   8.430E-01   1.510E-01   6.240E-03
1292 10.52349302   0.001  -0.34081   3.69004   7.26110   2.96275   0.00000   8.399E-01   1.541E-01   5.643E-03
1293 10.52437663   0.001  -0.33830   3.69013   7.26128   2.97039   0.00000   8.371E-01   1.578E-01   4.945E-03
1294 10.52525844   0.001  -0.33577   3.69021   7.26146   2.97814   0.00000   8.347E-01   1.606E-01   4.309E-03
1295 10.52613847   0.000  -0.33315   3.69033   7.26162   2.98603   0.00000   8.326E-01   1.638E-01   3.753E-03
1296 10.52701671   0.000  -0.33059   3.69040   7.26178   2.99406   0.00000   8.298E-01   1.664E-01   3.247E-03
1297 10.52789319   0.000  -0.32802   3.69045   7.26191   3.00227   0.00000   8.275E-01   1.695E-01   2.810E-03
1298 10.52876790   0.000  -0.32543   3.69050   7.26204   3.01064   0.00000   8.248E-01   1.723E-01   2.444E-03
1299 10.52964085   0.000  -0.32278   3.69056   7.26227   3.01896   0.00000   8.218E-01   1.762E-01   2.410E-03
1300 10.53051205   0.000  -0.32012   3.69062   7.26253   3.02735   0.00000   8.178E-01   1.795E-01   2.455E-03
1301 10.53138151   0.000  -0.31745   3.69066   7.26273   3.03605   0.00000   8.148E-01   1.831E-01   2.408E-03
1302 10.53224922   0.000  -0.31473   3.69070   7.26302   3.04478   0.00000   8.112E-01   1.862E-01   2.388E-03
1303 10.53311521   0.000  -0.31200   3.69074   7.26339   3.05407   0.00000   8.077E-01   1.903E-01   2.377E-03
1304 10.53397948   0.000  -0.30922   3.69079   7.26370   3.06335   0.00000   8.036E-01   1.943E-01   2.367E-03
1305 10.53484203   0.000  -0.30630   3.69087   7.26403   3.07275   0.00000   7.993E-01   1.977E-01   2.488E-03
1306 10.53570287   0.000  -0.30346   3.69091   7.26436   3.08229   0.00000   7.950E-01   2.020E-01   2.430E-03
1307 10.53656200   0.000  -0.30058   3.69093   7.26464   3.09220   0.00000   7.917E-01   2.063E-01   2.394E-03
1308 10.53741944   0.000  -0.29767   3.69095   7.26497   3.10218   0.00000   7.874E-01   2.106E-01   2.409E-03
1309 10.53827519   0.000  -0.29474   3.69095   7.26528   3.11240   0.00000   7.830E-01   2.140E-01   2.393E-03
1310 10.53912926   0.000  -0.29182   3.69095   7.26578   3.12321   0.00000   7.786E-01   2.192E-01   2.356E-03
1311 10.53998165   0.000  -0.28881   3.69094   7.26613   3.13421   0.00000   7.742E-01   2.230E-01   2.313E-03
1312 10.54083237   0.000  -0.28575   3.69093   7.26655   3.14529   0.00000   7.697E-01   2.283E-01   2.388E-03
1313 10.54168143   0.000  -0.28261   3.69094   7.26690   3.15661   0.00000   7.650E-01   2.330E-01   2.410E-03
1314 10.54252883   0.000  -0.27949   3.69091   7.26730   3.16805   0.00000   7.603E-01   2.377E-01   2.394E-03
1315 10.54337458   0.000  -0.27632   3.69088   7.26771   3.17982   0.00000   7.556E-01   2.424E-01   2.365E-03
1316 10.54421869   0.000  -0.27315   3.69084   7.26820   3.19184   0.00000   7.499E-01   2.471E-01   2.346E-03
1317 10.54506116   0.000  -0.26990   3.69078   7.26865   3.20417   0.00000   7.451E-01   2.526E-01   2.309E-03
1318 10.54590200   0.000  -0.26661   3.69071   7.26917   3.21675   0.00000   7.399E-01   2.578E-01   2.291E-03
1319 10.54674121   0.000  -0.26316   3.69065   7.26971   3.22960   0.00000   7.342E-01   2.638E-01   2.395E-03
1320 10.54757881   0.000  -0.25980   3.69055   7.27034   3.24292   0.00000   7.284E-01   2.690E-01   2.331E-03
1321 10.54841479   0.000  -0.25640   3.69044   7.27094   3.25662   0.00000   7.226E-01   2.750E-01   2.270E-03
1322 10.54924917   0.000  -0.25295   3.69030   7.27155   3.27080   0.00000   7.168E-01   2.812E-01   2.279E-03
1323 10.55008195   0.000  -0.24938   3.69018   7.27226   3.28530   0.00000   7.106E-01   2.872E-01   2.308E-03
1324 10.55091313   0.000  -0.24568   3.69006   7.27299   3.30021   0.00000   7.035E-01   2.939E-01   2.400E-03
1325 10.55174273   0.000  -0.24197   3.68990   7.27372   3.31578   0.00000   6.971E-01   3.009E-01   2.336E-03
1326 10.55257074   0.000  -0.23821   3.68972   7.27449   3.33179   0.00000   6.897E-01   3.073E-01   2.310E-03
1327 10.55339718   0.000  -0.23453   3.68945   7.27534   3.34835   0.00000   6.824E-01   3.148E-01   2.197E-03
1328 10.55422205   0.000  -0.23065   3.68922   7.27614   3.36566   0.00000   6.747E-01   3.233E-01   2.213E-03
1329 10.55504535   0.000  -0.22674   3.68896   7.27702   3.38328   0.00000   6.669E-01   3.311E-01   2.198E-03
1330 10.55586710   0.000  -0.22278   3.68864   7.27802   3.40160   0.00000   6.580E-01   3.400E-01   2.150E-03
1331 10.55668729   0.000  -0.21863   3.68834   7.27899   3.42074   0.00000   6.489E-01   3.491E-01   2.219E-03
1332 10.55750594   0.000  -0.21446   3.68798   7.28005   3.44055   0.00000   6.386E-01   3.594E-01   2.130E-03
1333 10.55832305   0.000  -0.21025   3.68759   7.28119   3.46116   0.00000   6.289E-01   3.691E-01   2.112E-03
1334 10.55913863   0.000  -0.20596   3.68713   7.28238   3.48277   0.00000   6.181E-01   3.799E-01   1.990E-03
1335 10.55995267   0.000  -0.20142   3.68668   7.28371   3.50497   0.00000   6.064E-01   3.916E-01   2.125E-03
1336 10.56076519   0.000  -0.19690   3.68616   7.28513   3.52825   0.00000   5.940E-01   4.038E-01   2.004E-03
1337 10.56157620   0.000  -0.19219   3.68559   7.28663   3.55245   0.00000   5.814E-01   4.166E-01   2.027E-03
1338 10.56238569   0.000  -0.18741   3.68497   7.28829   3.57800   0.00000   5.681E-01   4.299E-01   1.829E-03
1339 10.56319368   0.000  -0.18221   3.68422   7.29084   3.60818   0.00000   5.572E-01   4.418E-01   1.519E-03
1340 10.56400017   0.000  -0.17601   3.68320   7.29337   3.64792   0.00000   5.425E-01   4.555E-01   1.777E-03
1341 10.56480516   0.974  -0.16973   3.68205   7.29540   3.68899   0.00000   5.270E-01   4.710E-01   1.380E-03
