 # M = 0.40 Mo, Y = 0.2880, Z = 2.00000E-02, alpha = 1.68, X_D = 2.0E-05
 # Solar Mixture: Asplund et al. (2005)         
 # ------------------------------------------------------------------------------------------------------------
 # NMD   LOG AGE    Xc      LOG L     LOG TE    LOG Tc   LOG RHOc    M-CC       L-PP       L-CNO       L-GRA
 #        (yr)              (Lo)        (K)       (K)   (gr/cm^3)    (Mo)        (L)         (L)         (L)
 # ------------------------------------------------------------------------------------------------------------
   1  5.03353981   0.692   0.15173   3.56884   6.05430  -0.80612   0.00000   9.120E-01   0.000E+00   8.810E-02
   2  5.17850328   0.692   0.14327   3.56866   6.05802  -0.79495   0.00000   8.941E-01   0.000E+00   1.059E-01
   3  5.28699942   0.692   0.13519   3.56849   6.06157  -0.78427   0.00000   8.913E-01   0.000E+00   1.087E-01
   4  5.37373651   0.692   0.12721   3.56833   6.06507  -0.77375   0.00000   8.929E-01   0.000E+00   1.071E-01
   5  5.44600097   0.692   0.12005   3.56818   6.06821  -0.76431   0.00000   8.960E-01   0.000E+00   1.040E-01
   6  5.50793887   0.692   0.11296   3.56803   6.07132  -0.75497   0.00000   8.991E-01   0.000E+00   1.009E-01
   7  5.56213587   0.692   0.10597   3.56788   6.07438  -0.74576   0.00000   9.007E-01   0.000E+00   9.930E-02
   8  5.61031367   0.692   0.09912   3.56773   6.07738  -0.73675   0.00000   9.000E-01   0.000E+00   1.000E-01
   9  5.65367663   0.692   0.09227   3.56758   6.08038  -0.72775   0.00000   8.993E-01   0.000E+00   1.007E-01
  10  5.69310028   0.692   0.08526   3.56742   6.08344  -0.71855   0.00000   8.970E-01   0.000E+00   1.030E-01
  11  5.72924113   0.692   0.07814   3.56726   6.08654  -0.70922   0.00000   8.935E-01   0.000E+00   1.065E-01
  12  5.76260412   0.692   0.07103   3.56710   6.08964  -0.69990   0.00000   8.901E-01   0.000E+00   1.099E-01
  13  5.79358596   0.692   0.06346   3.56692   6.09293  -0.68999   0.00000   8.844E-01   0.000E+00   1.156E-01
  14  5.82250403   0.692   0.05567   3.56674   6.09632  -0.67980   0.00000   8.777E-01   0.000E+00   1.223E-01
  15  5.84961616   0.692   0.04788   3.56655   6.09971  -0.66961   0.00000   8.709E-01   0.000E+00   1.291E-01
  16  5.87513474   0.692   0.03915   3.56634   6.10350  -0.65822   0.00000   8.602E-01   0.000E+00   1.398E-01
  17  5.89923673   0.692   0.03027   3.56613   6.10735  -0.64665   0.00000   8.489E-01   0.000E+00   1.511E-01
  18  5.92207118   0.692   0.02095   3.56590   6.11139  -0.63452   0.00000   8.357E-01   0.000E+00   1.643E-01
  19  5.94376476   0.692   0.01058   3.56563   6.11586  -0.62108   0.00000   8.179E-01   0.000E+00   1.821E-01
  20  5.96442608   0.692   0.00012   3.56536   6.12037  -0.60753   0.00000   7.997E-01   0.000E+00   2.003E-01
  21  5.98414892   0.692  -0.01206   3.56504   6.12562  -0.59175   0.00000   7.722E-01   0.000E+00   2.278E-01
  22  6.00301486   0.692  -0.02450   3.56471   6.13098  -0.57565   0.00000   7.433E-01   0.000E+00   2.567E-01
  23  6.02109526   0.692  -0.03879   3.56433   6.13714  -0.55716   0.00000   7.031E-01   0.000E+00   2.969E-01
  24  6.03845293   0.692  -0.05412   3.56391   6.14372  -0.53736   0.00000   6.554E-01   0.000E+00   3.446E-01
  25  6.05514343   0.692  -0.07076   3.56345   6.15085  -0.51590   0.00000   5.986E-01   0.000E+00   4.014E-01
  26  6.07121617   0.692  -0.08941   3.56291   6.15879  -0.49201   0.00000   5.286E-01   0.000E+00   4.714E-01
  27  6.08671524   0.692  -0.10964   3.56232   6.16742  -0.46609   0.00000   4.474E-01   0.000E+00   5.526E-01
  28  6.10168019   0.692  -0.13129   3.56166   6.17662  -0.43843   0.00000   3.612E-01   0.000E+00   6.388E-01
  29  6.11614660   0.692  -0.15413   3.56094   6.18627  -0.40941   0.00000   2.744E-01   0.000E+00   7.256E-01
  30  6.13014663   0.692  -0.17758   3.56019   6.19622  -0.37955   0.00000   1.957E-01   0.000E+00   8.043E-01
  31  6.14370941   0.692  -0.20112   3.55940   6.20613  -0.34979   0.00000   1.325E-01   0.000E+00   8.675E-01
  32  6.15686143   0.692  -0.22422   3.55862   6.21584  -0.32067   0.00000   8.506E-02   0.000E+00   9.149E-01
  33  6.16962683   0.692  -0.24651   3.55784   6.22519  -0.29264   0.00000   5.198E-02   0.000E+00   9.480E-01
  34  6.18202771   0.692  -0.26774   3.55708   6.23400  -0.26614   0.00000   3.448E-02   0.000E+00   9.655E-01
  35  6.19408430   0.692  -0.28778   3.55637   6.24231  -0.24114   0.00000   2.533E-02   0.000E+00   9.747E-01
  36  6.20581520   0.692  -0.30673   3.55567   6.25023  -0.21740   0.00000   1.875E-02   0.000E+00   9.813E-01
  37  6.21723755   0.692  -0.32463   3.55503   6.25768  -0.19498   0.00000   1.306E-02   0.000E+00   9.869E-01
  38  6.22836717   0.692  -0.34154   3.55444   6.26473  -0.17377   0.00000   9.332E-03   0.000E+00   9.907E-01
  39  6.23921868   0.692  -0.35759   3.55388   6.27142  -0.15360   0.00000   6.773E-03   0.000E+00   9.932E-01
  40  6.24980564   0.692  -0.37286   3.55335   6.27781  -0.13435   0.00000   4.557E-03   0.000E+00   9.954E-01
  41  6.26014065   0.692  -0.38739   3.55288   6.28393  -0.11592   0.00000   3.000E-03   0.000E+00   9.970E-01
  42  6.29160388   0.692  -0.42900   3.55160   6.30163  -0.06261   0.00000   1.000E-03   0.000E+00   9.990E-01
  43  6.32094088   0.692  -0.46523   3.55060   6.31728  -0.01544   0.00000   0.000E+00   0.000E+00   1.000E+00
  44  6.34842091   0.692  -0.49721   3.54981   6.33128   0.02674   0.00000   0.000E+00   0.000E+00   1.000E+00
  45  6.37426513   0.692  -0.52573   3.54917   6.34390   0.06477   0.00000   0.000E+00   0.000E+00   1.000E+00
  46  6.39865740   0.692  -0.55168   3.54864   6.35549   0.09970   0.00000   0.000E+00   0.000E+00   1.000E+00
  47  6.42175222   0.692  -0.57542   3.54819   6.36616   0.13191   0.00000   0.000E+00   0.000E+00   1.000E+00
  48  6.44368067   0.692  -0.59716   3.54782   6.37600   0.16159   0.00000   0.000E+00   0.000E+00   1.000E+00
  49  6.46455493   0.692  -0.61734   3.54749   6.38519   0.18933   0.00000   0.000E+00   0.000E+00   1.000E+00
  50  6.48447171   0.692  -0.63620   3.54721   6.39382   0.21533   0.00000   0.000E+00   0.000E+00   1.000E+00
  51  6.50351502   0.692  -0.65386   3.54697   6.40194   0.23981   0.00000   0.000E+00   0.000E+00   1.000E+00
  52  6.52175826   0.692  -0.67052   3.54674   6.40960   0.26298   0.00000   0.000E+00   0.000E+00   1.000E+00
  53  6.53926596   0.692  -0.68624   3.54654   6.41689   0.28495   0.00000   0.000E+00   0.000E+00   1.000E+00
  54  6.55609513   0.692  -0.70099   3.54637   6.42373   0.30561   0.00000   0.000E+00   0.000E+00   1.000E+00
  55  6.57229642   0.692  -0.71505   3.54621   6.43026   0.32534   0.00000   0.000E+00   0.000E+00   1.000E+00
  56  6.58791500   0.692  -0.72851   3.54607   6.43654   0.34429   0.00000   0.000E+00   0.000E+00   1.000E+00
  57  6.60299133   0.692  -0.74139   3.54594   6.44256   0.36249   0.00000   0.000E+00   0.000E+00   1.000E+00
  58  6.61756180   0.692  -0.75354   3.54582   6.44825   0.37968   0.00000   0.000E+00   0.000E+00   1.000E+00
  59  6.63165926   0.692  -0.76533   3.54572   6.45379   0.39640   0.00000   0.000E+00   0.000E+00   1.000E+00
  60  6.64531346   0.692  -0.77662   3.54562   6.45910   0.41244   0.00000   0.000E+00   0.000E+00   1.000E+00
  61  6.65855143   0.692  -0.78741   3.54553   6.46417   0.42780   0.00000   0.000E+00   0.000E+00   1.000E+00
  62  6.67139779   0.692  -0.79798   3.54544   6.46915   0.44285   0.00000   0.000E+00   0.000E+00   1.000E+00
  63  6.68387505   0.692  -0.80793   3.54536   6.47385   0.45705   0.00000   0.000E+00   0.000E+00   1.000E+00
  64  6.69600383   0.692  -0.81782   3.54528   6.47851   0.47115   0.00000   0.000E+00   0.000E+00   1.000E+00
  65  6.70780306   0.692  -0.82709   3.54521   6.48289   0.48441   0.00000   0.000E+00   0.000E+00   1.000E+00
  66  6.71929018   0.692  -0.83635   3.54514   6.48728   0.49766   0.00000   0.000E+00   0.000E+00   1.000E+00
  67  6.73048128   0.692  -0.84502   3.54508   6.49139   0.51010   0.00000   0.000E+00   0.000E+00   1.000E+00
  68  6.74139124   0.692  -0.85370   3.54503   6.49551   0.52255   0.00000   0.000E+00   0.000E+00   1.000E+00
  69  6.75203382   0.692  -0.86191   3.54497   6.49940   0.53433   0.00000   0.000E+00   0.000E+00   1.000E+00
  70  6.76242183   0.692  -0.87003   3.54492   6.50326   0.54601   0.00000   0.000E+00   0.000E+00   1.000E+00
  71  6.77256716   0.692  -0.87788   3.54487   6.50698   0.55728   0.00000   0.000E+00   0.000E+00   1.000E+00
  72  6.78248089   0.692  -0.88549   3.54482   6.51060   0.56824   0.00000   0.000E+00   0.000E+00   1.000E+00
  73  6.79217336   0.692  -0.89307   3.54478   6.51420   0.57912   0.00000   0.000E+00   0.000E+00   1.000E+00
  74  6.80165423   0.692  -0.90020   3.54473   6.51759   0.58939   0.00000   0.000E+00   0.000E+00   1.000E+00
  75  6.81093254   0.692  -0.90734   3.54468   6.52099   0.59965   0.00000   0.000E+00   0.000E+00   1.000E+00
  76  6.82001677   0.692  -0.91427   3.54464   6.52428   0.60962   0.00000   0.000E+00   0.000E+00   1.000E+00
  77  6.82891487   0.692  -0.92095   3.54460   6.52747   0.61926   0.00000   0.000E+00   0.000E+00   1.000E+00
  78  6.83763431   0.692  -0.92764   3.54456   6.53065   0.62889   0.00000   0.000E+00   0.000E+00   1.000E+00
  79  6.84618213   0.692  -0.93405   3.54453   6.53370   0.63813   0.00000   0.000E+00   0.000E+00   1.000E+00
  80  6.85456495   0.692  -0.94031   3.54449   6.53669   0.64717   0.00000   0.000E+00   0.000E+00   1.000E+00
  81  6.86278903   0.692  -0.94658   3.54445   6.53967   0.65621   0.00000   0.000E+00   0.000E+00   1.000E+00
  82  6.87086026   0.692  -0.95258   3.54442   6.54253   0.66487   0.00000   0.000E+00   0.000E+00   1.000E+00
  83  6.87878422   0.692  -0.95846   3.54438   6.54533   0.67335   0.00000   0.000E+00   0.000E+00   1.000E+00
  84  6.88656619   0.692  -0.96434   3.54435   6.54813   0.68184   0.00000   0.000E+00   0.000E+00   1.000E+00
  85  6.89421116   0.692  -0.97004   3.54432   6.55084   0.69007   0.00000   0.000E+00   0.000E+00   1.000E+00
  86  6.90172389   0.692  -0.97555   3.54429   6.55347   0.69802   0.00000   0.000E+00   0.000E+00   1.000E+00
  87  6.90910887   0.692  -0.98105   3.54426   6.55609   0.70598   0.00000   0.000E+00   0.000E+00   1.000E+00
  88  6.91637036   0.692  -0.98653   3.54423   6.55870   0.71390   0.00000   0.000E+00   0.000E+00   1.000E+00
  89  6.92351243   0.692  -0.99170   3.54420   6.56116   0.72136   0.00000   0.000E+00   0.000E+00   1.000E+00
  90  6.93053895   0.692  -0.99686   3.54417   6.56363   0.72882   0.00000   0.000E+00   0.000E+00   1.000E+00
  91  6.93745359   0.692  -1.00203   3.54414   6.56609   0.73629   0.00000   0.000E+00   0.000E+00   1.000E+00
  92  6.94425986   0.692  -1.00705   3.54411   6.56848   0.74354   0.00000   0.000E+00   0.000E+00   1.000E+00
  93  6.95096111   0.692  -1.01189   3.54408   6.57079   0.75054   0.00000   0.000E+00   0.000E+00   1.000E+00
  94  6.95756053   0.692  -1.01674   3.54406   6.57309   0.75754   0.00000   0.000E+00   0.000E+00   1.000E+00
  95  6.96406116   0.692  -1.02158   3.54403   6.57540   0.76454   0.00000   0.000E+00   0.000E+00   1.000E+00
  96  6.97046593   0.692  -1.02625   3.54400   6.57763   0.77129   0.00000   0.000E+00   0.000E+00   1.000E+00
  97  6.97677761   0.692  -1.03079   3.54398   6.57979   0.77785   0.00000   0.000E+00   0.000E+00   1.000E+00
  98  6.98299887   0.692  -1.03534   3.54395   6.58195   0.78442   0.00000   0.000E+00   0.000E+00   1.000E+00
  99  6.98913227   0.692  -1.03988   3.54392   6.58412   0.79098   0.00000   0.000E+00   0.000E+00   1.000E+00
 100  6.99518026   0.692  -1.04429   3.54390   6.58622   0.79737   0.00000   0.000E+00   0.000E+00   1.000E+00
 101  7.00114517   0.692  -1.04855   3.54388   6.58825   0.80352   0.00000   0.000E+00   0.000E+00   1.000E+00
 102  7.00702927   0.692  -1.05281   3.54385   6.59028   0.80968   0.00000   0.000E+00   0.000E+00   1.000E+00
 103  7.01283472   0.692  -1.05706   3.54383   6.59231   0.81583   0.00000   0.000E+00   0.000E+00   1.000E+00
 104  7.01856358   0.692  -1.06131   3.54381   6.59433   0.82197   0.00000   0.000E+00   0.000E+00   1.000E+00
 105  7.02421785   0.692  -1.06530   3.54379   6.59623   0.82775   0.00000   0.000E+00   0.000E+00   1.000E+00
 106  7.02979945   0.692  -1.06930   3.54376   6.59814   0.83352   0.00000   0.000E+00   0.000E+00   1.000E+00
 107  7.03531023   0.692  -1.07329   3.54374   6.60004   0.83930   0.00000   0.000E+00   0.000E+00   1.000E+00
 108  7.04075196   0.692  -1.07729   3.54372   6.60194   0.84508   0.00000   0.000E+00   0.000E+00   1.000E+00
 109  7.04612634   0.692  -1.08119   3.54369   6.60380   0.85073   0.00000   0.000E+00   0.000E+00   1.000E+00
 110  7.05143503   0.692  -1.08494   3.54367   6.60558   0.85615   0.00000   0.000E+00   0.000E+00   1.000E+00
 111  7.05667961   0.692  -1.08868   3.54365   6.60736   0.86156   0.00000   0.000E+00   0.000E+00   1.000E+00
 112  7.06186161   0.692  -1.09242   3.54363   6.60915   0.86698   0.00000   0.000E+00   0.000E+00   1.000E+00
 113  7.06698250   0.692  -1.09616   3.54361   6.61093   0.87239   0.00000   0.000E+00   0.000E+00   1.000E+00
 114  7.07204372   0.692  -1.09983   3.54359   6.61267   0.87769   0.00000   0.000E+00   0.000E+00   1.000E+00
 115  7.07704663   0.692  -1.10334   3.54357   6.61434   0.88277   0.00000   0.000E+00   0.000E+00   1.000E+00
 116  7.08199257   0.692  -1.10685   3.54355   6.61601   0.88785   0.00000   0.000E+00   0.000E+00   1.000E+00
 117  7.08688281   0.692  -1.11036   3.54353   6.61769   0.89292   0.00000   0.000E+00   0.000E+00   1.000E+00
 118  7.09171861   0.692  -1.11387   3.54351   6.61936   0.89800   0.00000   0.000E+00   0.000E+00   1.000E+00
 119  7.09650114   0.692  -1.11738   3.54349   6.62103   0.90307   0.00000   0.000E+00   0.000E+00   1.000E+00
 120  7.10123159   0.692  -1.12068   3.54347   6.62260   0.90784   0.00000   0.000E+00   0.000E+00   1.000E+00
 121  7.10591107   0.692  -1.12397   3.54345   6.62416   0.91260   0.00000   0.000E+00   0.000E+00   1.000E+00
 122  7.11054066   0.692  -1.12726   3.54343   6.62573   0.91735   0.00000   0.000E+00   0.000E+00   1.000E+00
 123  7.11512142   0.692  -1.13055   3.54341   6.62729   0.92211   0.00000   0.000E+00   0.000E+00   1.000E+00
 124  7.11965436   0.692  -1.13384   3.54339   6.62886   0.92687   0.00000   0.000E+00   0.000E+00   1.000E+00
 125  7.12414049   0.692  -1.13708   3.54337   6.63040   0.93154   0.00000   4.777E-05   0.000E+00   1.000E+00
 126  7.12858074   0.692  -1.14016   3.54336   6.63186   0.93601   0.00000   2.123E-04   0.000E+00   9.998E-01
 127  7.13297606   0.692  -1.14325   3.54334   6.63333   0.94047   0.00000   3.768E-04   0.000E+00   9.996E-01
 128  7.13732734   0.692  -1.14633   3.54332   6.63479   0.94493   0.00000   5.413E-04   0.000E+00   9.995E-01
 129  7.14163546   0.692  -1.14941   3.54330   6.63626   0.94939   0.00000   7.058E-04   0.000E+00   9.993E-01
 130  7.14590126   0.692  -1.15250   3.54328   6.63772   0.95385   0.00000   8.704E-04   0.000E+00   9.991E-01
 131  7.15012556   0.692  -1.15554   3.54327   6.63917   0.95825   0.00000   1.000E-03   0.000E+00   9.990E-01
 132  7.15430918   0.692  -1.15844   3.54325   6.64055   0.96243   0.00000   1.000E-03   0.000E+00   9.990E-01
 133  7.15845287   0.692  -1.16133   3.54323   6.64192   0.96661   0.00000   1.000E-03   0.000E+00   9.990E-01
 134  7.16255741   0.692  -1.16422   3.54322   6.64330   0.97080   0.00000   1.000E-03   0.000E+00   9.990E-01
 135  7.16662351   0.692  -1.16711   3.54320   6.64467   0.97498   0.00000   1.000E-03   0.000E+00   9.990E-01
 136  7.17065190   0.692  -1.17001   3.54318   6.64605   0.97916   0.00000   1.000E-03   0.000E+00   9.990E-01
 137  7.17464326   0.692  -1.17290   3.54316   6.64742   0.98334   0.00000   1.000E-03   0.000E+00   9.990E-01
 138  7.17859828   0.692  -1.17566   3.54315   6.64873   0.98733   0.00000   1.000E-03   0.000E+00   9.990E-01
 139  7.18251760   0.692  -1.17838   3.54313   6.65002   0.99126   0.00000   1.000E-03   0.000E+00   9.990E-01
 140  7.18640187   0.692  -1.18109   3.54311   6.65130   0.99518   0.00000   1.000E-03   0.000E+00   9.990E-01
 141  7.19025171   0.692  -1.18380   3.54310   6.65259   0.99910   0.00000   1.000E-03   0.000E+00   9.990E-01
 142  7.19406772   0.692  -1.18651   3.54308   6.65388   1.00302   0.00000   1.000E-03   0.000E+00   9.990E-01
 143  7.19785049   0.692  -1.18923   3.54306   6.65517   1.00694   0.00000   1.000E-03   0.000E+00   9.990E-01
 144  7.20160060   0.692  -1.19194   3.54304   6.65645   1.01086   0.00000   1.000E-03   0.000E+00   9.990E-01
 145  7.20531860   0.692  -1.19452   3.54303   6.65765   1.01460   0.00000   1.000E-03   0.000E+00   9.990E-01
 146  7.20900504   0.692  -1.19706   3.54301   6.65883   1.01831   0.00000   1.000E-03   0.000E+00   9.990E-01
 147  7.21266046   0.692  -1.19960   3.54299   6.66000   1.02202   0.00000   1.000E-03   0.000E+00   9.990E-01
 148  7.21628536   0.692  -1.20215   3.54298   6.66118   1.02572   0.00000   1.000E-03   0.000E+00   9.990E-01
 149  7.21988026   0.692  -1.20469   3.54296   6.66235   1.02943   0.00000   1.000E-03   0.000E+00   9.990E-01
 150  7.22344564   0.692  -1.20723   3.54295   6.66353   1.03313   0.00000   1.000E-03   0.000E+00   9.990E-01
 151  7.22698199   0.692  -1.20978   3.54293   6.66471   1.03684   0.00000   1.000E-03   0.000E+00   9.990E-01
 152  7.23048978   0.692  -1.21225   3.54291   6.66584   1.04046   0.00000   1.000E-03   0.000E+00   9.990E-01
 153  7.23396947   0.692  -1.21463   3.54290   6.66691   1.04397   0.00000   1.000E-03   0.000E+00   9.990E-01
 154  7.23742149   0.692  -1.21701   3.54288   6.66798   1.04748   0.00000   1.000E-03   0.000E+00   9.990E-01
 155  7.24084630   0.692  -1.21940   3.54287   6.66906   1.05099   0.00000   1.000E-03   0.000E+00   9.990E-01
 156  7.24424430   0.692  -1.22178   3.54285   6.67013   1.05450   0.00000   1.000E-03   0.000E+00   9.990E-01
 157  7.24761593   0.692  -1.22417   3.54284   6.67120   1.05801   0.00000   1.000E-03   0.000E+00   9.990E-01
 158  7.25096158   0.692  -1.22655   3.54282   6.67228   1.06152   0.00000   1.000E-03   0.000E+00   9.990E-01
 159  7.25428165   0.692  -1.22893   3.54281   6.67335   1.06503   0.00000   1.000E-03   0.000E+00   9.990E-01
 160  7.25757654   0.692  -1.23123   3.54279   6.67437   1.06843   0.00000   1.069E-03   0.000E+00   9.989E-01
 161  7.26084662   0.692  -1.23346   3.54278   6.67535   1.07176   0.00000   1.188E-03   0.000E+00   9.988E-01
 162  7.26409226   0.692  -1.23570   3.54276   6.67634   1.07508   0.00000   1.308E-03   0.000E+00   9.987E-01
 163  7.26731382   0.692  -1.23793   3.54275   6.67732   1.07840   0.00000   1.427E-03   0.000E+00   9.986E-01
 164  7.27051166   0.692  -1.24017   3.54273   6.67830   1.08173   0.00000   1.546E-03   0.000E+00   9.985E-01
 165  7.27368612   0.692  -1.24240   3.54272   6.67928   1.08505   0.00000   1.665E-03   0.000E+00   9.983E-01
 166  7.27683756   0.692  -1.24464   3.54271   6.68026   1.08838   0.00000   1.784E-03   0.000E+00   9.982E-01
 167  7.27996628   0.692  -1.24687   3.54269   6.68125   1.09170   0.00000   1.904E-03   0.000E+00   9.981E-01
 168  7.28307263   0.692  -1.24908   3.54268   6.68221   1.09499   0.00000   2.000E-03   0.000E+00   9.980E-01
 169  7.28615692   0.692  -1.25117   3.54266   6.68311   1.09814   0.00000   2.000E-03   0.000E+00   9.980E-01
 170  7.28921946   0.692  -1.25326   3.54265   6.68401   1.10129   0.00000   2.000E-03   0.000E+00   9.980E-01
 171  7.29226055   0.692  -1.25536   3.54263   6.68491   1.10444   0.00000   2.000E-03   0.000E+00   9.980E-01
 172  7.29528050   0.692  -1.25745   3.54262   6.68581   1.10759   0.00000   2.000E-03   0.000E+00   9.980E-01
 173  7.29827959   0.692  -1.25954   3.54260   6.68671   1.11074   0.00000   2.000E-03   0.000E+00   9.980E-01
 174  7.30125811   0.692  -1.26163   3.54259   6.68761   1.11389   0.00000   2.000E-03   0.000E+00   9.980E-01
 175  7.30421634   0.692  -1.26373   3.54258   6.68851   1.11704   0.00000   2.000E-03   0.000E+00   9.980E-01
 176  7.30715456   0.692  -1.26582   3.54256   6.68941   1.12019   0.00000   2.000E-03   0.000E+00   9.980E-01
 177  7.31007304   0.692  -1.26788   3.54255   6.69029   1.12330   0.00000   2.025E-03   0.000E+00   9.980E-01
 178  7.31297203   0.692  -1.26984   3.54253   6.69111   1.12629   0.00000   2.130E-03   0.000E+00   9.979E-01
 179  7.31585180   0.692  -1.27180   3.54252   6.69194   1.12928   0.00000   2.234E-03   0.000E+00   9.978E-01
 180  7.31871260   0.692  -1.27375   3.54251   6.69276   1.13227   0.00000   2.339E-03   0.000E+00   9.977E-01
 181  7.32155468   0.692  -1.27571   3.54250   6.69359   1.13525   0.00000   2.444E-03   0.000E+00   9.976E-01
 182  7.32437828   0.692  -1.27767   3.54248   6.69441   1.13824   0.00000   2.548E-03   0.000E+00   9.975E-01
 183  7.32718364   0.692  -1.27963   3.54247   6.69523   1.14123   0.00000   2.653E-03   0.000E+00   9.973E-01
 184  7.32997100   0.692  -1.28159   3.54246   6.69606   1.14421   0.00000   2.757E-03   0.000E+00   9.972E-01
 185  7.33274058   0.692  -1.28355   3.54245   6.69688   1.14720   0.00000   2.862E-03   0.000E+00   9.971E-01
 186  7.33549261   0.692  -1.28551   3.54243   6.69771   1.15019   0.00000   2.967E-03   0.000E+00   9.970E-01
 187  7.33822731   0.692  -1.28738   3.54242   6.69849   1.15307   0.00000   3.067E-03   0.000E+00   9.969E-01
 188  7.34094490   0.692  -1.28921   3.54241   6.69924   1.15590   0.00000   3.165E-03   0.000E+00   9.968E-01
 189  7.34364559   0.692  -1.29104   3.54240   6.70000   1.15873   0.00000   3.263E-03   0.000E+00   9.967E-01
 190  7.34632959   0.692  -1.29288   3.54238   6.70076   1.16155   0.00000   3.361E-03   0.000E+00   9.966E-01
 191  7.34899710   0.692  -1.29471   3.54237   6.70152   1.16438   0.00000   3.459E-03   0.000E+00   9.965E-01
 192  7.35164833   0.692  -1.29654   3.54236   6.70228   1.16721   0.00000   3.556E-03   0.000E+00   9.964E-01
 193  7.35428347   0.692  -1.29837   3.54234   6.70304   1.17004   0.00000   3.654E-03   0.000E+00   9.963E-01
 194  7.35690272   0.692  -1.30021   3.54233   6.70379   1.17287   0.00000   3.752E-03   0.000E+00   9.962E-01
 195  7.35950627   0.692  -1.30204   3.54232   6.70455   1.17570   0.00000   3.850E-03   0.000E+00   9.961E-01
 196  7.36209430   0.692  -1.30387   3.54231   6.70531   1.17853   0.00000   3.948E-03   0.000E+00   9.961E-01
 197  7.36466700   0.692  -1.30565   3.54229   6.70604   1.18128   0.00000   4.043E-03   0.000E+00   9.960E-01
 198  7.36722455   0.692  -1.30736   3.54228   6.70674   1.18396   0.00000   4.135E-03   0.000E+00   9.959E-01
 199  7.36976713   0.692  -1.30907   3.54227   6.70744   1.18664   0.00000   4.226E-03   0.000E+00   9.958E-01
 200  7.37229491   0.692  -1.31078   3.54226   6.70813   1.18932   0.00000   4.318E-03   0.000E+00   9.957E-01
 201  7.37480806   0.692  -1.31250   3.54225   6.70883   1.19200   0.00000   4.410E-03   0.000E+00   9.956E-01
 202  7.37730675   0.692  -1.31421   3.54224   6.70953   1.19468   0.00000   4.501E-03   0.000E+00   9.955E-01
 203  7.37979114   0.692  -1.31592   3.54223   6.71023   1.19736   0.00000   4.593E-03   0.000E+00   9.954E-01
 204  7.38226141   0.692  -1.31763   3.54222   6.71093   1.20003   0.00000   4.685E-03   0.000E+00   9.953E-01
 205  7.38471770   0.692  -1.31935   3.54221   6.71162   1.20271   0.00000   4.776E-03   0.000E+00   9.952E-01
 206  7.38716018   0.692  -1.32106   3.54220   6.71232   1.20539   0.00000   4.868E-03   0.000E+00   9.951E-01
 207  7.38958900   0.692  -1.32277   3.54218   6.71302   1.20807   0.00000   4.959E-03   0.000E+00   9.950E-01
 208  7.39200432   0.692  -1.32442   3.54217   6.71369   1.21067   0.00000   5.048E-03   0.000E+00   9.950E-01
 209  7.39440627   0.692  -1.32602   3.54216   6.71433   1.21321   0.00000   5.133E-03   0.000E+00   9.949E-01
 210  7.39679501   0.692  -1.32762   3.54215   6.71497   1.21574   0.00000   5.219E-03   0.000E+00   9.948E-01
 211  7.39917069   0.692  -1.32921   3.54214   6.71562   1.21828   0.00000   5.304E-03   0.000E+00   9.947E-01
 212  7.40153344   0.692  -1.33081   3.54213   6.71626   1.22082   0.00000   5.390E-03   0.000E+00   9.946E-01
 213  7.40388341   0.692  -1.33241   3.54212   6.71690   1.22335   0.00000   5.476E-03   0.000E+00   9.945E-01
 214  7.40622073   0.692  -1.33401   3.54211   6.71755   1.22589   0.00000   5.561E-03   0.000E+00   9.944E-01
 215  7.40854553   0.692  -1.33561   3.54210   6.71819   1.22843   0.00000   5.647E-03   0.000E+00   9.944E-01
 216  7.41085796   0.692  -1.33721   3.54209   6.71883   1.23097   0.00000   5.733E-03   0.000E+00   9.943E-01
 217  7.41315814   0.692  -1.33880   3.54208   6.71947   1.23350   0.00000   5.818E-03   0.000E+00   9.942E-01
 218  7.41544621   0.692  -1.34040   3.54207   6.72012   1.23604   0.00000   5.904E-03   0.000E+00   9.941E-01
 219  7.41772228   0.692  -1.34200   3.54206   6.72076   1.23858   0.00000   5.989E-03   0.000E+00   9.940E-01
 220  7.41998648   0.692  -1.34351   3.54205   6.72136   1.24099   0.00000   6.140E-03   0.000E+00   9.939E-01
 221  7.42223894   0.692  -1.34500   3.54204   6.72196   1.24340   0.00000   6.300E-03   0.000E+00   9.937E-01
 222  7.42447978   0.692  -1.34649   3.54203   6.72255   1.24580   0.00000   6.460E-03   0.000E+00   9.935E-01
 223  7.42670912   0.692  -1.34798   3.54203   6.72314   1.24820   0.00000   6.620E-03   0.000E+00   9.934E-01
 224  7.42892707   0.692  -1.34947   3.54202   6.72374   1.25060   0.00000   6.779E-03   0.000E+00   9.932E-01
 225  7.43113375   0.692  -1.35096   3.54201   6.72433   1.25301   0.00000   6.939E-03   0.000E+00   9.931E-01
 226  7.43332928   0.692  -1.35245   3.54200   6.72493   1.25541   0.00000   7.099E-03   0.000E+00   9.929E-01
 227  7.43551376   0.692  -1.35394   3.54199   6.72552   1.25781   0.00000   7.259E-03   0.000E+00   9.927E-01
 228  7.43768731   0.692  -1.35543   3.54198   6.72612   1.26021   0.00000   7.419E-03   0.000E+00   9.926E-01
 229  7.43985004   0.692  -1.35692   3.54197   6.72671   1.26262   0.00000   7.579E-03   0.000E+00   9.924E-01
 230  7.44200204   0.692  -1.35841   3.54196   6.72731   1.26502   0.00000   7.738E-03   0.000E+00   9.923E-01
 231  7.44414344   0.692  -1.35990   3.54196   6.72790   1.26742   0.00000   7.898E-03   0.000E+00   9.921E-01
 232  7.44627433   0.692  -1.36135   3.54195   6.72848   1.26978   0.00000   8.027E-03   0.000E+00   9.920E-01
 233  7.44839482   0.692  -1.36274   3.54194   6.72903   1.27205   0.00000   8.102E-03   0.000E+00   9.919E-01
 234  7.45050500   0.692  -1.36413   3.54193   6.72958   1.27432   0.00000   8.176E-03   0.000E+00   9.918E-01
 235  7.45260498   0.692  -1.36552   3.54192   6.73013   1.27660   0.00000   8.251E-03   0.000E+00   9.917E-01
 236  7.45469486   0.692  -1.36690   3.54191   6.73068   1.27887   0.00000   8.325E-03   0.000E+00   9.917E-01
 237  7.45677472   0.692  -1.36829   3.54191   6.73123   1.28115   0.00000   8.400E-03   0.000E+00   9.916E-01
 238  7.45884468   0.692  -1.36968   3.54190   6.73178   1.28342   0.00000   8.474E-03   0.000E+00   9.915E-01
 239  7.46090481   0.692  -1.37106   3.54189   6.73232   1.28569   0.00000   8.549E-03   0.000E+00   9.915E-01
 240  7.46295522   0.692  -1.37245   3.54188   6.73287   1.28797   0.00000   8.623E-03   0.000E+00   9.914E-01
 241  7.46499599   0.692  -1.37384   3.54187   6.73342   1.29024   0.00000   8.698E-03   0.000E+00   9.913E-01
 242  7.46702722   0.692  -1.37522   3.54187   6.73397   1.29251   0.00000   8.772E-03   0.000E+00   9.912E-01
 243  7.46904899   0.692  -1.37661   3.54186   6.73452   1.29479   0.00000   8.847E-03   0.000E+00   9.912E-01
 244  7.47106139   0.692  -1.37800   3.54185   6.73507   1.29706   0.00000   8.921E-03   0.000E+00   9.911E-01
 245  7.47306451   0.692  -1.37938   3.54184   6.73562   1.29934   0.00000   8.996E-03   0.000E+00   9.910E-01
 246  7.47505844   0.692  -1.38068   3.54183   6.73613   1.30149   0.00000   9.197E-03   0.000E+00   9.908E-01
 247  7.47704325   0.692  -1.38197   3.54183   6.73664   1.30364   0.00000   9.405E-03   0.000E+00   9.906E-01
 248  7.47901903   0.692  -1.38325   3.54182   6.73715   1.30579   0.00000   9.613E-03   0.000E+00   9.904E-01
 249  7.48098587   0.692  -1.38454   3.54182   6.73766   1.30794   0.00000   9.821E-03   0.000E+00   9.902E-01
 250  7.48294383   0.692  -1.38583   3.54181   6.73816   1.31009   0.00000   1.003E-02   0.000E+00   9.900E-01
 251  7.48489301   0.692  -1.38712   3.54180   6.73867   1.31224   0.00000   1.024E-02   0.000E+00   9.898E-01
 252  7.48683348   0.692  -1.38840   3.54180   6.73918   1.31439   0.00000   1.044E-02   0.000E+00   9.896E-01
 253  7.48876532   0.692  -1.38969   3.54179   6.73969   1.31654   0.00000   1.065E-02   0.000E+00   9.893E-01
 254  7.49068860   0.692  -1.39098   3.54178   6.74020   1.31869   0.00000   1.086E-02   0.000E+00   9.891E-01
 255  7.49260341   0.692  -1.39227   3.54178   6.74071   1.32084   0.00000   1.107E-02   0.000E+00   9.889E-01
 256  7.49450981   0.692  -1.39356   3.54177   6.74121   1.32299   0.00000   1.128E-02   0.000E+00   9.887E-01
 257  7.49640787   0.692  -1.39484   3.54177   6.74172   1.32514   0.00000   1.149E-02   0.000E+00   9.885E-01
 258  7.49829768   0.692  -1.39613   3.54176   6.74223   1.32729   0.00000   1.169E-02   0.000E+00   9.883E-01
 259  7.50017930   0.692  -1.39742   3.54175   6.74274   1.32944   0.00000   1.190E-02   0.000E+00   9.881E-01
 260  7.50205280   0.692  -1.39866   3.54175   6.74323   1.33153   0.00000   1.210E-02   0.000E+00   9.879E-01
 261  7.50391825   0.692  -1.39985   3.54174   6.74370   1.33356   0.00000   1.229E-02   0.000E+00   9.877E-01
 262  7.50577573   0.692  -1.40105   3.54174   6.74417   1.33559   0.00000   1.249E-02   0.000E+00   9.875E-01
 263  7.50762530   0.692  -1.40224   3.54173   6.74464   1.33762   0.00000   1.268E-02   0.000E+00   9.873E-01
 264  7.50946702   0.692  -1.40343   3.54173   6.74511   1.33965   0.00000   1.287E-02   0.000E+00   9.871E-01
 265  7.51130096   0.692  -1.40463   3.54172   6.74558   1.34168   0.00000   1.307E-02   0.000E+00   9.869E-01
 266  7.51312720   0.692  -1.40582   3.54172   6.74606   1.34371   0.00000   1.326E-02   0.000E+00   9.867E-01
 267  7.51494578   0.692  -1.40702   3.54171   6.74653   1.34574   0.00000   1.345E-02   0.000E+00   9.865E-01
 268  7.51675678   0.692  -1.40821   3.54171   6.74700   1.34777   0.00000   1.365E-02   0.000E+00   9.864E-01
 269  7.51856027   0.692  -1.40940   3.54170   6.74747   1.34980   0.00000   1.384E-02   0.000E+00   9.862E-01
 270  7.52035629   0.692  -1.41060   3.54170   6.74794   1.35183   0.00000   1.403E-02   0.000E+00   9.860E-01
 271  7.52214491   0.692  -1.41179   3.54169   6.74841   1.35386   0.00000   1.423E-02   0.000E+00   9.858E-01
 272  7.52392621   0.692  -1.41299   3.54169   6.74888   1.35589   0.00000   1.442E-02   0.000E+00   9.856E-01
 273  7.52570022   0.692  -1.41418   3.54168   6.74936   1.35793   0.00000   1.461E-02   0.000E+00   9.854E-01
 274  7.52746702   0.692  -1.41537   3.54168   6.74983   1.35996   0.00000   1.481E-02   0.000E+00   9.852E-01
 275  7.52922665   0.692  -1.41657   3.54167   6.75030   1.36199   0.00000   1.500E-02   0.000E+00   9.850E-01
 276  7.53097919   0.692  -1.41767   3.54167   6.75074   1.36390   0.00000   1.524E-02   0.000E+00   9.848E-01
 277  7.53272469   0.692  -1.41877   3.54166   6.75117   1.36582   0.00000   1.549E-02   0.000E+00   9.845E-01
 278  7.53446319   0.692  -1.41988   3.54166   6.75161   1.36773   0.00000   1.573E-02   0.000E+00   9.843E-01
 279  7.53619477   0.692  -1.42098   3.54166   6.75205   1.36965   0.00000   1.597E-02   0.000E+00   9.840E-01
 280  7.53791947   0.692  -1.42209   3.54165   6.75248   1.37156   0.00000   1.621E-02   0.000E+00   9.838E-01
 281  7.53963734   0.692  -1.42319   3.54165   6.75292   1.37348   0.00000   1.646E-02   0.000E+00   9.835E-01
 282  7.54134845   0.692  -1.42429   3.54165   6.75336   1.37539   0.00000   1.670E-02   0.000E+00   9.833E-01
 283  7.54305284   0.692  -1.42540   3.54165   6.75380   1.37731   0.00000   1.694E-02   0.000E+00   9.831E-01
 284  7.54475057   0.692  -1.42650   3.54164   6.75423   1.37923   0.00000   1.718E-02   0.000E+00   9.828E-01
 285  7.54644169   0.692  -1.42760   3.54164   6.75467   1.38114   0.00000   1.743E-02   0.000E+00   9.826E-01
 286  7.54812625   0.692  -1.42871   3.54164   6.75511   1.38306   0.00000   1.767E-02   0.000E+00   9.823E-01
 287  7.54980430   0.692  -1.42981   3.54163   6.75554   1.38497   0.00000   1.791E-02   0.000E+00   9.821E-01
 288  7.55147589   0.692  -1.43091   3.54163   6.75598   1.38689   0.00000   1.816E-02   0.000E+00   9.818E-01
 289  7.55314108   0.692  -1.43202   3.54163   6.75642   1.38880   0.00000   1.840E-02   0.000E+00   9.816E-01
 290  7.55479990   0.692  -1.43312   3.54162   6.75685   1.39072   0.00000   1.864E-02   0.000E+00   9.814E-01
 291  7.55645241   0.692  -1.43422   3.54162   6.75729   1.39263   0.00000   1.888E-02   0.000E+00   9.811E-01
 292  7.55809865   0.692  -1.43528   3.54162   6.75771   1.39449   0.00000   1.912E-02   0.000E+00   9.809E-01
 293  7.55973868   0.692  -1.43630   3.54162   6.75811   1.39628   0.00000   1.935E-02   0.000E+00   9.807E-01
 294  7.56137254   0.692  -1.43732   3.54162   6.75851   1.39808   0.00000   1.958E-02   0.000E+00   9.804E-01
 295  7.56300028   0.692  -1.43834   3.54161   6.75892   1.39988   0.00000   1.980E-02   0.000E+00   9.802E-01
 296  7.56462194   0.692  -1.43936   3.54161   6.75932   1.40168   0.00000   2.003E-02   0.000E+00   9.800E-01
 297  7.56623756   0.692  -1.44038   3.54161   6.75972   1.40347   0.00000   2.026E-02   0.000E+00   9.797E-01
 298  7.56784720   0.692  -1.44140   3.54161   6.76012   1.40527   0.00000   2.049E-02   0.000E+00   9.795E-01
 299  7.56945089   0.692  -1.44241   3.54161   6.76052   1.40707   0.00000   2.072E-02   0.000E+00   9.793E-01
 300  7.57104868   0.692  -1.44343   3.54161   6.76092   1.40886   0.00000   2.095E-02   0.000E+00   9.791E-01
 301  7.57264062   0.692  -1.44445   3.54160   6.76133   1.41066   0.00000   2.117E-02   0.000E+00   9.788E-01
 302  7.57422674   0.692  -1.44547   3.54160   6.76173   1.41246   0.00000   2.140E-02   0.000E+00   9.786E-01
 303  7.57580709   0.692  -1.44649   3.54160   6.76213   1.41426   0.00000   2.163E-02   0.000E+00   9.784E-01
 304  7.57738171   0.692  -1.44751   3.54160   6.76253   1.41605   0.00000   2.186E-02   0.000E+00   9.781E-01
 305  7.57895065   0.692  -1.44853   3.54160   6.76293   1.41785   0.00000   2.209E-02   0.000E+00   9.779E-01
 306  7.58051393   0.692  -1.44955   3.54160   6.76334   1.41965   0.00000   2.232E-02   0.000E+00   9.777E-01
 307  7.58207161   0.692  -1.45057   3.54159   6.76374   1.42144   0.00000   2.254E-02   0.000E+00   9.775E-01
 308  7.58362372   0.692  -1.45159   3.54159   6.76414   1.42324   0.00000   2.277E-02   0.000E+00   9.772E-01
 309  7.58517030   0.692  -1.45260   3.54159   6.76454   1.42504   0.00000   2.300E-02   0.000E+00   9.770E-01
 310  7.58671140   0.692  -1.45354   3.54159   6.76492   1.42674   0.00000   2.332E-02   0.000E+00   9.767E-01
 311  7.58824704   0.692  -1.45448   3.54159   6.76530   1.42844   0.00000   2.364E-02   0.000E+00   9.764E-01
 312  7.58977728   0.692  -1.45542   3.54159   6.76568   1.43014   0.00000   2.396E-02   0.000E+00   9.760E-01
 313  7.59130214   0.692  -1.45636   3.54159   6.76606   1.43185   0.00000   2.428E-02   0.000E+00   9.757E-01
 314  7.59282167   0.692  -1.45729   3.54159   6.76644   1.43355   0.00000   2.460E-02   0.000E+00   9.754E-01
 315  7.59433590   0.692  -1.45823   3.54159   6.76682   1.43525   0.00000   2.492E-02   0.000E+00   9.751E-01
 316  7.59584486   0.692  -1.45917   3.54159   6.76720   1.43695   0.00000   2.524E-02   0.000E+00   9.748E-01
 317  7.59734861   0.692  -1.46011   3.54159   6.76758   1.43865   0.00000   2.556E-02   0.000E+00   9.744E-01
 318  7.59884716   0.692  -1.46105   3.54159   6.76796   1.44035   0.00000   2.588E-02   0.000E+00   9.741E-01
 319  7.60034056   0.692  -1.46199   3.54158   6.76834   1.44206   0.00000   2.620E-02   0.000E+00   9.738E-01
 320  7.60182885   0.692  -1.46292   3.54158   6.76872   1.44376   0.00000   2.652E-02   0.000E+00   9.735E-01
 321  7.60331205   0.692  -1.46386   3.54158   6.76910   1.44546   0.00000   2.684E-02   0.000E+00   9.732E-01
 322  7.60479020   0.692  -1.46480   3.54158   6.76948   1.44716   0.00000   2.716E-02   0.000E+00   9.728E-01
 323  7.60626334   0.692  -1.46574   3.54158   6.76986   1.44886   0.00000   2.748E-02   0.000E+00   9.725E-01
 324  7.60773150   0.692  -1.46668   3.54158   6.77024   1.45057   0.00000   2.780E-02   0.000E+00   9.722E-01
 325  7.60919471   0.692  -1.46761   3.54158   6.77062   1.45227   0.00000   2.812E-02   0.000E+00   9.719E-01
 326  7.61065301   0.692  -1.46855   3.54158   6.77100   1.45397   0.00000   2.844E-02   0.000E+00   9.716E-01
 327  7.61210643   0.692  -1.46949   3.54158   6.77138   1.45567   0.00000   2.876E-02   0.000E+00   9.712E-01
 328  7.61355500   0.692  -1.47041   3.54158   6.77175   1.45735   0.00000   2.909E-02   0.000E+00   9.709E-01
 329  7.61499875   0.692  -1.47127   3.54158   6.77211   1.45895   0.00000   2.944E-02   0.000E+00   9.706E-01
 330  7.61643772   0.692  -1.47213   3.54158   6.77246   1.46055   0.00000   2.980E-02   0.000E+00   9.702E-01
 331  7.61787194   0.692  -1.47300   3.54158   6.77282   1.46215   0.00000   3.015E-02   0.000E+00   9.698E-01
 332  7.61930144   0.692  -1.47386   3.54158   6.77317   1.46375   0.00000   3.051E-02   0.000E+00   9.695E-01
 333  7.62072625   0.692  -1.47472   3.54159   6.77352   1.46535   0.00000   3.086E-02   0.000E+00   9.691E-01
 334  7.62214640   0.692  -1.47558   3.54159   6.77388   1.46695   0.00000   3.121E-02   0.000E+00   9.688E-01
 335  7.62356192   0.692  -1.47645   3.54159   6.77423   1.46855   0.00000   3.157E-02   0.000E+00   9.684E-01
 336  7.62497284   0.692  -1.47731   3.54159   6.77459   1.47015   0.00000   3.192E-02   0.000E+00   9.681E-01
 337  7.62637919   0.692  -1.47817   3.54159   6.77494   1.47175   0.00000   3.227E-02   0.000E+00   9.677E-01
 338  7.62778101   0.692  -1.47903   3.54159   6.77530   1.47335   0.00000   3.263E-02   0.000E+00   9.674E-01
 339  7.62917831   0.692  -1.47990   3.54159   6.77565   1.47495   0.00000   3.298E-02   0.000E+00   9.670E-01
 340  7.63057113   0.692  -1.48076   3.54159   6.77601   1.47655   0.00000   3.334E-02   0.000E+00   9.667E-01
 341  7.63195950   0.692  -1.48162   3.54159   6.77636   1.47815   0.00000   3.369E-02   0.000E+00   9.663E-01
 342  7.63334345   0.692  -1.48248   3.54159   6.77672   1.47975   0.00000   3.404E-02   0.000E+00   9.660E-01
 343  7.63472300   0.692  -1.48335   3.54160   6.77707   1.48136   0.00000   3.440E-02   0.000E+00   9.656E-01
 344  7.63609818   0.692  -1.48421   3.54160   6.77743   1.48296   0.00000   3.475E-02   0.000E+00   9.652E-01
 345  7.63746902   0.692  -1.48507   3.54160   6.77778   1.48456   0.00000   3.511E-02   0.000E+00   9.649E-01
 346  7.63883554   0.692  -1.48593   3.54160   6.77814   1.48616   0.00000   3.546E-02   0.000E+00   9.645E-01
 347  7.64019778   0.692  -1.48680   3.54160   6.77849   1.48776   0.00000   3.581E-02   0.000E+00   9.642E-01
 348  7.64155576   0.692  -1.48763   3.54160   6.77884   1.48931   0.00000   3.618E-02   0.000E+00   9.638E-01
 349  7.64290951   0.692  -1.48842   3.54160   6.77917   1.49081   0.00000   3.656E-02   0.000E+00   9.634E-01
 350  7.64425905   0.692  -1.48921   3.54161   6.77950   1.49232   0.00000   3.694E-02   0.000E+00   9.631E-01
 351  7.64560441   0.692  -1.49000   3.54161   6.77983   1.49382   0.00000   3.732E-02   0.000E+00   9.627E-01
 352  7.64694562   0.692  -1.49080   3.54161   6.78016   1.49532   0.00000   3.770E-02   0.000E+00   9.623E-01
 353  7.64828270   0.692  -1.49159   3.54161   6.78050   1.49682   0.00000   3.808E-02   0.000E+00   9.619E-01
 354  7.64961567   0.692  -1.49238   3.54162   6.78083   1.49833   0.00000   3.846E-02   0.000E+00   9.615E-01
 355  7.65094456   0.692  -1.49317   3.54162   6.78116   1.49983   0.00000   3.884E-02   0.000E+00   9.612E-01
 356  7.65226940   0.692  -1.49397   3.54162   6.78149   1.50133   0.00000   3.922E-02   0.000E+00   9.608E-01
 357  7.65359021   0.692  -1.49476   3.54162   6.78182   1.50283   0.00000   3.960E-02   0.000E+00   9.604E-01
 358  7.65490702   0.692  -1.49555   3.54162   6.78216   1.50433   0.00000   3.998E-02   0.000E+00   9.600E-01
 359  7.65621984   0.692  -1.49634   3.54163   6.78249   1.50584   0.00000   4.036E-02   0.000E+00   9.596E-01
 360  7.65752871   0.692  -1.49714   3.54163   6.78282   1.50734   0.00000   4.074E-02   0.000E+00   9.593E-01
 361  7.65883365   0.692  -1.49793   3.54163   6.78315   1.50884   0.00000   4.112E-02   0.000E+00   9.589E-01
 362  7.66013468   0.692  -1.49872   3.54163   6.78348   1.51034   0.00000   4.150E-02   0.000E+00   9.585E-01
 363  7.66143182   0.692  -1.49951   3.54164   6.78382   1.51185   0.00000   4.188E-02   0.000E+00   9.581E-01
 364  7.66272510   0.692  -1.50031   3.54164   6.78415   1.51335   0.00000   4.226E-02   0.000E+00   9.577E-01
 365  7.66401453   0.692  -1.50110   3.54164   6.78448   1.51485   0.00000   4.264E-02   0.000E+00   9.574E-01
 366  7.66530015   0.692  -1.50189   3.54164   6.78481   1.51635   0.00000   4.302E-02   0.000E+00   9.570E-01
 367  7.66658198   0.692  -1.50268   3.54165   6.78514   1.51786   0.00000   4.340E-02   0.000E+00   9.566E-01
 368  7.66786004   0.692  -1.50348   3.54165   6.78548   1.51936   0.00000   4.378E-02   0.000E+00   9.562E-01
 369  7.66913434   0.692  -1.50424   3.54165   6.78580   1.52082   0.00000   4.418E-02   0.000E+00   9.558E-01
 370  7.67040492   0.692  -1.50496   3.54166   6.78611   1.52223   0.00000   4.463E-02   0.000E+00   9.554E-01
 371  7.67167179   0.692  -1.50569   3.54166   6.78642   1.52364   0.00000   4.508E-02   0.000E+00   9.549E-01
 372  7.67293497   0.692  -1.50641   3.54166   6.78673   1.52505   0.00000   4.552E-02   0.000E+00   9.545E-01
 373  7.67419449   0.692  -1.50714   3.54167   6.78704   1.52646   0.00000   4.597E-02   0.000E+00   9.540E-01
 374  7.67545037   0.692  -1.50786   3.54167   6.78736   1.52787   0.00000   4.642E-02   0.000E+00   9.536E-01
 375  7.67670263   0.692  -1.50859   3.54168   6.78767   1.52928   0.00000   4.686E-02   0.000E+00   9.531E-01
 376  7.67795129   0.692  -1.50931   3.54168   6.78798   1.53069   0.00000   4.731E-02   0.000E+00   9.527E-01
 377  7.67919637   0.692  -1.51004   3.54168   6.78829   1.53209   0.00000   4.775E-02   0.000E+00   9.522E-01
 378  7.68043789   0.692  -1.51076   3.54169   6.78860   1.53350   0.00000   4.820E-02   0.000E+00   9.518E-01
 379  7.68167587   0.692  -1.51149   3.54169   6.78891   1.53491   0.00000   4.865E-02   0.000E+00   9.514E-01
 380  7.68291033   0.692  -1.51221   3.54170   6.78922   1.53632   0.00000   4.909E-02   0.000E+00   9.509E-01
 381  7.68414129   0.692  -1.51294   3.54170   6.78954   1.53773   0.00000   4.954E-02   0.000E+00   9.505E-01
 382  7.68536877   0.692  -1.51366   3.54170   6.78985   1.53914   0.00000   4.998E-02   0.000E+00   9.500E-01
 383  7.68659279   0.692  -1.51439   3.54171   6.79016   1.54055   0.00000   5.043E-02   0.000E+00   9.496E-01
 384  7.68781338   0.692  -1.51511   3.54171   6.79047   1.54196   0.00000   5.088E-02   0.000E+00   9.491E-01
 385  7.68903054   0.692  -1.51584   3.54172   6.79078   1.54337   0.00000   5.132E-02   0.000E+00   9.487E-01
 386  7.69024430   0.692  -1.51656   3.54172   6.79109   1.54478   0.00000   5.177E-02   0.000E+00   9.482E-01
 387  7.69145468   0.692  -1.51729   3.54172   6.79140   1.54618   0.00000   5.222E-02   0.000E+00   9.478E-01
 388  7.69266169   0.692  -1.51801   3.54173   6.79172   1.54759   0.00000   5.266E-02   0.000E+00   9.473E-01
 389  7.69386536   0.692  -1.51874   3.54173   6.79203   1.54900   0.00000   5.311E-02   0.000E+00   9.469E-01
 390  7.69506570   0.692  -1.51946   3.54174   6.79234   1.55041   0.00000   5.355E-02   0.000E+00   9.464E-01
 391  7.69626274   0.692  -1.52019   3.54174   6.79265   1.55182   0.00000   5.400E-02   0.000E+00   9.460E-01
 392  7.71070267   0.692  -1.52835   3.54180   6.79624   1.56804   0.00000   6.017E-02   0.000E+00   9.398E-01
 393  7.72467789   0.692  -1.53646   3.54185   6.79983   1.58420   0.00000   6.637E-02   0.000E+00   9.336E-01
 394  7.73821738   0.692  -1.54387   3.54193   6.80318   1.59939   0.00000   7.313E-02   0.000E+00   9.269E-01
 395  7.75134750   0.692  -1.55129   3.54200   6.80653   1.61458   0.00000   7.988E-02   0.000E+00   9.201E-01
 396  7.76409228   0.692  -1.55804   3.54208   6.80970   1.62870   0.00000   8.754E-02   0.000E+00   9.125E-01
 397  7.77647369   0.692  -1.56478   3.54215   6.81286   1.64281   0.00000   9.521E-02   0.000E+00   9.048E-01
 398  7.78851187   0.692  -1.57101   3.54224   6.81588   1.65610   0.00000   1.041E-01   0.000E+00   8.959E-01
 399  7.80022535   0.692  -1.57709   3.54233   6.81886   1.66915   0.00000   1.133E-01   0.000E+00   8.867E-01
 400  7.81163119   0.692  -1.58292   3.54243   6.82177   1.68179   0.00000   1.228E-01   0.000E+00   8.772E-01
 401  7.82274512   0.692  -1.58838   3.54253   6.82458   1.69379   0.00000   1.326E-01   0.000E+00   8.674E-01
 402  7.83358172   0.692  -1.59385   3.54262   6.82738   1.70579   0.00000   1.423E-01   0.000E+00   8.577E-01
 403  7.84415449   0.692  -1.59882   3.54273   6.83005   1.71691   0.00000   1.529E-01   0.000E+00   8.471E-01
 404  7.85447598   0.692  -1.60369   3.54283   6.83269   1.72785   0.00000   1.638E-01   0.000E+00   8.362E-01
 405  7.86455784   0.692  -1.60854   3.54294   6.83532   1.73874   0.00000   1.746E-01   0.000E+00   8.254E-01
 406  7.87441097   0.692  -1.61285   3.54304   6.83779   1.74860   0.00000   1.865E-01   0.000E+00   8.135E-01
 407  7.88404550   0.692  -1.61717   3.54314   6.84026   1.75846   0.00000   1.984E-01   0.000E+00   8.016E-01
 408  7.89347093   0.692  -1.62147   3.54324   6.84273   1.76829   0.00000   2.103E-01   0.000E+00   7.897E-01
 409  7.90269613   0.692  -1.62526   3.54335   6.84504   1.77705   0.00000   2.232E-01   0.000E+00   7.768E-01
 410  7.91172944   0.692  -1.62904   3.54345   6.84736   1.78580   0.00000   2.361E-01   0.000E+00   7.639E-01
 411  7.92057869   0.692  -1.63283   3.54356   6.84967   1.79455   0.00000   2.490E-01   0.000E+00   7.510E-01
 412  7.92925121   0.692  -1.63626   3.54366   6.85186   1.80252   0.00000   2.627E-01   0.000E+00   7.373E-01
 413  7.93775394   0.692  -1.63954   3.54376   6.85400   1.81014   0.00000   2.767E-01   0.000E+00   7.233E-01
 414  7.94609339   0.692  -1.64282   3.54387   6.85614   1.81776   0.00000   2.907E-01   0.000E+00   7.093E-01
 415  7.95427571   0.692  -1.64610   3.54397   6.85827   1.82537   0.00000   3.048E-01   0.000E+00   6.952E-01
 416  7.96230673   0.692  -1.64890   3.54406   6.86023   1.83186   0.00000   3.190E-01   0.000E+00   6.810E-01
 417  7.97019192   0.692  -1.65170   3.54416   6.86219   1.83832   0.00000   3.333E-01   0.000E+00   6.667E-01
 418  7.97793650   0.692  -1.65449   3.54425   6.86414   1.84479   0.00000   3.476E-01   0.000E+00   6.524E-01
 419  7.98554539   0.692  -1.65729   3.54435   6.86610   1.85125   0.00000   3.618E-01   0.000E+00   6.382E-01
 420  7.99302326   0.692  -1.65973   3.54444   6.86788   1.85676   0.00000   3.763E-01   0.000E+00   6.237E-01
 421  8.00037455   0.692  -1.66207   3.54452   6.86962   1.86200   0.00000   3.908E-01   0.000E+00   6.092E-01
 422  8.00760347   0.692  -1.66441   3.54461   6.87135   1.86724   0.00000   4.054E-01   0.000E+00   5.946E-01
 423  8.01471404   0.692  -1.66674   3.54469   6.87309   1.87248   0.00000   4.199E-01   0.000E+00   5.801E-01
 424  8.02171006   0.692  -1.66908   3.54478   6.87483   1.87772   0.00000   4.345E-01   0.000E+00   5.655E-01
 425  8.02859516   0.692  -1.67103   3.54485   6.87638   1.88192   0.00000   4.489E-01   0.000E+00   5.511E-01
 426  8.03537282   0.692  -1.67293   3.54493   6.87792   1.88600   0.00000   4.633E-01   0.000E+00   5.367E-01
 427  8.04204632   0.692  -1.67484   3.54500   6.87945   1.89008   0.00000   4.777E-01   0.000E+00   5.223E-01
 428  8.04861882   0.692  -1.67674   3.54507   6.88099   1.89416   0.00000   4.922E-01   0.000E+00   5.078E-01
 429  8.05509335   0.692  -1.67864   3.54514   6.88252   1.89824   0.00000   5.066E-01   0.000E+00   4.934E-01
 430  8.06147276   0.692  -1.68052   3.54521   6.88404   1.90223   0.00000   5.209E-01   0.000E+00   4.791E-01
 431  8.06775982   0.692  -1.68202   3.54527   6.88532   1.90510   0.00000   5.341E-01   0.000E+00   4.659E-01
 432  8.07395716   0.692  -1.68352   3.54532   6.88660   1.90796   0.00000   5.472E-01   0.000E+00   4.528E-01
 433  8.08006731   0.692  -1.68502   3.54537   6.88788   1.91082   0.00000   5.603E-01   0.000E+00   4.397E-01
 434  8.08609269   0.692  -1.68652   3.54543   6.88916   1.91369   0.00000   5.735E-01   0.000E+00   4.265E-01
 435  8.09203561   0.692  -1.68801   3.54548   6.89044   1.91655   0.00000   5.866E-01   0.000E+00   4.134E-01
 436  8.09789831   0.692  -1.68951   3.54553   6.89172   1.91942   0.00000   5.998E-01   0.000E+00   4.002E-01
 437  8.10368292   0.692  -1.69101   3.54559   6.89300   1.92228   0.00000   6.129E-01   0.000E+00   3.871E-01
 438  8.10939149   0.692  -1.69222   3.54562   6.89406   1.92423   0.00000   6.246E-01   0.000E+00   3.754E-01
 439  8.11502600   0.692  -1.69334   3.54565   6.89506   1.92590   0.00000   6.359E-01   0.000E+00   3.641E-01
 440  8.12058834   0.692  -1.69446   3.54568   6.89605   1.92756   0.00000   6.472E-01   0.000E+00   3.528E-01
 441  8.12608034   0.691  -1.69557   3.54571   6.89705   1.92923   0.00000   6.584E-01   0.000E+00   3.416E-01
 442  8.13150375   0.691  -1.69669   3.54574   6.89805   1.93090   0.00000   6.697E-01   0.000E+00   3.303E-01
 443  8.13686027   0.691  -1.69781   3.54577   6.89904   1.93256   0.00000   6.810E-01   0.000E+00   3.190E-01
 444  8.14215153   0.691  -1.69893   3.54580   6.90004   1.93423   0.00000   6.922E-01   0.000E+00   3.078E-01
 445  8.14737910   0.691  -1.70004   3.54583   6.90103   1.93590   0.00000   7.035E-01   0.000E+00   2.965E-01
 446  8.15254449   0.691  -1.70116   3.54586   6.90203   1.93756   0.00000   7.148E-01   0.000E+00   2.852E-01
 447  8.15764917   0.691  -1.70227   3.54589   6.90302   1.93922   0.00000   7.261E-01   0.000E+00   2.739E-01
 448  8.16269455   0.691  -1.70305   3.54590   6.90375   1.93981   0.00007   7.346E-01   0.000E+00   2.654E-01
 449  8.16768198   0.691  -1.70383   3.54590   6.90448   1.94040   0.00015   7.431E-01   0.000E+00   2.569E-01
 450  8.17261279   0.691  -1.70461   3.54591   6.90521   1.94099   0.00022   7.516E-01   0.000E+00   2.484E-01
 451  8.17748824   0.691  -1.70539   3.54592   6.90593   1.94159   0.00030   7.601E-01   0.000E+00   2.399E-01
 452  8.18230957   0.691  -1.70617   3.54592   6.90666   1.94218   0.00037   7.686E-01   0.000E+00   2.314E-01
 453  8.18707796   0.691  -1.70695   3.54593   6.90739   1.94277   0.00045   7.771E-01   0.000E+00   2.229E-01
 454  8.19179456   0.691  -1.70773   3.54594   6.90811   1.94336   0.00052   7.856E-01   0.000E+00   2.144E-01
 455  8.19646049   0.691  -1.70851   3.54595   6.90884   1.94395   0.00059   7.941E-01   0.000E+00   2.059E-01
 456  8.20107682   0.691  -1.70929   3.54595   6.90957   1.94454   0.00067   8.026E-01   0.000E+00   1.974E-01
 457  8.20564460   0.691  -1.71007   3.54596   6.91030   1.94513   0.00074   8.111E-01   0.000E+00   1.889E-01
 458  8.21016483   0.691  -1.71085   3.54597   6.91102   1.94572   0.00082   8.196E-01   0.000E+00   1.804E-01
 459  8.21463851   0.691  -1.71163   3.54597   6.91175   1.94631   0.00089   8.281E-01   0.000E+00   1.719E-01
 460  8.21906656   0.691  -1.71241   3.54598   6.91247   1.94688   0.00100   8.366E-01   0.000E+00   1.634E-01
 461  8.22344993   0.691  -1.71309   3.54598   6.91309   1.94725   0.00165   8.451E-01   0.000E+00   1.549E-01
 462  8.22778949   0.691  -1.71378   3.54599   6.91371   1.94762   0.00229   8.536E-01   0.000E+00   1.464E-01
 463  8.23208612   0.691  -1.71444   3.54599   6.91430   1.94791   0.00280   8.618E-01   0.000E+00   1.382E-01
 464  8.23634066   0.691  -1.71508   3.54598   6.91486   1.94811   0.00314   8.697E-01   0.000E+00   1.303E-01
 465  8.24055393   0.691  -1.71572   3.54598   6.91542   1.94831   0.00349   8.777E-01   0.000E+00   1.223E-01
 466  8.24472671   0.691  -1.71633   3.54597   6.91594   1.94842   0.00395   8.850E-01   0.000E+00   1.149E-01
 467  8.24885978   0.691  -1.71691   3.54596   6.91642   1.94846   0.00447   8.920E-01   0.000E+00   1.077E-01
 468  8.25295389   0.691  -1.71749   3.54596   6.91691   1.94850   0.00500   8.990E-01   0.000E+00   1.006E-01
 469  8.25700976   0.691  -1.71805   3.54594   6.91736   1.94847   0.00561   9.059E-01   0.000E+00   9.365E-02
 470  8.26102811   0.691  -1.71858   3.54593   6.91777   1.94836   0.00631   9.126E-01   0.000E+00   8.708E-02
 471  8.26500961   0.691  -1.71911   3.54592   6.91818   1.94825   0.00701   9.193E-01   0.000E+00   8.051E-02
 472  8.26895495   0.691  -1.71964   3.54591   6.91859   1.94814   0.00772   9.261E-01   0.000E+00   7.394E-02
 473  8.27286476   0.691  -1.72012   3.54589   6.91893   1.94790   0.00826   9.319E-01   0.000E+00   6.819E-02
 474  8.27673970   0.691  -1.72060   3.54588   6.91927   1.94767   0.00881   9.377E-01   0.000E+00   6.243E-02
 475  8.28058036   0.691  -1.72108   3.54586   6.91961   1.94743   0.00936   9.436E-01   0.000E+00   5.668E-02
 476  8.28438736   0.691  -1.72154   3.54585   6.91993   1.94716   0.00985   9.492E-01   0.000E+00   5.107E-02
 477  8.28816127   0.691  -1.72196   3.54583   6.92020   1.94680   0.01016   9.542E-01   0.000E+00   4.594E-02
 478  8.29190267   0.691  -1.72238   3.54581   6.92047   1.94643   0.01046   9.592E-01   0.000E+00   4.081E-02
 479  8.29561212   0.691  -1.72280   3.54579   6.92074   1.94607   0.01077   9.642E-01   0.000E+00   3.568E-02
 480  8.29929015   0.691  -1.72322   3.54577   6.92101   1.94570   0.01109   9.692E-01   0.000E+00   3.060E-02
 481  8.30293729   0.691  -1.72358   3.54574   6.92120   1.94522   0.01172   9.734E-01   0.000E+00   2.633E-02
 482  8.30655406   0.691  -1.72395   3.54572   6.92139   1.94475   0.01234   9.776E-01   0.000E+00   2.206E-02
 483  8.31014096   0.691  -1.72431   3.54569   6.92158   1.94427   0.01297   9.818E-01   0.000E+00   1.779E-02
 484  8.31369847   0.691  -1.72467   3.54567   6.92177   1.94380   0.01360   9.860E-01   0.000E+00   1.352E-02
 485  8.31722708   0.691  -1.72502   3.54564   6.92194   1.94331   0.01414   9.899E-01   0.000E+00   9.598E-03
 486  8.32072725   0.691  -1.72532   3.54562   6.92207   1.94280   0.01449   9.930E-01   0.000E+00   6.524E-03
 487  8.32419944   0.691  -1.72562   3.54559   6.92220   1.94229   0.01483   9.961E-01   0.000E+00   3.451E-03
 488  8.32764409   0.691  -1.72592   3.54557   6.92232   1.94177   0.01518   9.992E-01   0.000E+00   3.776E-04
 489  8.33106163   0.691  -1.72622   3.54554   6.92245   1.94126   0.01553   1.002E+00   0.000E+00  -2.696E-03
 490  8.33445249   0.691  -1.72652   3.54552   6.92258   1.94075   0.01587   1.005E+00   0.000E+00  -5.769E-03
 491  8.33781708   0.691  -1.72677   3.54549   6.92267   1.94020   0.01625   1.008E+00   0.000E+00  -8.326E-03
 492  8.34115580   0.691  -1.72701   3.54546   6.92274   1.93963   0.01664   1.010E+00   0.000E+00  -1.074E-02
 493  8.34446905   0.691  -1.72724   3.54544   6.92281   1.93907   0.01703   1.013E+00   0.000E+00  -1.315E-02
 494  8.34775721   0.691  -1.72748   3.54541   6.92288   1.93850   0.01741   1.015E+00   0.000E+00  -1.556E-02
 495  8.35102067   0.691  -1.72771   3.54539   6.92295   1.93794   0.01780   1.018E+00   0.000E+00  -1.798E-02
 496  8.35425978   0.691  -1.72794   3.54536   6.92302   1.93737   0.01819   1.020E+00   0.000E+00  -2.039E-02
 497  8.35747492   0.691  -1.72817   3.54534   6.92308   1.93681   0.01853   1.022E+00   0.000E+00  -2.264E-02
 498  8.36066643   0.691  -1.72832   3.54531   6.92310   1.93624   0.01868   1.024E+00   0.000E+00  -2.405E-02
 499  8.36383466   0.691  -1.72848   3.54529   6.92312   1.93567   0.01883   1.025E+00   0.000E+00  -2.546E-02
 500  8.36697994   0.691  -1.72864   3.54526   6.92314   1.93510   0.01898   1.026E+00   0.000E+00  -2.687E-02
 501  8.37010260   0.691  -1.72880   3.54524   6.92316   1.93453   0.01913   1.028E+00   0.000E+00  -2.828E-02
 502  8.37320298   0.691  -1.72895   3.54521   6.92318   1.93397   0.01928   1.029E+00   0.000E+00  -2.969E-02
 503  8.37628137   0.691  -1.72911   3.54519   6.92320   1.93340   0.01942   1.031E+00   0.000E+00  -3.110E-02
 504  8.37933810   0.691  -1.72927   3.54516   6.92321   1.93283   0.01957   1.032E+00   0.000E+00  -3.251E-02
 505  8.38237347   0.691  -1.72943   3.54514   6.92323   1.93226   0.01972   1.033E+00   0.000E+00  -3.392E-02
 506  8.38538777   0.691  -1.72953   3.54512   6.92323   1.93170   0.01993   1.034E+00   0.000E+00  -3.495E-02
 507  8.38838129   0.690  -1.72961   3.54509   6.92320   1.93114   0.02018   1.035E+00   0.000E+00  -3.572E-02
 508  8.39135432   0.690  -1.72968   3.54507   6.92318   1.93057   0.02043   1.036E+00   0.000E+00  -3.648E-02
 509  8.39430713   0.690  -1.72975   3.54505   6.92316   1.93001   0.02068   1.037E+00   0.000E+00  -3.725E-02
 510  8.39724000   0.690  -1.72983   3.54503   6.92313   1.92945   0.02094   1.038E+00   0.000E+00  -3.801E-02
 511  8.40015320   0.690  -1.72990   3.54501   6.92311   1.92889   0.02119   1.038E+00   0.000E+00  -3.878E-02
 512  8.40304699   0.690  -1.72997   3.54498   6.92309   1.92833   0.02144   1.039E+00   0.000E+00  -3.954E-02
 513  8.40592163   0.690  -1.73005   3.54496   6.92307   1.92777   0.02169   1.040E+00   0.000E+00  -4.031E-02
 514  8.40877736   0.690  -1.73012   3.54494   6.92304   1.92721   0.02194   1.041E+00   0.000E+00  -4.107E-02
 515  8.41161444   0.690  -1.73019   3.54492   6.92302   1.92664   0.02219   1.042E+00   0.000E+00  -4.184E-02
 516  8.41443310   0.690  -1.73027   3.54490   6.92300   1.92608   0.02244   1.042E+00   0.000E+00  -4.260E-02
 517  8.41723359   0.690  -1.73034   3.54487   6.92297   1.92552   0.02270   1.043E+00   0.000E+00  -4.337E-02
 518  8.42001613   0.690  -1.73041   3.54485   6.92295   1.92496   0.02295   1.044E+00   0.000E+00  -4.413E-02
 519  8.42278096   0.690  -1.73042   3.54484   6.92291   1.92447   0.02304   1.044E+00   0.000E+00  -4.424E-02
 520  8.42552830   0.690  -1.73042   3.54482   6.92286   1.92400   0.02311   1.044E+00   0.000E+00  -4.428E-02
 521  8.42825837   0.690  -1.73042   3.54480   6.92281   1.92352   0.02318   1.044E+00   0.000E+00  -4.432E-02
 522  8.43097138   0.690  -1.73042   3.54479   6.92276   1.92304   0.02326   1.044E+00   0.000E+00  -4.436E-02
 523  8.43366756   0.690  -1.73043   3.54477   6.92271   1.92257   0.02333   1.044E+00   0.000E+00  -4.441E-02
 524  8.43634709   0.690  -1.73043   3.54475   6.92266   1.92209   0.02340   1.044E+00   0.000E+00  -4.445E-02
 525  8.43901020   0.690  -1.73043   3.54474   6.92262   1.92161   0.02348   1.044E+00   0.000E+00  -4.449E-02
 526  8.44165707   0.690  -1.73043   3.54472   6.92257   1.92113   0.02355   1.044E+00   0.000E+00  -4.453E-02
 527  8.44428791   0.690  -1.73043   3.54470   6.92252   1.92066   0.02362   1.044E+00   0.000E+00  -4.457E-02
 528  8.44690291   0.690  -1.73043   3.54469   6.92247   1.92018   0.02369   1.045E+00   0.000E+00  -4.462E-02
 529  8.44950226   0.690  -1.73043   3.54467   6.92242   1.91970   0.02377   1.045E+00   0.000E+00  -4.466E-02
 530  8.45208614   0.690  -1.73043   3.54466   6.92237   1.91922   0.02384   1.045E+00   0.000E+00  -4.470E-02
 531  8.45465475   0.690  -1.73043   3.54464   6.92233   1.91875   0.02391   1.045E+00   0.000E+00  -4.474E-02
 532  8.45720824   0.690  -1.73043   3.54462   6.92228   1.91827   0.02399   1.045E+00   0.000E+00  -4.479E-02
 533  8.45974682   0.690  -1.73044   3.54461   6.92223   1.91779   0.02406   1.045E+00   0.000E+00  -4.483E-02
 534  8.46227064   0.690  -1.73044   3.54459   6.92218   1.91731   0.02413   1.045E+00   0.000E+00  -4.487E-02
 535  8.46477987   0.690  -1.73044   3.54457   6.92213   1.91684   0.02421   1.045E+00   0.000E+00  -4.491E-02
 536  8.46727470   0.690  -1.73044   3.54456   6.92208   1.91636   0.02428   1.045E+00   0.000E+00  -4.495E-02
 537  8.46975527   0.690  -1.73044   3.54454   6.92204   1.91588   0.02435   1.045E+00   0.000E+00  -4.500E-02
 538  8.47222176   0.690  -1.73040   3.54453   6.92198   1.91548   0.02444   1.045E+00   0.000E+00  -4.488E-02
 539  8.47467431   0.690  -1.73036   3.54452   6.92193   1.91509   0.02452   1.045E+00   0.000E+00  -4.474E-02
 540  8.47711310   0.690  -1.73032   3.54451   6.92188   1.91469   0.02461   1.045E+00   0.000E+00  -4.460E-02
 541  8.47953826   0.690  -1.73027   3.54450   6.92182   1.91430   0.02469   1.044E+00   0.000E+00  -4.447E-02
 542  8.48194996   0.690  -1.73023   3.54449   6.92177   1.91390   0.02478   1.044E+00   0.000E+00  -4.433E-02
 543  8.48434834   0.690  -1.73019   3.54447   6.92172   1.91351   0.02486   1.044E+00   0.000E+00  -4.419E-02
 544  8.48673355   0.690  -1.73014   3.54446   6.92166   1.91312   0.02495   1.044E+00   0.000E+00  -4.406E-02
 545  8.48910573   0.690  -1.73010   3.54445   6.92161   1.91272   0.02503   1.044E+00   0.000E+00  -4.392E-02
 546  8.49146502   0.690  -1.73006   3.54444   6.92156   1.91233   0.02512   1.044E+00   0.000E+00  -4.378E-02
 547  8.49381157   0.690  -1.73001   3.54443   6.92150   1.91194   0.02521   1.044E+00   0.000E+00  -4.365E-02
 548  8.49614550   0.690  -1.72997   3.54442   6.92145   1.91154   0.02529   1.043E+00   0.000E+00  -4.351E-02
 549  8.49846696   0.690  -1.72993   3.54441   6.92140   1.91115   0.02538   1.043E+00   0.000E+00  -4.337E-02
 550  8.50077608   0.690  -1.72988   3.54440   6.92134   1.91076   0.02546   1.043E+00   0.000E+00  -4.324E-02
 551  8.50307298   0.690  -1.72984   3.54438   6.92129   1.91036   0.02555   1.043E+00   0.000E+00  -4.310E-02
 552  8.50535780   0.690  -1.72980   3.54437   6.92124   1.90997   0.02563   1.043E+00   0.000E+00  -4.296E-02
 553  8.50763066   0.690  -1.72975   3.54436   6.92118   1.90957   0.02572   1.043E+00   0.000E+00  -4.283E-02
 554  8.50989169   0.690  -1.72971   3.54435   6.92113   1.90918   0.02580   1.043E+00   0.000E+00  -4.269E-02
 555  8.51214101   0.690  -1.72967   3.54434   6.92108   1.90879   0.02589   1.042E+00   0.000E+00  -4.255E-02
 556  8.51437874   0.690  -1.72963   3.54433   6.92102   1.90839   0.02598   1.042E+00   0.000E+00  -4.242E-02
 557  8.51660499   0.690  -1.72958   3.54432   6.92097   1.90800   0.02606   1.042E+00   0.000E+00  -4.228E-02
 558  8.51881990   0.690  -1.72954   3.54431   6.92092   1.90761   0.02615   1.042E+00   0.000E+00  -4.214E-02
 559  8.52102356   0.690  -1.72950   3.54429   6.92086   1.90721   0.02623   1.042E+00   0.000E+00  -4.201E-02
 560  8.52321610   0.690  -1.72945   3.54428   6.92081   1.90682   0.02632   1.042E+00   0.000E+00  -4.187E-02
 561  8.52539763   0.690  -1.72941   3.54427   6.92076   1.90643   0.02640   1.042E+00   0.000E+00  -4.173E-02
 562  8.52756825   0.690  -1.72937   3.54426   6.92070   1.90603   0.02649   1.042E+00   0.000E+00  -4.160E-02
 563  8.52972808   0.690  -1.72932   3.54425   6.92065   1.90564   0.02657   1.041E+00   0.000E+00  -4.146E-02
 564  8.53187722   0.690  -1.72928   3.54424   6.92060   1.90525   0.02666   1.041E+00   0.000E+00  -4.132E-02
 565  8.53401577   0.690  -1.72924   3.54423   6.92054   1.90485   0.02675   1.041E+00   0.000E+00  -4.119E-02
 566  8.53614385   0.690  -1.72919   3.54422   6.92049   1.90450   0.02682   1.041E+00   0.000E+00  -4.102E-02
 567  8.53826155   0.690  -1.72913   3.54421   6.92045   1.90421   0.02689   1.041E+00   0.000E+00  -4.081E-02
 568  8.54036898   0.690  -1.72908   3.54420   6.92040   1.90392   0.02695   1.041E+00   0.000E+00  -4.059E-02
 569  8.54246622   0.690  -1.72902   3.54420   6.92035   1.90363   0.02702   1.040E+00   0.000E+00  -4.038E-02
 570  8.54455339   0.690  -1.72897   3.54419   6.92031   1.90335   0.02708   1.040E+00   0.000E+00  -4.016E-02
 571  8.54663058   0.690  -1.72891   3.54418   6.92026   1.90306   0.02715   1.040E+00   0.000E+00  -3.995E-02
 572  8.54869788   0.690  -1.72886   3.54417   6.92022   1.90277   0.02721   1.040E+00   0.000E+00  -3.973E-02
 573  8.55075538   0.690  -1.72880   3.54417   6.92017   1.90249   0.02728   1.039E+00   0.000E+00  -3.952E-02
 574  8.55280318   0.690  -1.72875   3.54416   6.92012   1.90220   0.02734   1.039E+00   0.000E+00  -3.930E-02
 575  8.55484137   0.690  -1.72869   3.54415   6.92008   1.90191   0.02741   1.039E+00   0.000E+00  -3.909E-02
 576  8.55687004   0.690  -1.72864   3.54414   6.92003   1.90162   0.02747   1.039E+00   0.000E+00  -3.887E-02
 577  8.55888928   0.690  -1.72858   3.54414   6.91998   1.90134   0.02754   1.039E+00   0.000E+00  -3.866E-02
 578  8.56089918   0.690  -1.72853   3.54413   6.91994   1.90105   0.02760   1.038E+00   0.000E+00  -3.844E-02
 579  8.56289981   0.690  -1.72847   3.54412   6.91989   1.90076   0.02766   1.038E+00   0.000E+00  -3.823E-02
 580  8.56489127   0.690  -1.72842   3.54412   6.91985   1.90048   0.02773   1.038E+00   0.000E+00  -3.801E-02
 581  8.56687364   0.690  -1.72836   3.54411   6.91980   1.90019   0.02779   1.038E+00   0.000E+00  -3.780E-02
 582  8.56884701   0.690  -1.72831   3.54410   6.91975   1.89990   0.02786   1.038E+00   0.000E+00  -3.758E-02
 583  8.57081144   0.689  -1.72825   3.54409   6.91971   1.89961   0.02792   1.037E+00   0.000E+00  -3.737E-02
 584  8.57276703   0.689  -1.72820   3.54409   6.91966   1.89933   0.02799   1.037E+00   0.000E+00  -3.715E-02
 585  8.57471386   0.689  -1.72814   3.54408   6.91961   1.89904   0.02805   1.037E+00   0.000E+00  -3.694E-02
 586  8.57665200   0.689  -1.72809   3.54407   6.91957   1.89875   0.02812   1.037E+00   0.000E+00  -3.672E-02
 587  8.57858152   0.689  -1.72803   3.54407   6.91952   1.89847   0.02818   1.037E+00   0.000E+00  -3.651E-02
 588  8.58050251   0.689  -1.72798   3.54406   6.91948   1.89818   0.02825   1.036E+00   0.000E+00  -3.629E-02
 589  8.58241504   0.689  -1.72792   3.54405   6.91943   1.89789   0.02831   1.036E+00   0.000E+00  -3.608E-02
 590  8.58431919   0.689  -1.72787   3.54404   6.91938   1.89760   0.02838   1.036E+00   0.000E+00  -3.586E-02
 591  8.58621502   0.689  -1.72781   3.54404   6.91934   1.89732   0.02844   1.036E+00   0.000E+00  -3.565E-02
 592  8.58810262   0.689  -1.72776   3.54403   6.91929   1.89703   0.02851   1.035E+00   0.000E+00  -3.543E-02
 593  8.58998204   0.689  -1.72770   3.54402   6.91924   1.89674   0.02857   1.035E+00   0.000E+00  -3.522E-02
 594  8.59185337   0.689  -1.72765   3.54401   6.91920   1.89646   0.02864   1.035E+00   0.000E+00  -3.500E-02
 595  8.59371667   0.689  -1.72759   3.54401   6.91915   1.89617   0.02870   1.035E+00   0.000E+00  -3.479E-02
 596  8.59557201   0.689  -1.72754   3.54400   6.91911   1.89588   0.02877   1.035E+00   0.000E+00  -3.457E-02
 597  8.59741945   0.689  -1.72748   3.54399   6.91906   1.89559   0.02883   1.034E+00   0.000E+00  -3.436E-02
 598  8.59925907   0.689  -1.72743   3.54399   6.91901   1.89531   0.02889   1.034E+00   0.000E+00  -3.414E-02
 599  8.60109093   0.689  -1.72737   3.54398   6.91897   1.89502   0.02896   1.034E+00   0.000E+00  -3.393E-02
 600  8.60291510   0.689  -1.72732   3.54397   6.91892   1.89473   0.02902   1.034E+00   0.000E+00  -3.371E-02
 601  8.60473163   0.689  -1.72726   3.54396   6.91887   1.89445   0.02909   1.034E+00   0.000E+00  -3.350E-02
 602  8.60654060   0.689  -1.72720   3.54396   6.91883   1.89416   0.02915   1.033E+00   0.000E+00  -3.328E-02
 603  8.60834207   0.689  -1.72715   3.54395   6.91878   1.89387   0.02922   1.033E+00   0.000E+00  -3.307E-02
 604  8.61013609   0.689  -1.72709   3.54394   6.91874   1.89358   0.02928   1.033E+00   0.000E+00  -3.285E-02
 605  8.61192274   0.689  -1.72704   3.54393   6.91869   1.89330   0.02935   1.033E+00   0.000E+00  -3.264E-02
 606  8.61370206   0.689  -1.72698   3.54393   6.91864   1.89301   0.02941   1.033E+00   0.000E+00  -3.242E-02
 607  8.61547413   0.689  -1.72693   3.54392   6.91860   1.89272   0.02948   1.032E+00   0.000E+00  -3.221E-02
 608  8.61723899   0.689  -1.72687   3.54391   6.91855   1.89243   0.02954   1.032E+00   0.000E+00  -3.199E-02
 609  8.61899671   0.689  -1.72682   3.54391   6.91851   1.89220   0.02960   1.032E+00   0.000E+00  -3.176E-02
 610  8.62074734   0.689  -1.72677   3.54390   6.91847   1.89200   0.02964   1.032E+00   0.000E+00  -3.150E-02
 611  8.62249095   0.689  -1.72672   3.54390   6.91844   1.89180   0.02969   1.031E+00   0.000E+00  -3.124E-02
 612  8.62422758   0.689  -1.72667   3.54389   6.91840   1.89161   0.02974   1.031E+00   0.000E+00  -3.099E-02
 613  8.62595730   0.689  -1.72662   3.54389   6.91837   1.89141   0.02978   1.031E+00   0.000E+00  -3.073E-02
 614  8.62768015   0.689  -1.72657   3.54389   6.91833   1.89121   0.02983   1.031E+00   0.000E+00  -3.048E-02
 615  8.62939620   0.689  -1.72652   3.54388   6.91829   1.89101   0.02988   1.030E+00   0.000E+00  -3.022E-02
 616  8.63110549   0.689  -1.72648   3.54388   6.91826   1.89082   0.02992   1.030E+00   0.000E+00  -2.996E-02
 617  8.63280809   0.689  -1.72643   3.54387   6.91822   1.89062   0.02997   1.030E+00   0.000E+00  -2.971E-02
 618  8.63450403   0.689  -1.72638   3.54387   6.91819   1.89042   0.03002   1.030E+00   0.000E+00  -2.945E-02
 619  8.63619338   0.689  -1.72633   3.54386   6.91815   1.89022   0.03006   1.029E+00   0.000E+00  -2.920E-02
 620  8.63787618   0.689  -1.72628   3.54386   6.91811   1.89002   0.03011   1.029E+00   0.000E+00  -2.894E-02
 621  8.63955248   0.689  -1.72623   3.54385   6.91808   1.88983   0.03016   1.029E+00   0.000E+00  -2.868E-02
 622  8.64122234   0.689  -1.72618   3.54385   6.91804   1.88963   0.03020   1.029E+00   0.000E+00  -2.843E-02
 623  8.64288581   0.689  -1.72613   3.54385   6.91800   1.88943   0.03025   1.028E+00   0.000E+00  -2.817E-02
 624  8.64454292   0.689  -1.72608   3.54384   6.91797   1.88923   0.03030   1.028E+00   0.000E+00  -2.792E-02
 625  8.64619374   0.689  -1.72603   3.54384   6.91793   1.88904   0.03034   1.028E+00   0.000E+00  -2.766E-02
 626  8.64783831   0.689  -1.72598   3.54383   6.91790   1.88884   0.03039   1.028E+00   0.000E+00  -2.740E-02
 627  8.64947667   0.689  -1.72593   3.54383   6.91786   1.88864   0.03044   1.027E+00   0.000E+00  -2.715E-02
 628  8.65110887   0.689  -1.72588   3.54382   6.91782   1.88844   0.03049   1.027E+00   0.000E+00  -2.689E-02
 629  8.65273497   0.689  -1.72583   3.54382   6.91779   1.88825   0.03053   1.027E+00   0.000E+00  -2.664E-02
 630  8.65435499   0.689  -1.72578   3.54382   6.91775   1.88805   0.03058   1.027E+00   0.000E+00  -2.638E-02
 631  8.65596900   0.689  -1.72573   3.54381   6.91772   1.88785   0.03063   1.026E+00   0.000E+00  -2.613E-02
 632  8.65757703   0.689  -1.72568   3.54381   6.91768   1.88765   0.03067   1.026E+00   0.000E+00  -2.587E-02
 633  8.65917913   0.689  -1.72563   3.54380   6.91764   1.88746   0.03072   1.026E+00   0.000E+00  -2.561E-02
 634  8.66077534   0.689  -1.72558   3.54380   6.91761   1.88726   0.03077   1.026E+00   0.000E+00  -2.536E-02
 635  8.66236571   0.689  -1.72553   3.54379   6.91757   1.88706   0.03081   1.025E+00   0.000E+00  -2.510E-02
 636  8.66395027   0.689  -1.72548   3.54379   6.91754   1.88686   0.03086   1.025E+00   0.000E+00  -2.485E-02
 637  8.66552907   0.689  -1.72544   3.54378   6.91750   1.88667   0.03091   1.025E+00   0.000E+00  -2.459E-02
 638  8.66710216   0.689  -1.72539   3.54378   6.91746   1.88647   0.03095   1.025E+00   0.000E+00  -2.433E-02
 639  8.66866956   0.689  -1.72534   3.54378   6.91743   1.88627   0.03100   1.024E+00   0.000E+00  -2.408E-02
 640  8.67023133   0.689  -1.72529   3.54377   6.91739   1.88607   0.03105   1.024E+00   0.000E+00  -2.382E-02
 641  8.67178751   0.689  -1.72524   3.54377   6.91736   1.88588   0.03109   1.024E+00   0.000E+00  -2.357E-02
 642  8.67333812   0.689  -1.72519   3.54376   6.91732   1.88568   0.03114   1.024E+00   0.000E+00  -2.331E-02
 643  8.67488323   0.689  -1.72514   3.54376   6.91728   1.88548   0.03119   1.023E+00   0.000E+00  -2.305E-02
 644  8.67642285   0.689  -1.72509   3.54375   6.91725   1.88528   0.03123   1.023E+00   0.000E+00  -2.280E-02
 645  8.67795703   0.689  -1.72504   3.54375   6.91721   1.88510   0.03127   1.023E+00   0.000E+00  -2.257E-02
 646  8.67948582   0.689  -1.72500   3.54375   6.91719   1.88494   0.03127   1.023E+00   0.000E+00  -2.245E-02
 647  8.68100924   0.689  -1.72496   3.54374   6.91716   1.88479   0.03127   1.023E+00   0.000E+00  -2.232E-02
 648  8.68252733   0.689  -1.72492   3.54374   6.91713   1.88463   0.03127   1.023E+00   0.000E+00  -2.220E-02
 649  8.68404014   0.689  -1.72487   3.54374   6.91710   1.88448   0.03127   1.022E+00   0.000E+00  -2.208E-02
 650  8.68554770   0.689  -1.72483   3.54373   6.91708   1.88432   0.03127   1.022E+00   0.000E+00  -2.195E-02
 651  8.68705004   0.689  -1.72479   3.54373   6.91705   1.88417   0.03127   1.022E+00   0.000E+00  -2.183E-02
 652  8.68854720   0.689  -1.72475   3.54373   6.91702   1.88401   0.03127   1.022E+00   0.000E+00  -2.170E-02
 653  8.69003922   0.689  -1.72471   3.54372   6.91700   1.88386   0.03127   1.022E+00   0.000E+00  -2.158E-02
 654  8.69152613   0.689  -1.72466   3.54372   6.91697   1.88370   0.03127   1.022E+00   0.000E+00  -2.145E-02
 655  8.69300797   0.689  -1.72462   3.54372   6.91694   1.88355   0.03127   1.022E+00   0.000E+00  -2.133E-02
 656  8.69448477   0.689  -1.72458   3.54371   6.91691   1.88340   0.03127   1.022E+00   0.000E+00  -2.121E-02
 657  8.69595656   0.689  -1.72454   3.54371   6.91689   1.88324   0.03127   1.021E+00   0.000E+00  -2.108E-02
 658  8.69742338   0.689  -1.72450   3.54371   6.91686   1.88309   0.03127   1.021E+00   0.000E+00  -2.096E-02
 659  8.69888527   0.689  -1.72446   3.54370   6.91683   1.88293   0.03127   1.021E+00   0.000E+00  -2.083E-02
 660  8.70034225   0.689  -1.72441   3.54370   6.91680   1.88278   0.03127   1.021E+00   0.000E+00  -2.071E-02
 661  8.70179436   0.689  -1.72437   3.54370   6.91678   1.88262   0.03127   1.021E+00   0.000E+00  -2.058E-02
 662  8.70324163   0.689  -1.72433   3.54369   6.91675   1.88247   0.03127   1.021E+00   0.000E+00  -2.046E-02
 663  8.70468409   0.689  -1.72429   3.54369   6.91672   1.88231   0.03127   1.021E+00   0.000E+00  -2.034E-02
 664  8.70612178   0.689  -1.72425   3.54369   6.91669   1.88216   0.03127   1.021E+00   0.000E+00  -2.021E-02
 665  8.70755472   0.689  -1.72421   3.54368   6.91667   1.88200   0.03127   1.020E+00   0.000E+00  -2.009E-02
 666  8.70898295   0.689  -1.72416   3.54368   6.91664   1.88185   0.03127   1.020E+00   0.000E+00  -1.996E-02
 667  8.71040650   0.689  -1.72412   3.54368   6.91661   1.88169   0.03127   1.020E+00   0.000E+00  -1.984E-02
 668  8.71182540   0.689  -1.72408   3.54367   6.91659   1.88154   0.03127   1.020E+00   0.000E+00  -1.971E-02
 669  8.71323968   0.689  -1.72404   3.54367   6.91656   1.88139   0.03127   1.020E+00   0.000E+00  -1.959E-02
 670  8.71464937   0.689  -1.72400   3.54367   6.91653   1.88123   0.03127   1.020E+00   0.000E+00  -1.947E-02
 671  8.71605450   0.689  -1.72396   3.54367   6.91650   1.88108   0.03127   1.020E+00   0.000E+00  -1.934E-02
 672  8.71745509   0.689  -1.72391   3.54366   6.91648   1.88092   0.03127   1.020E+00   0.000E+00  -1.922E-02
 673  8.71885118   0.689  -1.72387   3.54366   6.91645   1.88077   0.03127   1.019E+00   0.000E+00  -1.909E-02
 674  8.72024280   0.689  -1.72383   3.54366   6.91642   1.88061   0.03127   1.019E+00   0.000E+00  -1.897E-02
 675  8.72162998   0.688  -1.72379   3.54365   6.91639   1.88046   0.03127   1.019E+00   0.000E+00  -1.884E-02
 676  8.72301274   0.688  -1.72375   3.54365   6.91637   1.88030   0.03127   1.019E+00   0.000E+00  -1.872E-02
 677  8.72439111   0.688  -1.72370   3.54365   6.91634   1.88015   0.03127   1.019E+00   0.000E+00  -1.860E-02
 678  8.72576511   0.688  -1.72366   3.54364   6.91631   1.87999   0.03127   1.019E+00   0.000E+00  -1.847E-02
 679  8.72713479   0.688  -1.72362   3.54364   6.91628   1.87984   0.03127   1.019E+00   0.000E+00  -1.835E-02
 680  8.72850016   0.688  -1.72358   3.54364   6.91626   1.87969   0.03127   1.019E+00   0.000E+00  -1.822E-02
 681  8.72986125   0.688  -1.72354   3.54363   6.91623   1.87953   0.03127   1.018E+00   0.000E+00  -1.810E-02
 682  8.73121809   0.688  -1.72350   3.54363   6.91620   1.87938   0.03127   1.018E+00   0.000E+00  -1.797E-02
 683  8.73257070   0.688  -1.72345   3.54363   6.91618   1.87922   0.03127   1.018E+00   0.000E+00  -1.785E-02
 684  8.73391911   0.688  -1.72341   3.54362   6.91615   1.87907   0.03127   1.018E+00   0.000E+00  -1.773E-02
 685  8.73526335   0.688  -1.72337   3.54362   6.91612   1.87891   0.03127   1.018E+00   0.000E+00  -1.760E-02
 686  8.73660344   0.688  -1.72334   3.54362   6.91610   1.87879   0.03127   1.018E+00   0.000E+00  -1.752E-02
 687  8.73793941   0.688  -1.72330   3.54362   6.91608   1.87868   0.03127   1.018E+00   0.000E+00  -1.743E-02
 688  8.73927128   0.688  -1.72327   3.54361   6.91606   1.87856   0.03127   1.018E+00   0.000E+00  -1.734E-02
 689  8.74059908   0.688  -1.72324   3.54361   6.91604   1.87844   0.03127   1.018E+00   0.000E+00  -1.726E-02
 690  8.74192283   0.688  -1.72320   3.54361   6.91602   1.87833   0.03127   1.017E+00   0.000E+00  -1.717E-02
 691  8.74324256   0.688  -1.72317   3.54361   6.91600   1.87821   0.03127   1.017E+00   0.000E+00  -1.709E-02
 692  8.74455829   0.688  -1.72313   3.54360   6.91598   1.87809   0.03127   1.017E+00   0.000E+00  -1.700E-02
 693  8.74587005   0.688  -1.72310   3.54360   6.91596   1.87797   0.03127   1.017E+00   0.000E+00  -1.692E-02
 694  8.74717785   0.688  -1.72307   3.54360   6.91593   1.87786   0.03127   1.017E+00   0.000E+00  -1.683E-02
 695  8.74848173   0.688  -1.72303   3.54360   6.91591   1.87774   0.03127   1.017E+00   0.000E+00  -1.675E-02
 696  8.74978171   0.688  -1.72300   3.54359   6.91589   1.87762   0.03127   1.017E+00   0.000E+00  -1.666E-02
 697  8.75107781   0.688  -1.72296   3.54359   6.91587   1.87750   0.03127   1.017E+00   0.000E+00  -1.657E-02
 698  8.75237005   0.688  -1.72293   3.54359   6.91585   1.87739   0.03127   1.017E+00   0.000E+00  -1.649E-02
 699  8.75365846   0.688  -1.72290   3.54359   6.91583   1.87727   0.03127   1.017E+00   0.000E+00  -1.640E-02
 700  8.75494305   0.688  -1.72286   3.54359   6.91581   1.87715   0.03127   1.016E+00   0.000E+00  -1.632E-02
 701  8.75622386   0.688  -1.72283   3.54358   6.91579   1.87704   0.03127   1.016E+00   0.000E+00  -1.623E-02
 702  8.75750090   0.688  -1.72280   3.54358   6.91577   1.87692   0.03127   1.016E+00   0.000E+00  -1.615E-02
 703  8.75877420   0.688  -1.72276   3.54358   6.91575   1.87680   0.03127   1.016E+00   0.000E+00  -1.606E-02
 704  8.76004378   0.688  -1.72273   3.54358   6.91573   1.87668   0.03127   1.016E+00   0.000E+00  -1.598E-02
 705  8.76130965   0.688  -1.72269   3.54357   6.91571   1.87657   0.03127   1.016E+00   0.000E+00  -1.589E-02
 706  8.76257185   0.688  -1.72266   3.54357   6.91569   1.87645   0.03127   1.016E+00   0.000E+00  -1.580E-02
 707  8.76383039   0.688  -1.72263   3.54357   6.91567   1.87633   0.03127   1.016E+00   0.000E+00  -1.572E-02
 708  8.76508529   0.688  -1.72259   3.54357   6.91565   1.87621   0.03127   1.016E+00   0.000E+00  -1.563E-02
 709  8.76633658   0.688  -1.72256   3.54356   6.91562   1.87610   0.03127   1.015E+00   0.000E+00  -1.555E-02
 710  8.76758427   0.688  -1.72253   3.54356   6.91560   1.87598   0.03127   1.015E+00   0.000E+00  -1.546E-02
 711  8.76882838   0.688  -1.72249   3.54356   6.91558   1.87586   0.03127   1.015E+00   0.000E+00  -1.538E-02
 712  8.77006895   0.688  -1.72246   3.54356   6.91556   1.87575   0.03127   1.015E+00   0.000E+00  -1.529E-02
 713  8.77130598   0.688  -1.72242   3.54356   6.91554   1.87563   0.03127   1.015E+00   0.000E+00  -1.521E-02
 714  8.77253949   0.688  -1.72239   3.54355   6.91552   1.87551   0.03127   1.015E+00   0.000E+00  -1.512E-02
 715  8.77376952   0.688  -1.72236   3.54355   6.91550   1.87539   0.03127   1.015E+00   0.000E+00  -1.503E-02
 716  8.77499606   0.688  -1.72232   3.54355   6.91548   1.87528   0.03127   1.015E+00   0.000E+00  -1.495E-02
 717  8.77621916   0.688  -1.72229   3.54355   6.91546   1.87516   0.03127   1.015E+00   0.000E+00  -1.486E-02
 718  8.77743882   0.688  -1.72226   3.54354   6.91544   1.87504   0.03127   1.015E+00   0.000E+00  -1.478E-02
 719  8.77865506   0.688  -1.72222   3.54354   6.91542   1.87492   0.03127   1.014E+00   0.000E+00  -1.469E-02
 720  8.77986791   0.688  -1.72219   3.54354   6.91540   1.87481   0.03127   1.014E+00   0.000E+00  -1.461E-02
 721  8.78107738   0.688  -1.72215   3.54354   6.91538   1.87469   0.03127   1.014E+00   0.000E+00  -1.452E-02
 722  8.78228349   0.688  -1.72212   3.54354   6.91536   1.87457   0.03127   1.014E+00   0.000E+00  -1.444E-02
 723  8.78348626   0.688  -1.72209   3.54353   6.91534   1.87446   0.03127   1.014E+00   0.000E+00  -1.435E-02
 724  8.78468571   0.688  -1.72205   3.54353   6.91531   1.87434   0.03127   1.014E+00   0.000E+00  -1.426E-02
 725  8.78588185   0.688  -1.72202   3.54353   6.91529   1.87422   0.03127   1.014E+00   0.000E+00  -1.418E-02
 726  8.78707471   0.688  -1.72198   3.54353   6.91527   1.87410   0.03127   1.014E+00   0.000E+00  -1.409E-02
 727  8.78826430   0.688  -1.72195   3.54352   6.91525   1.87399   0.03127   1.014E+00   0.000E+00  -1.401E-02
 728  8.78945065   0.688  -1.72192   3.54352   6.91523   1.87387   0.03127   1.014E+00   0.000E+00  -1.392E-02
 729  8.79063376   0.688  -1.72188   3.54352   6.91521   1.87375   0.03127   1.013E+00   0.000E+00  -1.384E-02
 730  8.79181365   0.688  -1.72185   3.54352   6.91519   1.87363   0.03127   1.013E+00   0.000E+00  -1.375E-02
 731  8.79299035   0.688  -1.72182   3.54351   6.91517   1.87352   0.03127   1.013E+00   0.000E+00  -1.367E-02
 732  8.79416387   0.688  -1.72178   3.54351   6.91515   1.87340   0.03127   1.013E+00   0.000E+00  -1.358E-02
 733  8.79533423   0.688  -1.72175   3.54351   6.91513   1.87328   0.03127   1.013E+00   0.000E+00  -1.350E-02
 734  8.79650144   0.688  -1.72172   3.54351   6.91511   1.87320   0.03127   1.013E+00   0.000E+00  -1.343E-02
 735  8.79766553   0.688  -1.72170   3.54351   6.91510   1.87312   0.03127   1.013E+00   0.000E+00  -1.337E-02
 736  8.79882650   0.688  -1.72167   3.54350   6.91508   1.87304   0.03127   1.013E+00   0.000E+00  -1.330E-02
 737  8.79998437   0.688  -1.72164   3.54350   6.91507   1.87295   0.03127   1.013E+00   0.000E+00  -1.324E-02
 738  8.80113917   0.688  -1.72162   3.54350   6.91505   1.87287   0.03127   1.013E+00   0.000E+00  -1.317E-02
 739  8.80229091   0.688  -1.72159   3.54350   6.91504   1.87279   0.03127   1.013E+00   0.000E+00  -1.311E-02
 740  8.80343959   0.688  -1.72157   3.54350   6.91502   1.87270   0.03127   1.013E+00   0.000E+00  -1.304E-02
 741  8.80458525   0.688  -1.72154   3.54350   6.91501   1.87262   0.03127   1.013E+00   0.000E+00  -1.298E-02
 742  8.80572790   0.688  -1.72151   3.54349   6.91499   1.87254   0.03127   1.013E+00   0.000E+00  -1.292E-02
 743  8.80686754   0.688  -1.72149   3.54349   6.91497   1.87245   0.03127   1.012E+00   0.000E+00  -1.285E-02
 744  8.80800421   0.688  -1.72146   3.54349   6.91496   1.87237   0.03127   1.012E+00   0.000E+00  -1.279E-02
 745  8.80913790   0.688  -1.72144   3.54349   6.91494   1.87229   0.03127   1.012E+00   0.000E+00  -1.272E-02
 746  8.81026865   0.688  -1.72141   3.54349   6.91493   1.87220   0.03127   1.012E+00   0.000E+00  -1.266E-02
 747  8.81139645   0.688  -1.72138   3.54349   6.91491   1.87212   0.03127   1.012E+00   0.000E+00  -1.259E-02
 748  8.81252134   0.688  -1.72136   3.54348   6.91490   1.87204   0.03127   1.012E+00   0.000E+00  -1.253E-02
 749  8.81364332   0.688  -1.72133   3.54348   6.91488   1.87195   0.03127   1.012E+00   0.000E+00  -1.246E-02
 750  8.81476241   0.688  -1.72130   3.54348   6.91487   1.87187   0.03127   1.012E+00   0.000E+00  -1.240E-02
 751  8.81587862   0.688  -1.72128   3.54348   6.91485   1.87179   0.03127   1.012E+00   0.000E+00  -1.234E-02
 752  8.81699197   0.688  -1.72125   3.54348   6.91483   1.87170   0.03127   1.012E+00   0.000E+00  -1.227E-02
 753  8.81810248   0.688  -1.72123   3.54348   6.91482   1.87162   0.03127   1.012E+00   0.000E+00  -1.221E-02
 754  8.81921015   0.688  -1.72120   3.54347   6.91480   1.87154   0.03127   1.012E+00   0.000E+00  -1.214E-02
 755  8.82031501   0.688  -1.72117   3.54347   6.91479   1.87145   0.03127   1.012E+00   0.000E+00  -1.208E-02
 756  8.82141706   0.688  -1.72115   3.54347   6.91477   1.87137   0.03127   1.012E+00   0.000E+00  -1.201E-02
 757  8.82251632   0.688  -1.72112   3.54347   6.91476   1.87129   0.03127   1.012E+00   0.000E+00  -1.195E-02
 758  8.82361280   0.688  -1.72110   3.54347   6.91474   1.87120   0.03127   1.012E+00   0.000E+00  -1.188E-02
 759  8.82470653   0.688  -1.72107   3.54347   6.91473   1.87112   0.03127   1.012E+00   0.000E+00  -1.182E-02
 760  8.82579750   0.688  -1.72104   3.54346   6.91471   1.87104   0.03127   1.012E+00   0.000E+00  -1.176E-02
 761  8.82688575   0.688  -1.72102   3.54346   6.91470   1.87095   0.03127   1.012E+00   0.000E+00  -1.169E-02
 762  8.82797127   0.688  -1.72099   3.54346   6.91468   1.87087   0.03127   1.012E+00   0.000E+00  -1.163E-02
 763  8.82905409   0.688  -1.72097   3.54346   6.91466   1.87079   0.03127   1.011E+00   0.000E+00  -1.156E-02
 764  8.83013421   0.688  -1.72094   3.54346   6.91465   1.87070   0.03127   1.011E+00   0.000E+00  -1.150E-02
 765  8.83121165   0.688  -1.72091   3.54346   6.91463   1.87062   0.03127   1.011E+00   0.000E+00  -1.143E-02
 766  8.83228643   0.688  -1.72089   3.54345   6.91462   1.87054   0.03127   1.011E+00   0.000E+00  -1.137E-02
 767  8.83335856   0.688  -1.72086   3.54345   6.91460   1.87045   0.03127   1.011E+00   0.000E+00  -1.130E-02
 768  8.83442804   0.688  -1.72084   3.54345   6.91459   1.87037   0.03127   1.011E+00   0.000E+00  -1.124E-02
 769  8.83549490   0.687  -1.72081   3.54345   6.91457   1.87029   0.03127   1.011E+00   0.000E+00  -1.118E-02
 770  8.83655914   0.687  -1.72078   3.54345   6.91456   1.87020   0.03127   1.011E+00   0.000E+00  -1.111E-02
 771  8.83762078   0.687  -1.72076   3.54345   6.91454   1.87012   0.03127   1.011E+00   0.000E+00  -1.105E-02
 772  8.83867983   0.687  -1.72073   3.54344   6.91453   1.87004   0.03127   1.011E+00   0.000E+00  -1.098E-02
 773  8.83973631   0.687  -1.72071   3.54344   6.91451   1.86995   0.03127   1.011E+00   0.000E+00  -1.092E-02
 774  8.84079022   0.687  -1.72068   3.54344   6.91449   1.86987   0.03127   1.011E+00   0.000E+00  -1.085E-02
 775  8.84184158   0.687  -1.72065   3.54344   6.91448   1.86979   0.03127   1.011E+00   0.000E+00  -1.079E-02
 776  8.84289040   0.687  -1.72063   3.54344   6.91446   1.86970   0.03127   1.011E+00   0.000E+00  -1.072E-02
 777  8.84393670   0.687  -1.72060   3.54344   6.91445   1.86962   0.03127   1.011E+00   0.000E+00  -1.066E-02
 778  8.84498048   0.687  -1.72057   3.54343   6.91443   1.86954   0.03127   1.011E+00   0.000E+00  -1.060E-02
 779  8.84602175   0.687  -1.72055   3.54343   6.91442   1.86945   0.03127   1.011E+00   0.000E+00  -1.053E-02
 780  8.84706054   0.687  -1.72052   3.54343   6.91440   1.86937   0.03127   1.011E+00   0.000E+00  -1.047E-02
 781  8.84809685   0.687  -1.72050   3.54343   6.91439   1.86929   0.03127   1.011E+00   0.000E+00  -1.040E-02
 782  8.84913069   0.687  -1.72047   3.54343   6.91437   1.86920   0.03127   1.011E+00   0.000E+00  -1.034E-02
 783  8.85016208   0.687  -1.72044   3.54343   6.91435   1.86912   0.03127   1.010E+00   0.000E+00  -1.027E-02
 784  8.85119102   0.687  -1.72042   3.54342   6.91434   1.86904   0.03127   1.010E+00   0.000E+00  -1.021E-02
 785  8.85221753   0.687  -1.72039   3.54342   6.91432   1.86895   0.03127   1.010E+00   0.000E+00  -1.014E-02
 786  8.85324162   0.687  -1.72037   3.54342   6.91431   1.86887   0.03127   1.010E+00   0.000E+00  -1.008E-02
 787  8.85426330   0.687  -1.72034   3.54342   6.91429   1.86879   0.03127   1.010E+00   0.000E+00  -1.002E-02
 788  8.85528258   0.687  -1.72031   3.54342   6.91428   1.86870   0.03127   1.010E+00   0.000E+00  -9.951E-03
 789  8.85629948   0.687  -1.72029   3.54342   6.91426   1.86862   0.03127   1.010E+00   0.000E+00  -9.887E-03
 790  8.85731400   0.687  -1.72026   3.54341   6.91425   1.86854   0.03127   1.010E+00   0.000E+00  -9.822E-03
 791  8.85832616   0.687  -1.72024   3.54341   6.91423   1.86845   0.03127   1.010E+00   0.000E+00  -9.758E-03
 792  8.85933596   0.687  -1.72021   3.54341   6.91422   1.86837   0.03127   1.010E+00   0.000E+00  -9.693E-03
 793  8.86034342   0.687  -1.72019   3.54341   6.91420   1.86831   0.03127   1.010E+00   0.000E+00  -9.645E-03
 794  8.86134855   0.687  -1.72017   3.54341   6.91419   1.86825   0.03127   1.010E+00   0.000E+00  -9.605E-03
 795  8.86235136   0.687  -1.72015   3.54341   6.91418   1.86820   0.03127   1.010E+00   0.000E+00  -9.564E-03
 796  8.86335185   0.687  -1.72013   3.54341   6.91417   1.86814   0.03127   1.010E+00   0.000E+00  -9.524E-03
 797  8.86435005   0.687  -1.72011   3.54341   6.91416   1.86809   0.03127   1.010E+00   0.000E+00  -9.484E-03
 798  8.86534596   0.687  -1.72009   3.54340   6.91415   1.86803   0.03127   1.010E+00   0.000E+00  -9.444E-03
 799  8.86633959   0.687  -1.72007   3.54340   6.91414   1.86798   0.03127   1.010E+00   0.000E+00  -9.404E-03
 800  8.86733095   0.687  -1.72005   3.54340   6.91413   1.86792   0.03127   1.010E+00   0.000E+00  -9.364E-03
 801  8.86832006   0.687  -1.72003   3.54340   6.91412   1.86787   0.03127   1.010E+00   0.000E+00  -9.324E-03
 802  8.86930691   0.687  -1.72001   3.54340   6.91411   1.86782   0.03127   1.010E+00   0.000E+00  -9.284E-03
 803  8.87029153   0.687  -1.71999   3.54340   6.91410   1.86776   0.03127   1.010E+00   0.000E+00  -9.244E-03
 804  8.87127392   0.687  -1.71997   3.54340   6.91409   1.86771   0.03127   1.010E+00   0.000E+00  -9.204E-03
 805  8.87225410   0.687  -1.71995   3.54340   6.91408   1.86765   0.03127   1.010E+00   0.000E+00  -9.164E-03
 806  8.87323207   0.687  -1.71994   3.54340   6.91407   1.86760   0.03127   1.009E+00   0.000E+00  -9.124E-03
 807  8.87420784   0.687  -1.71992   3.54340   6.91406   1.86754   0.03127   1.009E+00   0.000E+00  -9.084E-03
 808  8.87518142   0.687  -1.71990   3.54340   6.91406   1.86749   0.03127   1.009E+00   0.000E+00  -9.044E-03
 809  8.87615283   0.687  -1.71988   3.54339   6.91405   1.86744   0.03127   1.009E+00   0.000E+00  -9.004E-03
 810  8.87712206   0.687  -1.71986   3.54339   6.91404   1.86738   0.03127   1.009E+00   0.000E+00  -8.964E-03
 811  8.87808914   0.687  -1.71984   3.54339   6.91403   1.86733   0.03127   1.009E+00   0.000E+00  -8.924E-03
 812  8.87905407   0.687  -1.71982   3.54339   6.91402   1.86727   0.03127   1.009E+00   0.000E+00  -8.884E-03
 813  8.88001686   0.687  -1.71980   3.54339   6.91401   1.86722   0.03127   1.009E+00   0.000E+00  -8.844E-03
 814  8.88097753   0.687  -1.71978   3.54339   6.91400   1.86716   0.03127   1.009E+00   0.000E+00  -8.804E-03
 815  8.88193607   0.687  -1.71976   3.54339   6.91399   1.86711   0.03127   1.009E+00   0.000E+00  -8.764E-03
 816  8.88289250   0.687  -1.71974   3.54339   6.91398   1.86705   0.03127   1.009E+00   0.000E+00  -8.724E-03
 817  8.88384683   0.687  -1.71972   3.54339   6.91397   1.86700   0.03127   1.009E+00   0.000E+00  -8.684E-03
 818  8.88479906   0.687  -1.71970   3.54339   6.91396   1.86695   0.03127   1.009E+00   0.000E+00  -8.644E-03
 819  8.88574922   0.687  -1.71968   3.54339   6.91395   1.86689   0.03127   1.009E+00   0.000E+00  -8.604E-03
 820  8.88669729   0.687  -1.71966   3.54338   6.91394   1.86684   0.03127   1.009E+00   0.000E+00  -8.564E-03
 821  8.88764331   0.687  -1.71964   3.54338   6.91393   1.86678   0.03127   1.009E+00   0.000E+00  -8.524E-03
 822  8.88858726   0.687  -1.71962   3.54338   6.91392   1.86673   0.03127   1.009E+00   0.000E+00  -8.484E-03
 823  8.88952917   0.687  -1.71960   3.54338   6.91391   1.86667   0.03127   1.009E+00   0.000E+00  -8.444E-03
 824  8.89046905   0.687  -1.71959   3.54338   6.91390   1.86662   0.03127   1.009E+00   0.000E+00  -8.404E-03
 825  8.89140689   0.687  -1.71957   3.54338   6.91389   1.86657   0.03127   1.009E+00   0.000E+00  -8.363E-03
 826  8.89234271   0.687  -1.71955   3.54338   6.91388   1.86651   0.03127   1.009E+00   0.000E+00  -8.323E-03
 827  8.89327652   0.687  -1.71953   3.54338   6.91387   1.86646   0.03127   1.009E+00   0.000E+00  -8.283E-03
 828  8.89420832   0.687  -1.71951   3.54338   6.91386   1.86640   0.03127   1.009E+00   0.000E+00  -8.243E-03
 829  8.89513813   0.687  -1.71949   3.54338   6.91385   1.86635   0.03127   1.009E+00   0.000E+00  -8.203E-03
 830  8.89606596   0.687  -1.71947   3.54338   6.91384   1.86629   0.03127   1.009E+00   0.000E+00  -8.163E-03
 831  8.89699180   0.687  -1.71945   3.54337   6.91383   1.86624   0.03127   1.008E+00   0.000E+00  -8.123E-03
 832  8.89791568   0.687  -1.71943   3.54337   6.91382   1.86618   0.03127   1.008E+00   0.000E+00  -8.083E-03
 833  8.89883760   0.687  -1.71941   3.54337   6.91381   1.86613   0.03127   1.008E+00   0.000E+00  -8.043E-03
 834  8.89975756   0.687  -1.71939   3.54337   6.91380   1.86608   0.03127   1.008E+00   0.000E+00  -8.003E-03
 835  8.90067558   0.687  -1.71937   3.54337   6.91379   1.86602   0.03127   1.008E+00   0.000E+00  -7.963E-03
 836  8.90159166   0.687  -1.71935   3.54337   6.91378   1.86597   0.03127   1.008E+00   0.000E+00  -7.923E-03
 837  8.90250581   0.687  -1.71933   3.54337   6.91377   1.86591   0.03127   1.008E+00   0.000E+00  -7.883E-03
 838  8.90341804   0.687  -1.71931   3.54337   6.91376   1.86586   0.03127   1.008E+00   0.000E+00  -7.843E-03
 839  8.90432836   0.687  -1.71929   3.54337   6.91375   1.86580   0.03127   1.008E+00   0.000E+00  -7.803E-03
 840  8.90523678   0.687  -1.71927   3.54337   6.91374   1.86575   0.03127   1.008E+00   0.000E+00  -7.763E-03
 841  8.90614330   0.687  -1.71926   3.54337   6.91373   1.86570   0.03127   1.008E+00   0.000E+00  -7.723E-03
 842  8.90704793   0.687  -1.71924   3.54336   6.91372   1.86564   0.03127   1.008E+00   0.000E+00  -7.683E-03
 843  8.90795068   0.687  -1.71922   3.54336   6.91371   1.86559   0.03127   1.008E+00   0.000E+00  -7.643E-03
 844  8.90885156   0.687  -1.71920   3.54336   6.91370   1.86553   0.03127   1.008E+00   0.000E+00  -7.603E-03
 845  8.90975058   0.687  -1.71918   3.54336   6.91369   1.86548   0.03127   1.008E+00   0.000E+00  -7.563E-03
 846  8.91064774   0.687  -1.71916   3.54336   6.91368   1.86542   0.03127   1.008E+00   0.000E+00  -7.523E-03
 847  8.91154304   0.687  -1.71914   3.54336   6.91367   1.86537   0.03127   1.008E+00   0.000E+00  -7.483E-03
 848  8.91243651   0.687  -1.71912   3.54336   6.91366   1.86531   0.03127   1.008E+00   0.000E+00  -7.443E-03
 849  8.91332814   0.687  -1.71910   3.54336   6.91365   1.86526   0.03127   1.008E+00   0.000E+00  -7.403E-03
 850  8.91421794   0.687  -1.71908   3.54336   6.91364   1.86521   0.03127   1.008E+00   0.000E+00  -7.363E-03
 851  8.91510593   0.687  -1.71906   3.54336   6.91363   1.86515   0.03127   1.008E+00   0.000E+00  -7.323E-03
 852  8.91599210   0.687  -1.71904   3.54336   6.91362   1.86510   0.03127   1.008E+00   0.000E+00  -7.283E-03
 853  8.91687647   0.687  -1.71902   3.54335   6.91361   1.86504   0.03127   1.008E+00   0.000E+00  -7.243E-03
 854  8.91775904   0.687  -1.71900   3.54335   6.91360   1.86499   0.03127   1.008E+00   0.000E+00  -7.203E-03
 855  8.91863982   0.687  -1.71898   3.54335   6.91359   1.86493   0.03127   1.008E+00   0.000E+00  -7.162E-03
 856  8.91951882   0.687  -1.71896   3.54335   6.91358   1.86488   0.03127   1.008E+00   0.000E+00  -7.122E-03
 857  8.92039605   0.687  -1.71894   3.54335   6.91357   1.86483   0.03127   1.007E+00   0.000E+00  -7.082E-03
 858  8.92127150   0.687  -1.71892   3.54335   6.91356   1.86477   0.03127   1.007E+00   0.000E+00  -7.042E-03
 859  8.92214520   0.687  -1.71891   3.54335   6.91355   1.86472   0.03127   1.007E+00   0.000E+00  -7.002E-03
 860  8.92301713   0.687  -1.71889   3.54335   6.91354   1.86466   0.03127   1.007E+00   0.000E+00  -6.962E-03
 861  8.92388733   0.687  -1.71887   3.54335   6.91353   1.86461   0.03127   1.007E+00   0.000E+00  -6.922E-03
 862  8.92475578   0.687  -1.71885   3.54335   6.91352   1.86455   0.03127   1.007E+00   0.000E+00  -6.882E-03
 863  8.92562250   0.687  -1.71883   3.54335   6.91351   1.86450   0.03127   1.007E+00   0.000E+00  -6.842E-03
 864  8.92648749   0.687  -1.71881   3.54334   6.91350   1.86444   0.03127   1.007E+00   0.000E+00  -6.802E-03
 865  8.92735077   0.687  -1.71879   3.54334   6.91349   1.86439   0.03127   1.007E+00   0.000E+00  -6.762E-03
 866  8.92821233   0.687  -1.71877   3.54334   6.91348   1.86434   0.03127   1.007E+00   0.000E+00  -6.722E-03
 867  8.92907218   0.687  -1.71875   3.54334   6.91347   1.86428   0.03127   1.007E+00   0.000E+00  -6.682E-03
 868  8.92993034   0.686  -1.71873   3.54334   6.91346   1.86423   0.03127   1.007E+00   0.000E+00  -6.642E-03
 869  8.93078680   0.686  -1.71871   3.54334   6.91345   1.86417   0.03127   1.007E+00   0.000E+00  -6.602E-03
 870  8.93164158   0.686  -1.71870   3.54334   6.91344   1.86414   0.03127   1.007E+00   0.000E+00  -6.579E-03
 871  8.93249468   0.686  -1.71868   3.54334   6.91344   1.86410   0.03126   1.007E+00   0.000E+00  -6.557E-03
 872  8.93334611   0.686  -1.71867   3.54334   6.91343   1.86407   0.03125   1.007E+00   0.000E+00  -6.535E-03
 873  8.93419587   0.686  -1.71865   3.54334   6.91342   1.86404   0.03125   1.007E+00   0.000E+00  -6.513E-03
 874  8.93504397   0.686  -1.71864   3.54334   6.91342   1.86400   0.03124   1.007E+00   0.000E+00  -6.491E-03
 875  8.93589042   0.686  -1.71862   3.54334   6.91341   1.86397   0.03124   1.007E+00   0.000E+00  -6.469E-03
 876  8.93673522   0.686  -1.71861   3.54334   6.91341   1.86394   0.03123   1.007E+00   0.000E+00  -6.447E-03
 877  8.93757838   0.686  -1.71860   3.54334   6.91340   1.86390   0.03123   1.007E+00   0.000E+00  -6.425E-03
 878  8.93841991   0.686  -1.71858   3.54334   6.91339   1.86387   0.03122   1.007E+00   0.000E+00  -6.403E-03
 879  8.93925981   0.686  -1.71857   3.54334   6.91339   1.86383   0.03122   1.007E+00   0.000E+00  -6.381E-03
 880  8.94009809   0.686  -1.71855   3.54333   6.91338   1.86380   0.03121   1.007E+00   0.000E+00  -6.359E-03
 881  8.94093475   0.686  -1.71854   3.54333   6.91337   1.86377   0.03121   1.007E+00   0.000E+00  -6.338E-03
 882  8.94176981   0.686  -1.71852   3.54333   6.91337   1.86373   0.03120   1.007E+00   0.000E+00  -6.316E-03
 883  8.94260326   0.686  -1.71851   3.54333   6.91336   1.86370   0.03120   1.007E+00   0.000E+00  -6.294E-03
 884  8.94343512   0.686  -1.71850   3.54333   6.91335   1.86367   0.03119   1.007E+00   0.000E+00  -6.272E-03
 885  8.94426538   0.686  -1.71848   3.54333   6.91335   1.86363   0.03119   1.007E+00   0.000E+00  -6.250E-03
 886  8.94509407   0.686  -1.71847   3.54333   6.91334   1.86360   0.03118   1.007E+00   0.000E+00  -6.228E-03
 887  8.94592117   0.686  -1.71845   3.54333   6.91333   1.86356   0.03118   1.006E+00   0.000E+00  -6.206E-03
 888  8.94674670   0.686  -1.71844   3.54333   6.91333   1.86353   0.03117   1.006E+00   0.000E+00  -6.184E-03
 889  8.94757067   0.686  -1.71842   3.54333   6.91332   1.86350   0.03117   1.006E+00   0.000E+00  -6.162E-03
 890  8.94839307   0.686  -1.71841   3.54333   6.91332   1.86346   0.03116   1.006E+00   0.000E+00  -6.140E-03
 891  8.94921392   0.686  -1.71840   3.54333   6.91331   1.86343   0.03116   1.006E+00   0.000E+00  -6.118E-03
 892  8.95003322   0.686  -1.71838   3.54333   6.91330   1.86340   0.03115   1.006E+00   0.000E+00  -6.096E-03
 893  8.95085098   0.686  -1.71837   3.54333   6.91330   1.86336   0.03115   1.006E+00   0.000E+00  -6.074E-03
 894  8.95166721   0.686  -1.71835   3.54333   6.91329   1.86333   0.03114   1.006E+00   0.000E+00  -6.052E-03
 895  8.95248190   0.686  -1.71834   3.54333   6.91328   1.86329   0.03114   1.006E+00   0.000E+00  -6.030E-03
 896  8.95329506   0.686  -1.71832   3.54333   6.91328   1.86326   0.03113   1.006E+00   0.000E+00  -6.008E-03
 897  8.95410671   0.686  -1.71831   3.54333   6.91327   1.86323   0.03113   1.006E+00   0.000E+00  -5.986E-03
 898  8.95491684   0.686  -1.71830   3.54333   6.91326   1.86319   0.03112   1.006E+00   0.000E+00  -5.964E-03
 899  8.95572547   0.686  -1.71828   3.54333   6.91326   1.86316   0.03112   1.006E+00   0.000E+00  -5.942E-03
 900  8.95653259   0.686  -1.71827   3.54332   6.91325   1.86313   0.03111   1.006E+00   0.000E+00  -5.920E-03
 901  8.95733821   0.686  -1.71825   3.54332   6.91325   1.86309   0.03111   1.006E+00   0.000E+00  -5.898E-03
 902  8.95814234   0.686  -1.71824   3.54332   6.91324   1.86306   0.03110   1.006E+00   0.000E+00  -5.876E-03
 903  8.95894499   0.686  -1.71822   3.54332   6.91323   1.86303   0.03110   1.006E+00   0.000E+00  -5.854E-03
 904  8.95974615   0.686  -1.71821   3.54332   6.91323   1.86299   0.03109   1.006E+00   0.000E+00  -5.832E-03
 905  8.96054584   0.686  -1.71820   3.54332   6.91322   1.86296   0.03108   1.006E+00   0.000E+00  -5.810E-03
 906  8.96134406   0.686  -1.71818   3.54332   6.91321   1.86292   0.03108   1.006E+00   0.000E+00  -5.788E-03
 907  8.96214082   0.686  -1.71817   3.54332   6.91321   1.86289   0.03107   1.006E+00   0.000E+00  -5.766E-03
 908  8.96293612   0.686  -1.71815   3.54332   6.91320   1.86286   0.03107   1.006E+00   0.000E+00  -5.745E-03
 909  8.96372996   0.686  -1.71814   3.54332   6.91319   1.86282   0.03106   1.006E+00   0.000E+00  -5.723E-03
 910  8.96452235   0.686  -1.71812   3.54332   6.91319   1.86279   0.03106   1.006E+00   0.000E+00  -5.701E-03
 911  8.96531331   0.686  -1.71811   3.54332   6.91318   1.86276   0.03105   1.006E+00   0.000E+00  -5.679E-03
 912  8.96610282   0.686  -1.71810   3.54332   6.91317   1.86272   0.03105   1.006E+00   0.000E+00  -5.657E-03
 913  8.96689090   0.686  -1.71808   3.54332   6.91317   1.86269   0.03104   1.006E+00   0.000E+00  -5.635E-03
 914  8.96767755   0.686  -1.71807   3.54332   6.91316   1.86265   0.03104   1.006E+00   0.000E+00  -5.613E-03
 915  8.96846278   0.686  -1.71805   3.54332   6.91316   1.86262   0.03103   1.006E+00   0.000E+00  -5.591E-03
 916  8.96924660   0.686  -1.71804   3.54332   6.91315   1.86259   0.03103   1.006E+00   0.000E+00  -5.569E-03
 917  8.97002900   0.686  -1.71802   3.54332   6.91314   1.86255   0.03102   1.006E+00   0.000E+00  -5.547E-03
 918  8.97080999   0.686  -1.71801   3.54332   6.91314   1.86252   0.03102   1.006E+00   0.000E+00  -5.525E-03
 919  8.97158959   0.686  -1.71800   3.54332   6.91313   1.86249   0.03101   1.006E+00   0.000E+00  -5.503E-03
 920  8.97236778   0.686  -1.71798   3.54332   6.91312   1.86245   0.03101   1.006E+00   0.000E+00  -5.481E-03
 921  8.97314459   0.686  -1.71797   3.54331   6.91312   1.86242   0.03100   1.005E+00   0.000E+00  -5.459E-03
 922  8.97392000   0.686  -1.71795   3.54331   6.91311   1.86238   0.03100   1.005E+00   0.000E+00  -5.437E-03
 923  8.97469404   0.686  -1.71794   3.54331   6.91310   1.86235   0.03099   1.005E+00   0.000E+00  -5.415E-03
 924  8.97546670   0.686  -1.71792   3.54331   6.91310   1.86232   0.03099   1.005E+00   0.000E+00  -5.393E-03
 925  8.97623798   0.686  -1.71791   3.54331   6.91309   1.86228   0.03098   1.005E+00   0.000E+00  -5.371E-03
 926  8.97700790   0.686  -1.71790   3.54331   6.91308   1.86225   0.03098   1.005E+00   0.000E+00  -5.349E-03
 927  8.97777646   0.686  -1.71788   3.54331   6.91308   1.86222   0.03097   1.005E+00   0.000E+00  -5.327E-03
 928  8.97854366   0.686  -1.71787   3.54331   6.91307   1.86218   0.03097   1.005E+00   0.000E+00  -5.305E-03
 929  8.97930950   0.686  -1.71785   3.54331   6.91307   1.86215   0.03096   1.005E+00   0.000E+00  -5.283E-03
 930  8.98007400   0.686  -1.71784   3.54331   6.91306   1.86211   0.03096   1.005E+00   0.000E+00  -5.261E-03
 931  8.98083715   0.686  -1.71782   3.54331   6.91305   1.86208   0.03095   1.005E+00   0.000E+00  -5.239E-03
 932  8.98159897   0.686  -1.71781   3.54331   6.91305   1.86205   0.03095   1.005E+00   0.000E+00  -5.217E-03
 933  8.98235945   0.686  -1.71780   3.54331   6.91304   1.86201   0.03094   1.005E+00   0.000E+00  -5.195E-03
 934  8.98311860   0.686  -1.71778   3.54331   6.91303   1.86198   0.03094   1.005E+00   0.000E+00  -5.173E-03
 935  8.98387643   0.686  -1.71777   3.54331   6.91303   1.86195   0.03093   1.005E+00   0.000E+00  -5.151E-03
 936  8.98463293   0.686  -1.71775   3.54331   6.91302   1.86191   0.03093   1.005E+00   0.000E+00  -5.130E-03
 937  8.98538813   0.686  -1.71774   3.54331   6.91301   1.86188   0.03092   1.005E+00   0.000E+00  -5.108E-03
 938  8.98614201   0.686  -1.71772   3.54331   6.91301   1.86184   0.03091   1.005E+00   0.000E+00  -5.086E-03
 939  8.98689458   0.686  -1.71771   3.54331   6.91300   1.86181   0.03091   1.005E+00   0.000E+00  -5.064E-03
 940  8.98764585   0.686  -1.71770   3.54331   6.91299   1.86178   0.03090   1.005E+00   0.000E+00  -5.042E-03
 941  8.98839583   0.686  -1.71768   3.54331   6.91299   1.86174   0.03090   1.005E+00   0.000E+00  -5.020E-03
 942  8.98914451   0.686  -1.71767   3.54330   6.91298   1.86171   0.03089   1.005E+00   0.000E+00  -4.998E-03
 943  8.98989190   0.686  -1.71765   3.54330   6.91298   1.86168   0.03089   1.005E+00   0.000E+00  -4.976E-03
 944  8.99063801   0.686  -1.71764   3.54330   6.91297   1.86164   0.03088   1.005E+00   0.000E+00  -4.954E-03
 945  8.99138284   0.686  -1.71762   3.54330   6.91296   1.86161   0.03088   1.005E+00   0.000E+00  -4.932E-03
 946  8.99212640   0.686  -1.71761   3.54330   6.91296   1.86157   0.03087   1.005E+00   0.000E+00  -4.910E-03
 947  8.99286868   0.686  -1.71760   3.54330   6.91295   1.86154   0.03087   1.005E+00   0.000E+00  -4.888E-03
 948  8.99360970   0.686  -1.71758   3.54330   6.91294   1.86151   0.03086   1.005E+00   0.000E+00  -4.866E-03
 949  8.99434946   0.686  -1.71757   3.54330   6.91294   1.86147   0.03086   1.005E+00   0.000E+00  -4.844E-03
 950  8.99508795   0.686  -1.71755   3.54330   6.91293   1.86144   0.03085   1.005E+00   0.000E+00  -4.822E-03
 951  8.99582520   0.686  -1.71754   3.54330   6.91292   1.86141   0.03085   1.005E+00   0.000E+00  -4.800E-03
 952  8.99656119   0.686  -1.71752   3.54330   6.91292   1.86137   0.03084   1.005E+00   0.000E+00  -4.778E-03
 953  8.99729594   0.686  -1.71751   3.54330   6.91291   1.86134   0.03084   1.005E+00   0.000E+00  -4.756E-03
 954  8.99802945   0.686  -1.71750   3.54330   6.91291   1.86131   0.03083   1.005E+00   0.000E+00  -4.734E-03
 955  8.99876172   0.686  -1.71748   3.54330   6.91290   1.86127   0.03083   1.004E+00   0.000E+00  -4.712E-03
 956  8.99949276   0.686  -1.71747   3.54330   6.91289   1.86124   0.03082   1.004E+00   0.000E+00  -4.690E-03
 957  9.00022257   0.686  -1.71745   3.54330   6.91289   1.86120   0.03082   1.004E+00   0.000E+00  -4.668E-03
 958  9.00095115   0.686  -1.71744   3.54330   6.91288   1.86117   0.03081   1.004E+00   0.000E+00  -4.646E-03
 959  9.00167852   0.686  -1.71742   3.54330   6.91287   1.86114   0.03081   1.004E+00   0.000E+00  -4.624E-03
 960  9.00240467   0.686  -1.71741   3.54330   6.91287   1.86110   0.03080   1.004E+00   0.000E+00  -4.602E-03
 961  9.00312961   0.686  -1.71740   3.54330   6.91286   1.86107   0.03080   1.004E+00   0.000E+00  -4.580E-03
 962  9.00385334   0.686  -1.71738   3.54329   6.91285   1.86104   0.03079   1.004E+00   0.000E+00  -4.558E-03
 963  9.00457586   0.686  -1.71737   3.54329   6.91285   1.86100   0.03079   1.004E+00   0.000E+00  -4.536E-03
 964  9.00529719   0.686  -1.71735   3.54329   6.91284   1.86097   0.03078   1.004E+00   0.000E+00  -4.515E-03
 965  9.00601732   0.686  -1.71734   3.54329   6.91283   1.86093   0.03078   1.004E+00   0.000E+00  -4.493E-03
 966  9.00673625   0.686  -1.71732   3.54329   6.91283   1.86090   0.03077   1.004E+00   0.000E+00  -4.471E-03
 967  9.00745400   0.686  -1.71731   3.54329   6.91282   1.86087   0.03077   1.004E+00   0.000E+00  -4.449E-03
 968  9.00817057   0.686  -1.71730   3.54329   6.91282   1.86083   0.03076   1.004E+00   0.000E+00  -4.427E-03
 969  9.00888595   0.685  -1.71728   3.54329   6.91281   1.86080   0.03076   1.004E+00   0.000E+00  -4.405E-03
 970  9.00960016   0.685  -1.71727   3.54329   6.91280   1.86077   0.03075   1.004E+00   0.000E+00  -4.383E-03
 971  9.01031319   0.685  -1.71725   3.54329   6.91280   1.86073   0.03074   1.004E+00   0.000E+00  -4.361E-03
 972  9.01102506   0.685  -1.71724   3.54329   6.91279   1.86070   0.03074   1.004E+00   0.000E+00  -4.339E-03
 973  9.01173576   0.685  -1.71723   3.54329   6.91279   1.86068   0.03073   1.004E+00   0.000E+00  -4.326E-03
 974  9.01244530   0.685  -1.71722   3.54329   6.91278   1.86066   0.03072   1.004E+00   0.000E+00  -4.312E-03
 975  9.01315369   0.685  -1.71721   3.54329   6.91278   1.86064   0.03071   1.004E+00   0.000E+00  -4.298E-03
 976  9.01386092   0.685  -1.71720   3.54329   6.91277   1.86063   0.03070   1.004E+00   0.000E+00  -4.284E-03
 977  9.01456700   0.685  -1.71719   3.54329   6.91277   1.86061   0.03069   1.004E+00   0.000E+00  -4.271E-03
 978  9.01527193   0.685  -1.71717   3.54329   6.91277   1.86059   0.03068   1.004E+00   0.000E+00  -4.257E-03
 979  9.01597572   0.685  -1.71716   3.54329   6.91276   1.86057   0.03067   1.004E+00   0.000E+00  -4.243E-03
 980  9.01667837   0.685  -1.71715   3.54329   6.91276   1.86055   0.03066   1.004E+00   0.000E+00  -4.230E-03
 981  9.01737989   0.685  -1.71714   3.54329   6.91276   1.86054   0.03065   1.004E+00   0.000E+00  -4.216E-03
 982  9.01808028   0.685  -1.71713   3.54329   6.91275   1.86052   0.03064   1.004E+00   0.000E+00  -4.202E-03
 983  9.01877953   0.685  -1.71712   3.54329   6.91275   1.86050   0.03063   1.004E+00   0.000E+00  -4.189E-03
 984  9.01947767   0.685  -1.71711   3.54329   6.91274   1.86048   0.03062   1.004E+00   0.000E+00  -4.175E-03
 985  9.02017468   0.685  -1.71710   3.54329   6.91274   1.86046   0.03061   1.004E+00   0.000E+00  -4.161E-03
 986  9.02087058   0.685  -1.71709   3.54329   6.91274   1.86045   0.03060   1.004E+00   0.000E+00  -4.148E-03
 987  9.02156536   0.685  -1.71708   3.54329   6.91273   1.86043   0.03059   1.004E+00   0.000E+00  -4.134E-03
 988  9.02225904   0.685  -1.71707   3.54329   6.91273   1.86041   0.03058   1.004E+00   0.000E+00  -4.120E-03
 989  9.02295161   0.685  -1.71706   3.54329   6.91273   1.86039   0.03057   1.004E+00   0.000E+00  -4.107E-03
 990  9.02364307   0.685  -1.71704   3.54329   6.91272   1.86037   0.03056   1.004E+00   0.000E+00  -4.093E-03
 991  9.02433344   0.685  -1.71703   3.54329   6.91272   1.86035   0.03055   1.004E+00   0.000E+00  -4.079E-03
 992  9.02502271   0.685  -1.71702   3.54328   6.91271   1.86034   0.03054   1.004E+00   0.000E+00  -4.065E-03
 993  9.02571089   0.685  -1.71701   3.54328   6.91271   1.86032   0.03053   1.004E+00   0.000E+00  -4.052E-03
 994  9.02639798   0.685  -1.71700   3.54328   6.91271   1.86030   0.03052   1.004E+00   0.000E+00  -4.038E-03
 995  9.02708398   0.685  -1.71699   3.54328   6.91270   1.86028   0.03051   1.004E+00   0.000E+00  -4.024E-03
 996  9.02776890   0.685  -1.71698   3.54328   6.91270   1.86026   0.03050   1.004E+00   0.000E+00  -4.011E-03
 997  9.02845275   0.685  -1.71697   3.54328   6.91270   1.86025   0.03049   1.004E+00   0.000E+00  -3.997E-03
 998  9.02913551   0.685  -1.71696   3.54328   6.91269   1.86023   0.03048   1.004E+00   0.000E+00  -3.983E-03
 999  9.02981721   0.685  -1.71695   3.54328   6.91269   1.86021   0.03047   1.004E+00   0.000E+00  -3.970E-03
1000  9.03049784   0.685  -1.71694   3.54328   6.91268   1.86019   0.03046   1.004E+00   0.000E+00  -3.956E-03
1001  9.03117740   0.685  -1.71693   3.54328   6.91268   1.86017   0.03045   1.004E+00   0.000E+00  -3.942E-03
1002  9.03185590   0.685  -1.71691   3.54328   6.91268   1.86015   0.03044   1.004E+00   0.000E+00  -3.929E-03
1003  9.03253335   0.685  -1.71690   3.54328   6.91267   1.86014   0.03043   1.004E+00   0.000E+00  -3.915E-03
1004  9.03320974   0.685  -1.71689   3.54328   6.91267   1.86012   0.03042   1.004E+00   0.000E+00  -3.901E-03
1005  9.03388507   0.685  -1.71688   3.54328   6.91267   1.86010   0.03042   1.004E+00   0.000E+00  -3.887E-03
1006  9.03455936   0.685  -1.71687   3.54328   6.91266   1.86008   0.03041   1.004E+00   0.000E+00  -3.874E-03
1007  9.03523260   0.685  -1.71686   3.54328   6.91266   1.86006   0.03040   1.004E+00   0.000E+00  -3.860E-03
1008  9.03590480   0.685  -1.71685   3.54328   6.91265   1.86005   0.03039   1.004E+00   0.000E+00  -3.846E-03
1009  9.03657597   0.685  -1.71684   3.54328   6.91265   1.86003   0.03038   1.004E+00   0.000E+00  -3.833E-03
1010  9.03724609   0.685  -1.71683   3.54328   6.91265   1.86001   0.03037   1.004E+00   0.000E+00  -3.819E-03
1011  9.03791519   0.685  -1.71682   3.54328   6.91264   1.85999   0.03036   1.004E+00   0.000E+00  -3.805E-03
1012  9.03858325   0.685  -1.71681   3.54328   6.91264   1.85997   0.03035   1.004E+00   0.000E+00  -3.792E-03
1013  9.03925029   0.685  -1.71680   3.54328   6.91263   1.85996   0.03034   1.004E+00   0.000E+00  -3.778E-03
1014  9.03991630   0.685  -1.71678   3.54328   6.91263   1.85994   0.03033   1.004E+00   0.000E+00  -3.764E-03
1015  9.04058130   0.685  -1.71677   3.54328   6.91263   1.85992   0.03032   1.004E+00   0.000E+00  -3.751E-03
1016  9.04124528   0.685  -1.71676   3.54328   6.91262   1.85990   0.03031   1.004E+00   0.000E+00  -3.737E-03
1017  9.04190825   0.685  -1.71675   3.54328   6.91262   1.85988   0.03030   1.004E+00   0.000E+00  -3.723E-03
1018  9.04257020   0.685  -1.71674   3.54328   6.91262   1.85986   0.03029   1.004E+00   0.000E+00  -3.709E-03
1019  9.04323115   0.685  -1.71673   3.54328   6.91261   1.85985   0.03028   1.004E+00   0.000E+00  -3.696E-03
1020  9.04389109   0.685  -1.71672   3.54328   6.91261   1.85983   0.03027   1.004E+00   0.000E+00  -3.682E-03
1021  9.04455003   0.685  -1.71671   3.54328   6.91260   1.85981   0.03026   1.004E+00   0.000E+00  -3.668E-03
1022  9.04520798   0.685  -1.71670   3.54328   6.91260   1.85979   0.03025   1.004E+00   0.000E+00  -3.655E-03
1023  9.04586492   0.685  -1.71669   3.54328   6.91260   1.85977   0.03024   1.004E+00   0.000E+00  -3.641E-03
1024  9.04652088   0.685  -1.71668   3.54328   6.91259   1.85976   0.03023   1.004E+00   0.000E+00  -3.627E-03
1025  9.04717585   0.685  -1.71667   3.54328   6.91259   1.85974   0.03022   1.004E+00   0.000E+00  -3.614E-03
1026  9.04782983   0.685  -1.71665   3.54328   6.91259   1.85972   0.03021   1.004E+00   0.000E+00  -3.600E-03
1027  9.04848283   0.685  -1.71664   3.54328   6.91258   1.85970   0.03020   1.004E+00   0.000E+00  -3.586E-03
1028  9.04913484   0.685  -1.71663   3.54328   6.91258   1.85968   0.03019   1.004E+00   0.000E+00  -3.573E-03
1029  9.04978588   0.685  -1.71662   3.54328   6.91257   1.85966   0.03018   1.004E+00   0.000E+00  -3.559E-03
1030  9.05043595   0.685  -1.71661   3.54328   6.91257   1.85965   0.03017   1.004E+00   0.000E+00  -3.545E-03
1031  9.05108504   0.685  -1.71660   3.54328   6.91257   1.85963   0.03016   1.004E+00   0.000E+00  -3.531E-03
1032  9.05173316   0.685  -1.71659   3.54327   6.91256   1.85961   0.03015   1.003E+00   0.000E+00  -3.518E-03
1033  9.05238032   0.685  -1.71658   3.54327   6.91256   1.85959   0.03014   1.003E+00   0.000E+00  -3.504E-03
1034  9.05302652   0.685  -1.71657   3.54327   6.91256   1.85957   0.03013   1.003E+00   0.000E+00  -3.490E-03
1035  9.05367176   0.685  -1.71656   3.54327   6.91255   1.85956   0.03012   1.003E+00   0.000E+00  -3.477E-03
1036  9.05431603   0.685  -1.71655   3.54327   6.91255   1.85954   0.03011   1.003E+00   0.000E+00  -3.463E-03
1037  9.05495936   0.685  -1.71654   3.54327   6.91254   1.85952   0.03010   1.003E+00   0.000E+00  -3.449E-03
1038  9.05560173   0.685  -1.71652   3.54327   6.91254   1.85950   0.03009   1.003E+00   0.000E+00  -3.436E-03
1039  9.05624316   0.685  -1.71651   3.54327   6.91254   1.85948   0.03008   1.003E+00   0.000E+00  -3.422E-03
1040  9.05688363   0.685  -1.71650   3.54327   6.91253   1.85947   0.03007   1.003E+00   0.000E+00  -3.408E-03
1041  9.05752317   0.685  -1.71649   3.54327   6.91253   1.85945   0.03006   1.003E+00   0.000E+00  -3.395E-03
1042  9.05816176   0.685  -1.71648   3.54327   6.91253   1.85943   0.03005   1.003E+00   0.000E+00  -3.381E-03
1043  9.05879942   0.685  -1.71647   3.54327   6.91252   1.85941   0.03004   1.003E+00   0.000E+00  -3.367E-03
1044  9.05943614   0.685  -1.71646   3.54327   6.91252   1.85939   0.03003   1.003E+00   0.000E+00  -3.353E-03
1045  9.06007193   0.685  -1.71645   3.54327   6.91251   1.85937   0.03002   1.003E+00   0.000E+00  -3.340E-03
1046  9.06070679   0.685  -1.71644   3.54327   6.91251   1.85936   0.03001   1.003E+00   0.000E+00  -3.326E-03
1047  9.06134073   0.685  -1.71643   3.54327   6.91251   1.85934   0.03000   1.003E+00   0.000E+00  -3.312E-03
1048  9.06197374   0.685  -1.71642   3.54327   6.91250   1.85932   0.02999   1.003E+00   0.000E+00  -3.299E-03
1049  9.06260582   0.685  -1.71641   3.54327   6.91250   1.85930   0.02998   1.003E+00   0.000E+00  -3.285E-03
1050  9.06323699   0.685  -1.71639   3.54327   6.91249   1.85928   0.02997   1.003E+00   0.000E+00  -3.271E-03
1051  9.06386725   0.685  -1.71638   3.54327   6.91249   1.85927   0.02996   1.003E+00   0.000E+00  -3.258E-03
1052  9.06449659   0.685  -1.71637   3.54327   6.91249   1.85925   0.02995   1.003E+00   0.000E+00  -3.244E-03
1053  9.06512502   0.685  -1.71636   3.54327   6.91248   1.85923   0.02994   1.003E+00   0.000E+00  -3.230E-03
1054  9.06575254   0.685  -1.71635   3.54327   6.91248   1.85921   0.02993   1.003E+00   0.000E+00  -3.217E-03
1055  9.06637916   0.685  -1.71634   3.54327   6.91248   1.85919   0.02992   1.003E+00   0.000E+00  -3.203E-03
1056  9.06700487   0.685  -1.71633   3.54327   6.91247   1.85918   0.02991   1.003E+00   0.000E+00  -3.189E-03
1057  9.06762968   0.685  -1.71632   3.54327   6.91247   1.85916   0.02990   1.003E+00   0.000E+00  -3.176E-03
1058  9.06825360   0.685  -1.71631   3.54327   6.91246   1.85914   0.02989   1.003E+00   0.000E+00  -3.162E-03
1059  9.06887662   0.685  -1.71630   3.54327   6.91246   1.85912   0.02988   1.003E+00   0.000E+00  -3.148E-03
1060  9.06949875   0.685  -1.71629   3.54327   6.91246   1.85910   0.02987   1.003E+00   0.000E+00  -3.134E-03
1061  9.07011999   0.685  -1.71628   3.54327   6.91245   1.85908   0.02986   1.003E+00   0.000E+00  -3.121E-03
1062  9.07074034   0.685  -1.71626   3.54327   6.91245   1.85907   0.02985   1.003E+00   0.000E+00  -3.107E-03
1063  9.07135980   0.685  -1.71625   3.54327   6.91245   1.85905   0.02985   1.003E+00   0.000E+00  -3.093E-03
1064  9.07197839   0.685  -1.71624   3.54327   6.91244   1.85903   0.02984   1.003E+00   0.000E+00  -3.080E-03
1065  9.07259609   0.685  -1.71623   3.54327   6.91244   1.85901   0.02983   1.003E+00   0.000E+00  -3.066E-03
1066  9.07321292   0.685  -1.71622   3.54327   6.91243   1.85899   0.02982   1.003E+00   0.000E+00  -3.052E-03
1067  9.07382887   0.685  -1.71621   3.54327   6.91243   1.85898   0.02981   1.003E+00   0.000E+00  -3.039E-03
1068  9.07444395   0.685  -1.71620   3.54327   6.91243   1.85896   0.02980   1.003E+00   0.000E+00  -3.025E-03
1069  9.07505816   0.685  -1.71619   3.54327   6.91242   1.85894   0.02979   1.003E+00   0.000E+00  -3.011E-03
1070  9.07567150   0.685  -1.71618   3.54327   6.91242   1.85892   0.02978   1.003E+00   0.000E+00  -2.998E-03
1071  9.07628398   0.685  -1.71617   3.54327   6.91242   1.85890   0.02977   1.003E+00   0.000E+00  -2.984E-03
1072  9.07689559   0.684  -1.71616   3.54326   6.91241   1.85888   0.02976   1.003E+00   0.000E+00  -2.970E-03
1073  9.07750635   0.684  -1.71615   3.54326   6.91241   1.85887   0.02975   1.003E+00   0.000E+00  -2.956E-03
1074  9.07811625   0.684  -1.71613   3.54326   6.91240   1.85885   0.02974   1.003E+00   0.000E+00  -2.943E-03
1075  9.07872529   0.684  -1.71612   3.54326   6.91240   1.85883   0.02973   1.003E+00   0.000E+00  -2.929E-03
1076  9.07933348   0.684  -1.71611   3.54326   6.91240   1.85881   0.02972   1.003E+00   0.000E+00  -2.915E-03
1077  9.07994081   0.684  -1.71610   3.54326   6.91239   1.85879   0.02971   1.003E+00   0.000E+00  -2.902E-03
1078  9.08054730   0.684  -1.71609   3.54326   6.91239   1.85878   0.02970   1.003E+00   0.000E+00  -2.888E-03
1079  9.08115295   0.684  -1.71608   3.54326   6.91239   1.85876   0.02969   1.003E+00   0.000E+00  -2.874E-03
1080  9.08175775   0.684  -1.71607   3.54326   6.91238   1.85874   0.02968   1.003E+00   0.000E+00  -2.861E-03
1081  9.08236171   0.684  -1.71606   3.54326   6.91238   1.85872   0.02967   1.003E+00   0.000E+00  -2.847E-03
1082  9.08296483   0.684  -1.71605   3.54326   6.91237   1.85870   0.02966   1.003E+00   0.000E+00  -2.833E-03
1083  9.08356711   0.684  -1.71604   3.54326   6.91237   1.85869   0.02965   1.003E+00   0.000E+00  -2.820E-03
1084  9.08416856   0.684  -1.71603   3.54326   6.91237   1.85867   0.02964   1.003E+00   0.000E+00  -2.806E-03
1085  9.08476918   0.684  -1.71602   3.54326   6.91236   1.85865   0.02963   1.003E+00   0.000E+00  -2.792E-03
1086  9.08536897   0.684  -1.71600   3.54326   6.91236   1.85863   0.02962   1.003E+00   0.000E+00  -2.778E-03
1087  9.08596793   0.684  -1.71599   3.54326   6.91236   1.85861   0.02961   1.003E+00   0.000E+00  -2.765E-03
1088  9.08656607   0.684  -1.71598   3.54326   6.91235   1.85859   0.02960   1.003E+00   0.000E+00  -2.751E-03
1089  9.08716339   0.684  -1.71597   3.54326   6.91235   1.85858   0.02959   1.003E+00   0.000E+00  -2.737E-03
1090  9.08775988   0.684  -1.71596   3.54326   6.91234   1.85856   0.02958   1.003E+00   0.000E+00  -2.724E-03
1091  9.08835556   0.684  -1.71595   3.54326   6.91234   1.85854   0.02957   1.003E+00   0.000E+00  -2.710E-03
