 # M = 0.60 Mo, Y = 0.2880, Z = 2.00000E-02, alpha = 1.68, X_D = 2.0E-05
 # Solar Mixture: Asplund et al. (2005)         
 # ------------------------------------------------------------------------------------------------------------
 # NMD   LOG AGE    Xc      LOG L     LOG TE    LOG Tc   LOG RHOc    M-CC       L-PP       L-CNO       L-GRA
 #        (yr)              (Lo)        (K)       (K)   (gr/cm^3)    (Mo)        (L)         (L)         (L)
 # ------------------------------------------------------------------------------------------------------------
   1  4.94413846   0.692   0.57148   3.60603   6.09151  -1.03908   0.00000   8.750E-01   0.000E+00   1.250E-01
   2  5.06077544   0.692   0.56345   3.60609   6.09549  -1.02711   0.00000   8.813E-01   0.000E+00   1.187E-01
   3  5.15262715   0.692   0.55596   3.60614   6.09921  -1.01596   0.00000   8.878E-01   0.000E+00   1.123E-01
   4  5.22840316   0.692   0.54923   3.60618   6.10253  -1.00596   0.00000   8.945E-01   0.000E+00   1.058E-01
   5  5.29290119   0.692   0.54251   3.60622   6.10585  -0.99600   0.00000   9.010E-01   0.000E+00   9.935E-02
   6  5.34904746   0.692   0.53646   3.60625   6.10884  -0.98702   0.00000   9.027E-01   0.000E+00   9.753E-02
   7  5.39875901   0.692   0.53040   3.60629   6.11183  -0.97805   0.00000   9.044E-01   0.000E+00   9.572E-02
   8  5.44336028   0.692   0.52435   3.60632   6.11481  -0.96909   0.00000   9.059E-01   0.000E+00   9.406E-02
   9  5.48380466   0.692   0.51837   3.60635   6.11774  -0.96029   0.00000   9.047E-01   0.000E+00   9.521E-02
  10  5.52080139   0.692   0.51239   3.60637   6.12067  -0.95149   0.00000   9.035E-01   0.000E+00   9.636E-02
  11  5.55489236   0.692   0.50640   3.60639   6.12360  -0.94269   0.00000   9.023E-01   0.000E+00   9.751E-02
  12  5.58650095   0.692   0.50016   3.60641   6.12666  -0.93352   0.00000   8.993E-01   0.000E+00   1.005E-01
  13  5.61596427   0.692   0.49383   3.60643   6.12975  -0.92422   0.00000   8.957E-01   0.000E+00   1.042E-01
  14  5.64355511   0.692   0.48750   3.60645   6.13285  -0.91491   0.00000   8.921E-01   0.000E+00   1.078E-01
  15  5.66949732   0.692   0.48084   3.60646   6.13609  -0.90517   0.00000   8.872E-01   0.000E+00   1.128E-01
  16  5.69397685   0.692   0.47371   3.60647   6.13955  -0.89478   0.00000   8.802E-01   0.000E+00   1.198E-01
  17  5.71714987   0.692   0.46658   3.60648   6.14301  -0.88439   0.00000   8.732E-01   0.000E+00   1.268E-01
  18  5.73914882   0.692   0.45916   3.60648   6.14661  -0.87357   0.00000   8.650E-01   0.000E+00   1.350E-01
  19  5.76008694   0.692   0.45086   3.60648   6.15063  -0.86148   0.00000   8.528E-01   0.000E+00   1.472E-01
  20  5.78006186   0.692   0.44256   3.60649   6.15466  -0.84939   0.00000   8.407E-01   0.000E+00   1.593E-01
  21  5.79915830   0.692   0.43351   3.60648   6.15901  -0.83629   0.00000   8.253E-01   0.000E+00   1.747E-01
  22  5.81745031   0.692   0.42353   3.60645   6.16379  -0.82194   0.00000   8.058E-01   0.000E+00   1.942E-01
  23  5.83500291   0.692   0.41348   3.60642   6.16860  -0.80749   0.00000   7.859E-01   0.000E+00   2.141E-01
  24  5.85187357   0.692   0.40149   3.60637   6.17432  -0.79031   0.00000   7.540E-01   0.000E+00   2.460E-01
  25  5.86811330   0.692   0.38944   3.60633   6.18008  -0.77303   0.00000   7.216E-01   0.000E+00   2.784E-01
  26  5.88376760   0.692   0.37522   3.60626   6.18683  -0.75271   0.00000   6.742E-01   0.000E+00   3.258E-01
  27  5.89887722   0.692   0.36013   3.60616   6.19397  -0.73125   0.00000   6.208E-01   0.000E+00   3.792E-01
  28  5.91347878   0.692   0.34350   3.60603   6.20177  -0.70780   0.00000   5.568E-01   0.000E+00   4.432E-01
  29  5.92760534   0.692   0.32487   3.60585   6.21048  -0.68163   0.00000   4.769E-01   0.000E+00   5.231E-01
  30  5.94128683   0.692   0.30479   3.60563   6.21983  -0.65358   0.00000   3.901E-01   0.000E+00   6.099E-01
  31  5.95455045   0.692   0.28343   3.60536   6.22974  -0.62389   0.00000   3.009E-01   0.000E+00   6.991E-01
  32  5.96742097   0.692   0.26115   3.60504   6.23997  -0.59322   0.00000   2.170E-01   0.000E+00   7.830E-01
  33  5.97992102   0.692   0.23851   3.60468   6.25030  -0.56221   0.00000   1.458E-01   0.000E+00   8.542E-01
  34  5.99207133   0.692   0.21602   3.60426   6.26049  -0.53165   0.00000   9.224E-02   0.000E+00   9.078E-01
  35  6.00389094   0.692   0.19418   3.60382   6.27027  -0.50226   0.00000   5.572E-02   0.000E+00   9.443E-01
  36  6.01539737   0.692   0.17323   3.60337   6.27962  -0.47420   0.00000   3.253E-02   0.000E+00   9.675E-01
  37  6.02660680   0.692   0.15318   3.60290   6.28850  -0.44758   0.00000   1.879E-02   0.000E+00   9.812E-01
  38  6.03753417   0.692   0.13425   3.60244   6.29684  -0.42254   0.00000   1.161E-02   0.000E+00   9.884E-01
  39  6.04819333   0.692   0.11616   3.60196   6.30472  -0.39887   0.00000   7.321E-03   0.000E+00   9.927E-01
  40  6.05859714   0.692   0.09900   3.60150   6.31217  -0.37644   0.00000   4.729E-03   0.000E+00   9.953E-01
  41  6.06875752   0.692   0.08259   3.60102   6.31926  -0.35514   0.00000   3.000E-03   0.000E+00   9.970E-01
  42  6.10757792   0.692   0.02379   3.59921   6.34442  -0.27953   0.00000   0.000E+00   0.000E+00   1.000E+00
  43  6.14321121   0.692  -0.02587   3.59756   6.36545  -0.21626   0.00000   0.000E+00   0.000E+00   1.000E+00
  44  6.17614124   0.692  -0.06890   3.59608   6.38358  -0.16175   0.00000   0.000E+00   0.000E+00   1.000E+00
  45  6.20674939   0.692  -0.10655   3.59477   6.39943  -0.11410   0.00000   0.000E+00   0.000E+00   1.000E+00
  46  6.23534164   0.692  -0.14000   3.59360   6.41351  -0.07176   0.00000   0.000E+00   0.000E+00   1.000E+00
  47  6.26216720   0.692  -0.17021   3.59253   6.42619  -0.03361   0.00000   0.000E+00   0.000E+00   1.000E+00
  48  6.28743175   0.692  -0.19780   3.59155   6.43778   0.00124   0.00000   0.000E+00   0.000E+00   1.000E+00
  49  6.31130702   0.692  -0.22295   3.59067   6.44837   0.03308   0.00000   0.000E+00   0.000E+00   1.000E+00
  50  6.33393786   0.692  -0.24616   3.58986   6.45814   0.06249   0.00000   0.000E+00   0.000E+00   1.000E+00
  51  6.35544761   0.692  -0.26775   3.58910   6.46723   0.08987   0.00000   0.000E+00   0.000E+00   1.000E+00
  52  6.37594210   0.692  -0.28789   3.58840   6.47574   0.11545   0.00000   0.000E+00   0.000E+00   1.000E+00
  53  6.39551288   0.692  -0.30677   3.58774   6.48370   0.13944   0.00000   0.000E+00   0.000E+00   1.000E+00
  54  6.41423963   0.692  -0.32451   3.58714   6.49121   0.16202   0.00000   0.000E+00   0.000E+00   1.000E+00
  55  6.43219215   0.692  -0.34126   3.58656   6.49830   0.18336   0.00000   0.000E+00   0.000E+00   1.000E+00
  56  6.44943193   0.692  -0.35714   3.58602   6.50502   0.20362   0.00000   0.000E+00   0.000E+00   1.000E+00
  57  6.46601341   0.692  -0.37226   3.58551   6.51143   0.22293   0.00000   0.000E+00   0.000E+00   1.000E+00
  58  6.48198502   0.692  -0.38665   3.58503   6.51754   0.24133   0.00000   0.000E+00   0.000E+00   1.000E+00
  59  6.49739003   0.692  -0.40020   3.58458   6.52331   0.25870   0.00000   0.000E+00   0.000E+00   1.000E+00
  60  6.51226727   0.692  -0.41326   3.58415   6.52888   0.27544   0.00000   0.000E+00   0.000E+00   1.000E+00
  61  6.52665171   0.692  -0.42590   3.58373   6.53426   0.29165   0.00000   0.000E+00   0.000E+00   1.000E+00
  62  6.54057495   0.692  -0.43777   3.58336   6.53934   0.30694   0.00000   0.000E+00   0.000E+00   1.000E+00
  63  6.55406565   0.692  -0.44930   3.58299   6.54427   0.32180   0.00000   0.000E+00   0.000E+00   1.000E+00
  64  6.56714988   0.692  -0.46045   3.58264   6.54905   0.33618   0.00000   0.000E+00   0.000E+00   1.000E+00
  65  6.57985142   0.692  -0.47104   3.58231   6.55360   0.34988   0.00000   0.000E+00   0.000E+00   1.000E+00
  66  6.59219201   0.692  -0.48149   3.58198   6.55809   0.36340   0.00000   0.000E+00   0.000E+00   1.000E+00
  67  6.60419161   0.692  -0.49129   3.58168   6.56231   0.37612   0.00000   0.000E+00   0.000E+00   1.000E+00
  68  6.61586855   0.692  -0.50104   3.58138   6.56651   0.38877   0.00000   0.000E+00   0.000E+00   1.000E+00
  69  6.62723973   0.692  -0.51022   3.58110   6.57047   0.40073   0.00000   0.000E+00   0.000E+00   1.000E+00
  70  6.63832077   0.692  -0.51937   3.58083   6.57442   0.41265   0.00000   0.000E+00   0.000E+00   1.000E+00
  71  6.64912609   0.692  -0.52799   3.58057   6.57815   0.42389   0.00000   0.000E+00   0.000E+00   1.000E+00
  72  6.65966909   0.692  -0.53660   3.58032   6.58188   0.43512   0.00000   0.000E+00   0.000E+00   1.000E+00
  73  6.66996219   0.692  -0.54475   3.58008   6.58542   0.44577   0.00000   0.000E+00   0.000E+00   1.000E+00
  74  6.68001698   0.692  -0.55281   3.57985   6.58892   0.45632   0.00000   0.000E+00   0.000E+00   1.000E+00
  75  6.68984424   0.692  -0.56061   3.57962   6.59231   0.46653   0.00000   0.000E+00   0.000E+00   1.000E+00
  76  6.69945404   0.692  -0.56818   3.57941   6.59560   0.47646   0.00000   0.000E+00   0.000E+00   1.000E+00
  77  6.70885580   0.692  -0.57572   3.57920   6.59888   0.48634   0.00000   0.000E+00   0.000E+00   1.000E+00
  78  6.71805832   0.692  -0.58282   3.57900   6.60197   0.49567   0.00000   0.000E+00   0.000E+00   1.000E+00
  79  6.72706989   0.692  -0.58991   3.57880   6.60507   0.50500   0.00000   0.000E+00   0.000E+00   1.000E+00
  80  6.73589827   0.692  -0.59682   3.57861   6.60808   0.51410   0.00000   0.000E+00   0.000E+00   1.000E+00
  81  6.74455075   0.692  -0.60349   3.57842   6.61099   0.52287   0.00000   0.000E+00   0.000E+00   1.000E+00
  82  6.75303421   0.692  -0.61015   3.57824   6.61390   0.53163   0.00000   0.000E+00   0.000E+00   1.000E+00
  83  6.76135512   0.692  -0.61657   3.57806   6.61669   0.54010   0.00000   0.000E+00   0.000E+00   1.000E+00
  84  6.76951960   0.692  -0.62281   3.57789   6.61940   0.54836   0.00000   0.000E+00   0.000E+00   1.000E+00
  85  6.77753342   0.692  -0.62905   3.57772   6.62211   0.55662   0.00000   0.000E+00   0.000E+00   1.000E+00
  86  6.78540204   0.692  -0.63506   3.57756   6.62468   0.56463   0.00000   0.000E+00   0.000E+00   1.000E+00
  87  6.79313063   0.692  -0.64092   3.57740   6.62715   0.57248   0.00000   0.000E+00   0.000E+00   1.000E+00
  88  6.80072409   0.692  -0.64678   3.57724   6.62962   0.58034   0.00000   0.000E+00   0.000E+00   1.000E+00
  89  6.80818705   0.692  -0.65249   3.57709   6.63201   0.58803   0.00000   0.000E+00   0.000E+00   1.000E+00
  90  6.81552394   0.692  -0.65799   3.57695   6.63428   0.59548   0.00000   0.000E+00   0.000E+00   1.000E+00
  91  6.82273893   0.692  -0.66348   3.57680   6.63654   0.60293   0.00000   0.000E+00   0.000E+00   1.000E+00
  92  6.82983601   0.692  -0.66898   3.57665   6.63881   0.61038   0.00000   0.000E+00   0.000E+00   1.000E+00
  93  6.83681898   0.692  -0.67413   3.57652   6.64089   0.61747   0.00000   0.000E+00   0.000E+00   1.000E+00
  94  6.84369145   0.692  -0.67928   3.57638   6.64297   0.62455   0.00000   0.000E+00   0.000E+00   1.000E+00
  95  6.85045685   0.692  -0.68443   3.57624   6.64504   0.63163   0.00000   0.000E+00   0.000E+00   1.000E+00
  96  6.85711848   0.692  -0.68947   3.57611   6.64706   0.63859   0.00000   0.000E+00   0.000E+00   1.000E+00
  97  6.86367947   0.692  -0.69430   3.57598   6.64897   0.64532   0.00000   0.000E+00   0.000E+00   1.000E+00
  98  6.87014281   0.692  -0.69913   3.57586   6.65088   0.65205   0.00000   0.000E+00   0.000E+00   1.000E+00
  99  6.87651137   0.692  -0.70395   3.57574   6.65279   0.65878   0.00000   0.000E+00   0.000E+00   1.000E+00
 100  6.88278789   0.692  -0.70864   3.57562   6.65462   0.66535   0.00000   0.000E+00   0.000E+00   1.000E+00
 101  6.88897499   0.692  -0.71316   3.57550   6.65638   0.67175   0.00000   0.000E+00   0.000E+00   1.000E+00
 102  6.89507519   0.692  -0.71768   3.57539   6.65813   0.67814   0.00000   0.000E+00   0.000E+00   1.000E+00
 103  6.90109088   0.692  -0.72220   3.57527   6.65988   0.68453   0.00000   0.000E+00   0.000E+00   1.000E+00
 104  6.90702439   0.692  -0.72663   3.57516   6.66159   0.69083   0.00000   0.000E+00   0.000E+00   1.000E+00
 105  6.91287792   0.692  -0.73085   3.57505   6.66321   0.69691   0.00000   0.000E+00   0.000E+00   1.000E+00
 106  6.91865360   0.692  -0.73508   3.57494   6.66482   0.70299   0.00000   0.000E+00   0.000E+00   1.000E+00
 107  6.92435348   0.692  -0.73931   3.57484   6.66644   0.70907   0.00000   0.000E+00   0.000E+00   1.000E+00
 108  6.92997952   0.692  -0.74353   3.57473   6.66805   0.71515   0.00000   0.000E+00   0.000E+00   1.000E+00
 109  6.93553361   0.692  -0.74752   3.57463   6.66955   0.72096   0.00000   0.000E+00   0.000E+00   1.000E+00
 110  6.94101756   0.692  -0.75147   3.57454   6.67104   0.72674   0.00000   0.000E+00   0.000E+00   1.000E+00
 111  6.94643313   0.692  -0.75542   3.57444   6.67252   0.73252   0.00000   0.000E+00   0.000E+00   1.000E+00
 112  6.95178200   0.692  -0.75938   3.57434   6.67401   0.73830   0.00000   0.000E+00   0.000E+00   1.000E+00
 113  6.95706579   0.692  -0.76329   3.57425   6.67548   0.74403   0.00000   0.000E+00   0.000E+00   1.000E+00
 114  6.96228607   0.692  -0.76698   3.57416   6.67685   0.74953   0.00000   0.000E+00   0.000E+00   1.000E+00
 115  6.96744435   0.692  -0.77067   3.57407   6.67822   0.75503   0.00000   0.000E+00   0.000E+00   1.000E+00
 116  6.97254207   0.692  -0.77436   3.57398   6.67959   0.76053   0.00000   0.000E+00   0.000E+00   1.000E+00
 117  6.97758066   0.692  -0.77804   3.57389   6.68097   0.76602   0.00000   0.000E+00   0.000E+00   1.000E+00
 118  6.98256146   0.692  -0.78171   3.57380   6.68233   0.77149   0.00000   1.709E-05   0.000E+00   1.000E+00
 119  6.98748578   0.692  -0.78515   3.57372   6.68359   0.77672   0.00000   2.015E-04   0.000E+00   9.998E-01
 120  6.99235489   0.692  -0.78860   3.57364   6.68486   0.78195   0.00000   3.860E-04   0.000E+00   9.996E-01
 121  6.99717001   0.692  -0.79204   3.57356   6.68612   0.78718   0.00000   5.704E-04   0.000E+00   9.994E-01
 122  7.00193234   0.692  -0.79548   3.57348   6.68739   0.79241   0.00000   7.549E-04   0.000E+00   9.992E-01
 123  7.00664301   0.692  -0.79893   3.57340   6.68865   0.79764   0.00000   9.393E-04   0.000E+00   9.991E-01
 124  7.01130313   0.692  -0.80221   3.57332   6.68986   0.80270   0.00000   1.000E-03   0.000E+00   9.990E-01
 125  7.01591377   0.692  -0.80541   3.57325   6.69103   0.80767   0.00000   1.000E-03   0.000E+00   9.990E-01
 126  7.02047599   0.692  -0.80861   3.57318   6.69220   0.81265   0.00000   1.000E-03   0.000E+00   9.990E-01
 127  7.02499077   0.692  -0.81182   3.57311   6.69337   0.81762   0.00000   1.000E-03   0.000E+00   9.990E-01
 128  7.02945910   0.692  -0.81502   3.57304   6.69455   0.82259   0.00000   1.000E-03   0.000E+00   9.990E-01
 129  7.03388193   0.692  -0.81822   3.57297   6.69572   0.82757   0.00000   1.000E-03   0.000E+00   9.990E-01
 130  7.03826017   0.692  -0.82124   3.57290   6.69682   0.83233   0.00000   1.000E-03   0.000E+00   9.990E-01
 131  7.04259471   0.692  -0.82422   3.57284   6.69791   0.83706   0.00000   1.000E-03   0.000E+00   9.990E-01
 132  7.04688641   0.692  -0.82720   3.57277   6.69900   0.84179   0.00000   1.000E-03   0.000E+00   9.990E-01
 133  7.05113612   0.692  -0.83019   3.57271   6.70009   0.84652   0.00000   1.000E-03   0.000E+00   9.990E-01
 134  7.05534465   0.692  -0.83317   3.57264   6.70117   0.85125   0.00000   1.000E-03   0.000E+00   9.990E-01
 135  7.05951279   0.692  -0.83616   3.57258   6.70226   0.85598   0.00000   1.000E-03   0.000E+00   9.990E-01
 136  7.06364130   0.692  -0.83901   3.57251   6.70330   0.86057   0.00000   1.000E-03   0.000E+00   9.990E-01
 137  7.06773094   0.692  -0.84177   3.57246   6.70432   0.86506   0.00000   1.000E-03   0.000E+00   9.990E-01
 138  7.07178242   0.692  -0.84454   3.57240   6.70533   0.86956   0.00000   1.000E-03   0.000E+00   9.990E-01
 139  7.07579646   0.692  -0.84730   3.57234   6.70634   0.87405   0.00000   1.000E-03   0.000E+00   9.990E-01
 140  7.07977373   0.692  -0.85007   3.57229   6.70735   0.87855   0.00000   1.000E-03   0.000E+00   9.990E-01
 141  7.08371491   0.692  -0.85283   3.57223   6.70836   0.88305   0.00000   1.000E-03   0.000E+00   9.990E-01
 142  7.08762065   0.692  -0.85560   3.57217   6.70938   0.88754   0.00000   1.000E-03   0.000E+00   9.990E-01
 143  7.09149158   0.692  -0.85818   3.57213   6.71032   0.89184   0.00000   1.000E-03   0.000E+00   9.990E-01
 144  7.09532830   0.692  -0.86074   3.57208   6.71127   0.89611   0.00000   1.000E-03   0.000E+00   9.990E-01
 145  7.09913143   0.692  -0.86331   3.57203   6.71221   0.90039   0.00000   1.000E-03   0.000E+00   9.990E-01
 146  7.10290155   0.692  -0.86587   3.57198   6.71315   0.90466   0.00000   1.000E-03   0.000E+00   9.990E-01
 147  7.10663921   0.692  -0.86844   3.57193   6.71410   0.90894   0.00000   1.000E-03   0.000E+00   9.990E-01
 148  7.11034499   0.692  -0.87100   3.57188   6.71504   0.91321   0.00000   1.000E-03   0.000E+00   9.990E-01
 149  7.11401941   0.692  -0.87357   3.57184   6.71598   0.91749   0.00000   1.000E-03   0.000E+00   9.990E-01
 150  7.11766300   0.692  -0.87600   3.57179   6.71688   0.92162   0.00000   1.088E-03   0.000E+00   9.989E-01
 151  7.12127628   0.692  -0.87837   3.57175   6.71775   0.92568   0.00000   1.216E-03   0.000E+00   9.988E-01
 152  7.12485974   0.692  -0.88074   3.57171   6.71863   0.92974   0.00000   1.344E-03   0.000E+00   9.987E-01
 153  7.12841388   0.692  -0.88311   3.57166   6.71951   0.93380   0.00000   1.472E-03   0.000E+00   9.985E-01
 154  7.13193917   0.692  -0.88548   3.57162   6.72038   0.93786   0.00000   1.601E-03   0.000E+00   9.984E-01
 155  7.13543607   0.692  -0.88785   3.57158   6.72126   0.94193   0.00000   1.729E-03   0.000E+00   9.983E-01
 156  7.13890504   0.692  -0.89022   3.57154   6.72213   0.94599   0.00000   1.857E-03   0.000E+00   9.981E-01
 157  7.14234652   0.692  -0.89259   3.57149   6.72301   0.95005   0.00000   1.985E-03   0.000E+00   9.980E-01
 158  7.14576095   0.692  -0.89479   3.57146   6.72383   0.95392   0.00000   2.000E-03   0.000E+00   9.980E-01
 159  7.14914874   0.692  -0.89698   3.57142   6.72463   0.95777   0.00000   2.000E-03   0.000E+00   9.980E-01
 160  7.15251030   0.692  -0.89916   3.57139   6.72544   0.96162   0.00000   2.000E-03   0.000E+00   9.980E-01
 161  7.15584605   0.692  -0.90135   3.57136   6.72625   0.96547   0.00000   2.000E-03   0.000E+00   9.980E-01
 162  7.15915637   0.692  -0.90353   3.57132   6.72706   0.96931   0.00000   2.000E-03   0.000E+00   9.980E-01
 163  7.16244165   0.692  -0.90572   3.57129   6.72787   0.97316   0.00000   2.000E-03   0.000E+00   9.980E-01
 164  7.16570226   0.692  -0.90790   3.57125   6.72868   0.97701   0.00000   2.000E-03   0.000E+00   9.980E-01
 165  7.16893858   0.692  -0.91009   3.57122   6.72949   0.98086   0.00000   2.000E-03   0.000E+00   9.980E-01
 166  7.17215095   0.692  -0.91219   3.57119   6.73028   0.98461   0.00000   2.055E-03   0.000E+00   9.979E-01
 167  7.17533975   0.692  -0.91419   3.57116   6.73104   0.98828   0.00000   2.168E-03   0.000E+00   9.978E-01
 168  7.17850529   0.692  -0.91620   3.57113   6.73180   0.99195   0.00000   2.280E-03   0.000E+00   9.977E-01
 169  7.18164793   0.692  -0.91820   3.57111   6.73256   0.99562   0.00000   2.393E-03   0.000E+00   9.976E-01
 170  7.18476800   0.692  -0.92021   3.57108   6.73332   0.99929   0.00000   2.505E-03   0.000E+00   9.975E-01
 171  7.18786580   0.692  -0.92222   3.57105   6.73409   1.00295   0.00000   2.618E-03   0.000E+00   9.974E-01
 172  7.19094167   0.692  -0.92422   3.57102   6.73485   1.00662   0.00000   2.730E-03   0.000E+00   9.973E-01
 173  7.19399591   0.692  -0.92623   3.57100   6.73561   1.01029   0.00000   2.842E-03   0.000E+00   9.972E-01
 174  7.19702882   0.692  -0.92823   3.57097   6.73637   1.01396   0.00000   2.955E-03   0.000E+00   9.970E-01
 175  7.20004069   0.692  -0.93014   3.57095   6.73711   1.01752   0.00000   3.000E-03   0.000E+00   9.970E-01
 176  7.20303182   0.692  -0.93198   3.57093   6.73782   1.02100   0.00000   3.000E-03   0.000E+00   9.970E-01
 177  7.20600249   0.692  -0.93382   3.57090   6.73853   1.02449   0.00000   3.000E-03   0.000E+00   9.970E-01
 178  7.20895297   0.692  -0.93567   3.57088   6.73925   1.02797   0.00000   3.000E-03   0.000E+00   9.970E-01
 179  7.21188355   0.692  -0.93751   3.57086   6.73996   1.03146   0.00000   3.000E-03   0.000E+00   9.970E-01
 180  7.21479449   0.692  -0.93935   3.57084   6.74068   1.03495   0.00000   3.000E-03   0.000E+00   9.970E-01
 181  7.21768604   0.692  -0.94119   3.57082   6.74139   1.03843   0.00000   3.000E-03   0.000E+00   9.970E-01
 182  7.22055847   0.692  -0.94303   3.57080   6.74210   1.04192   0.00000   3.000E-03   0.000E+00   9.970E-01
 183  7.22341202   0.692  -0.94487   3.57078   6.74282   1.04541   0.00000   3.000E-03   0.000E+00   9.970E-01
 184  7.22624695   0.692  -0.94668   3.57076   6.74352   1.04885   0.00000   3.026E-03   0.000E+00   9.970E-01
 185  7.22906350   0.692  -0.94837   3.57074   6.74419   1.05216   0.00000   3.127E-03   0.000E+00   9.969E-01
 186  7.23186189   0.692  -0.95006   3.57072   6.74486   1.05548   0.00000   3.229E-03   0.000E+00   9.968E-01
 187  7.23464237   0.692  -0.95176   3.57071   6.74552   1.05880   0.00000   3.330E-03   0.000E+00   9.967E-01
 188  7.23740516   0.692  -0.95345   3.57069   6.74619   1.06211   0.00000   3.431E-03   0.000E+00   9.966E-01
 189  7.24015048   0.692  -0.95514   3.57067   6.74686   1.06543   0.00000   3.533E-03   0.000E+00   9.965E-01
 190  7.24287856   0.692  -0.95684   3.57066   6.74753   1.06874   0.00000   3.634E-03   0.000E+00   9.964E-01
 191  7.24558961   0.692  -0.95853   3.57064   6.74820   1.07206   0.00000   3.736E-03   0.000E+00   9.963E-01
 192  7.24828384   0.692  -0.96022   3.57063   6.74887   1.07537   0.00000   3.837E-03   0.000E+00   9.962E-01
 193  7.25096146   0.692  -0.96192   3.57061   6.74954   1.07869   0.00000   3.939E-03   0.000E+00   9.961E-01
 194  7.25362268   0.692  -0.96355   3.57060   6.75019   1.08194   0.00000   4.038E-03   0.000E+00   9.960E-01
 195  7.25626768   0.692  -0.96510   3.57059   6.75082   1.08510   0.00000   4.134E-03   0.000E+00   9.959E-01
 196  7.25889667   0.692  -0.96664   3.57058   6.75146   1.08826   0.00000   4.231E-03   0.000E+00   9.958E-01
 197  7.26150985   0.692  -0.96818   3.57057   6.75209   1.09142   0.00000   4.327E-03   0.000E+00   9.957E-01
 198  7.26410739   0.692  -0.96973   3.57056   6.75272   1.09458   0.00000   4.423E-03   0.000E+00   9.956E-01
 199  7.26668949   0.692  -0.97127   3.57055   6.75335   1.09774   0.00000   4.519E-03   0.000E+00   9.955E-01
 200  7.26925633   0.692  -0.97282   3.57054   6.75399   1.10090   0.00000   4.616E-03   0.000E+00   9.954E-01
 201  7.27180809   0.692  -0.97436   3.57054   6.75462   1.10406   0.00000   4.712E-03   0.000E+00   9.953E-01
 202  7.27434494   0.692  -0.97590   3.57053   6.75525   1.10722   0.00000   4.808E-03   0.000E+00   9.952E-01
 203  7.27686706   0.692  -0.97745   3.57052   6.75588   1.11038   0.00000   4.905E-03   0.000E+00   9.951E-01
 204  7.27937462   0.692  -0.97899   3.57051   6.75652   1.11354   0.00000   5.001E-03   0.000E+00   9.950E-01
 205  7.28186778   0.692  -0.98040   3.57051   6.75711   1.11655   0.00000   5.093E-03   0.000E+00   9.949E-01
 206  7.28434671   0.692  -0.98181   3.57050   6.75771   1.11956   0.00000   5.184E-03   0.000E+00   9.948E-01
 207  7.28681158   0.692  -0.98322   3.57050   6.75831   1.12258   0.00000   5.276E-03   0.000E+00   9.947E-01
 208  7.28926253   0.692  -0.98463   3.57050   6.75891   1.12559   0.00000   5.368E-03   0.000E+00   9.946E-01
 209  7.29169972   0.692  -0.98604   3.57050   6.75951   1.12860   0.00000   5.459E-03   0.000E+00   9.945E-01
 210  7.29412332   0.692  -0.98745   3.57049   6.76011   1.13162   0.00000   5.551E-03   0.000E+00   9.944E-01
 211  7.29653347   0.692  -0.98887   3.57049   6.76071   1.13463   0.00000   5.643E-03   0.000E+00   9.944E-01
 212  7.29893031   0.692  -0.99028   3.57049   6.76131   1.13764   0.00000   5.734E-03   0.000E+00   9.943E-01
 213  7.30131400   0.692  -0.99169   3.57049   6.76190   1.14066   0.00000   5.826E-03   0.000E+00   9.942E-01
 214  7.30368468   0.692  -0.99310   3.57048   6.76250   1.14367   0.00000   5.918E-03   0.000E+00   9.941E-01
 215  7.30604248   0.692  -0.99449   3.57048   6.76310   1.14667   0.00000   6.018E-03   0.000E+00   9.940E-01
 216  7.30838756   0.692  -0.99578   3.57048   6.76367   1.14954   0.00000   6.193E-03   0.000E+00   9.938E-01
 217  7.31072004   0.692  -0.99706   3.57049   6.76424   1.15242   0.00000   6.368E-03   0.000E+00   9.936E-01
 218  7.31304006   0.692  -0.99835   3.57049   6.76481   1.15529   0.00000   6.542E-03   0.000E+00   9.935E-01
 219  7.31534775   0.692  -0.99963   3.57049   6.76538   1.15817   0.00000   6.717E-03   0.000E+00   9.933E-01
 220  7.31764325   0.692  -1.00092   3.57049   6.76595   1.16104   0.00000   6.892E-03   0.000E+00   9.931E-01
 221  7.31992667   0.692  -1.00220   3.57050   6.76652   1.16392   0.00000   7.066E-03   0.000E+00   9.929E-01
 222  7.32219815   0.692  -1.00349   3.57050   6.76709   1.16679   0.00000   7.241E-03   0.000E+00   9.928E-01
 223  7.32445782   0.692  -1.00477   3.57050   6.76766   1.16967   0.00000   7.416E-03   0.000E+00   9.926E-01
 224  7.32670579   0.692  -1.00606   3.57050   6.76823   1.17254   0.00000   7.591E-03   0.000E+00   9.924E-01
 225  7.32894218   0.692  -1.00734   3.57051   6.76879   1.17542   0.00000   7.765E-03   0.000E+00   9.922E-01
 226  7.33116711   0.692  -1.00863   3.57051   6.76936   1.17829   0.00000   7.940E-03   0.000E+00   9.921E-01
 227  7.33338071   0.692  -1.00984   3.57052   6.76992   1.18108   0.00000   8.109E-03   0.000E+00   9.919E-01
 228  7.33558307   0.692  -1.01100   3.57052   6.77046   1.18383   0.00000   8.276E-03   0.000E+00   9.917E-01
 229  7.33777433   0.692  -1.01217   3.57053   6.77100   1.18658   0.00000   8.443E-03   0.000E+00   9.916E-01
 230  7.33995459   0.692  -1.01334   3.57054   6.77154   1.18932   0.00000   8.609E-03   0.000E+00   9.914E-01
 231  7.34212395   0.692  -1.01451   3.57055   6.77209   1.19207   0.00000   8.776E-03   0.000E+00   9.912E-01
 232  7.34428253   0.692  -1.01568   3.57056   6.77263   1.19482   0.00000   8.943E-03   0.000E+00   9.911E-01
 233  7.34643044   0.692  -1.01685   3.57057   6.77317   1.19756   0.00000   9.109E-03   0.000E+00   9.909E-01
 234  7.34856777   0.692  -1.01801   3.57057   6.77371   1.20031   0.00000   9.276E-03   0.000E+00   9.907E-01
 235  7.35069464   0.692  -1.01918   3.57058   6.77426   1.20306   0.00000   9.443E-03   0.000E+00   9.906E-01
 236  7.35281115   0.692  -1.02035   3.57059   6.77480   1.20580   0.00000   9.609E-03   0.000E+00   9.904E-01
 237  7.35491739   0.692  -1.02152   3.57060   6.77534   1.20855   0.00000   9.776E-03   0.000E+00   9.902E-01
 238  7.35701346   0.692  -1.02269   3.57061   6.77588   1.21130   0.00000   9.943E-03   0.000E+00   9.901E-01
 239  7.35909946   0.692  -1.02378   3.57062   6.77641   1.21396   0.00000   1.010E-02   0.000E+00   9.899E-01
 240  7.36117550   0.692  -1.02484   3.57063   6.77693   1.21659   0.00000   1.026E-02   0.000E+00   9.897E-01
 241  7.36324166   0.692  -1.02590   3.57065   6.77745   1.21921   0.00000   1.042E-02   0.000E+00   9.896E-01
 242  7.36529803   0.692  -1.02696   3.57066   6.77797   1.22184   0.00000   1.058E-02   0.000E+00   9.894E-01
 243  7.36734471   0.692  -1.02802   3.57067   6.77849   1.22447   0.00000   1.074E-02   0.000E+00   9.893E-01
 244  7.36938179   0.692  -1.02907   3.57069   6.77901   1.22709   0.00000   1.090E-02   0.000E+00   9.891E-01
 245  7.37140937   0.692  -1.03013   3.57070   6.77952   1.22972   0.00000   1.106E-02   0.000E+00   9.889E-01
 246  7.37342752   0.692  -1.03119   3.57071   6.78004   1.23234   0.00000   1.122E-02   0.000E+00   9.888E-01
 247  7.37543633   0.692  -1.03225   3.57073   6.78056   1.23497   0.00000   1.138E-02   0.000E+00   9.886E-01
 248  7.37743590   0.692  -1.03330   3.57074   6.78108   1.23760   0.00000   1.154E-02   0.000E+00   9.885E-01
 249  7.37942630   0.692  -1.03436   3.57075   6.78160   1.24022   0.00000   1.170E-02   0.000E+00   9.883E-01
 250  7.38140762   0.692  -1.03542   3.57077   6.78212   1.24285   0.00000   1.186E-02   0.000E+00   9.881E-01
 251  7.38337995   0.692  -1.03647   3.57078   6.78264   1.24546   0.00000   1.201E-02   0.000E+00   9.880E-01
 252  7.38534335   0.692  -1.03742   3.57080   6.78313   1.24797   0.00000   1.217E-02   0.000E+00   9.878E-01
 253  7.38729792   0.692  -1.03838   3.57082   6.78363   1.25049   0.00000   1.232E-02   0.000E+00   9.877E-01
 254  7.38924374   0.692  -1.03933   3.57084   6.78413   1.25300   0.00000   1.247E-02   0.000E+00   9.875E-01
 255  7.39118087   0.692  -1.04028   3.57085   6.78462   1.25551   0.00000   1.262E-02   0.000E+00   9.874E-01
 256  7.39310940   0.692  -1.04124   3.57087   6.78512   1.25802   0.00000   1.278E-02   0.000E+00   9.872E-01
 257  7.39502941   0.692  -1.04219   3.57089   6.78562   1.26053   0.00000   1.293E-02   0.000E+00   9.871E-01
 258  7.39694096   0.692  -1.04314   3.57091   6.78612   1.26305   0.00000   1.308E-02   0.000E+00   9.869E-01
 259  7.39884414   0.692  -1.04410   3.57093   6.78661   1.26556   0.00000   1.323E-02   0.000E+00   9.868E-01
 260  7.40073901   0.692  -1.04505   3.57095   6.78711   1.26807   0.00000   1.338E-02   0.000E+00   9.866E-01
 261  7.40262566   0.692  -1.04601   3.57096   6.78761   1.27058   0.00000   1.354E-02   0.000E+00   9.865E-01
 262  7.40450414   0.692  -1.04696   3.57098   6.78810   1.27309   0.00000   1.369E-02   0.000E+00   9.863E-01
 263  7.40637453   0.692  -1.04791   3.57100   6.78860   1.27561   0.00000   1.384E-02   0.000E+00   9.862E-01
 264  7.40823690   0.692  -1.04887   3.57102   6.78910   1.27812   0.00000   1.399E-02   0.000E+00   9.860E-01
 265  7.41009132   0.692  -1.04973   3.57104   6.78958   1.28053   0.00000   1.421E-02   0.000E+00   9.858E-01
 266  7.41193786   0.692  -1.05058   3.57107   6.79006   1.28293   0.00000   1.443E-02   0.000E+00   9.856E-01
 267  7.41377657   0.692  -1.05144   3.57109   6.79053   1.28534   0.00000   1.465E-02   0.000E+00   9.854E-01
 268  7.41560754   0.692  -1.05230   3.57111   6.79101   1.28774   0.00000   1.486E-02   0.000E+00   9.851E-01
 269  7.41743081   0.692  -1.05315   3.57114   6.79149   1.29015   0.00000   1.508E-02   0.000E+00   9.849E-01
 270  7.41924647   0.692  -1.05401   3.57116   6.79197   1.29256   0.00000   1.530E-02   0.000E+00   9.847E-01
 271  7.42105457   0.692  -1.05487   3.57118   6.79245   1.29496   0.00000   1.552E-02   0.000E+00   9.845E-01
 272  7.42285517   0.692  -1.05572   3.57121   6.79292   1.29737   0.00000   1.574E-02   0.000E+00   9.843E-01
 273  7.42464833   0.692  -1.05658   3.57123   6.79340   1.29977   0.00000   1.596E-02   0.000E+00   9.840E-01
 274  7.42643412   0.692  -1.05744   3.57125   6.79388   1.30218   0.00000   1.618E-02   0.000E+00   9.838E-01
 275  7.42821260   0.692  -1.05829   3.57128   6.79436   1.30458   0.00000   1.640E-02   0.000E+00   9.836E-01
 276  7.42998383   0.692  -1.05915   3.57130   6.79484   1.30699   0.00000   1.661E-02   0.000E+00   9.834E-01
 277  7.43174786   0.692  -1.06001   3.57132   6.79531   1.30939   0.00000   1.683E-02   0.000E+00   9.832E-01
 278  7.43350475   0.692  -1.06084   3.57135   6.79579   1.31178   0.00000   1.707E-02   0.000E+00   9.829E-01
 279  7.43525457   0.692  -1.06160   3.57137   6.79625   1.31408   0.00000   1.735E-02   0.000E+00   9.827E-01
 280  7.43699736   0.692  -1.06237   3.57140   6.79671   1.31639   0.00000   1.763E-02   0.000E+00   9.824E-01
 281  7.43873319   0.692  -1.06313   3.57143   6.79717   1.31869   0.00000   1.790E-02   0.000E+00   9.821E-01
 282  7.44046211   0.692  -1.06389   3.57146   6.79764   1.32100   0.00000   1.818E-02   0.000E+00   9.818E-01
 283  7.44218417   0.692  -1.06466   3.57149   6.79810   1.32330   0.00000   1.846E-02   0.000E+00   9.815E-01
 284  7.44389943   0.692  -1.06542   3.57151   6.79856   1.32561   0.00000   1.874E-02   0.000E+00   9.813E-01
 285  7.44560794   0.692  -1.06618   3.57154   6.79902   1.32791   0.00000   1.902E-02   0.000E+00   9.810E-01
 286  7.44730976   0.692  -1.06695   3.57157   6.79948   1.33022   0.00000   1.930E-02   0.000E+00   9.807E-01
 287  7.44900494   0.692  -1.06771   3.57160   6.79995   1.33252   0.00000   1.958E-02   0.000E+00   9.804E-01
 288  7.45069352   0.692  -1.06847   3.57163   6.80041   1.33483   0.00000   1.986E-02   0.000E+00   9.801E-01
 289  7.45237557   0.692  -1.06923   3.57165   6.80087   1.33713   0.00000   2.014E-02   0.000E+00   9.799E-01
 290  7.45405112   0.692  -1.07000   3.57168   6.80133   1.33944   0.00000   2.042E-02   0.000E+00   9.796E-01
 291  7.45572024   0.692  -1.07076   3.57171   6.80179   1.34174   0.00000   2.070E-02   0.000E+00   9.793E-01
 292  7.45738296   0.692  -1.07152   3.57174   6.80226   1.34405   0.00000   2.098E-02   0.000E+00   9.790E-01
 293  7.45903935   0.692  -1.07221   3.57177   6.80270   1.34627   0.00000   2.125E-02   0.000E+00   9.788E-01
 294  7.46068944   0.692  -1.07288   3.57180   6.80315   1.34848   0.00000   2.152E-02   0.000E+00   9.785E-01
 295  7.46233328   0.692  -1.07356   3.57184   6.80359   1.35069   0.00000   2.178E-02   0.000E+00   9.782E-01
 296  7.46397093   0.692  -1.07423   3.57187   6.80404   1.35290   0.00000   2.205E-02   0.000E+00   9.779E-01
 297  7.46560242   0.692  -1.07491   3.57190   6.80449   1.35511   0.00000   2.232E-02   0.000E+00   9.777E-01
 298  7.46722781   0.692  -1.07558   3.57193   6.80493   1.35731   0.00000   2.259E-02   0.000E+00   9.774E-01
 299  7.46884713   0.692  -1.07626   3.57197   6.80538   1.35952   0.00000   2.286E-02   0.000E+00   9.771E-01
 300  7.47046045   0.692  -1.07693   3.57200   6.80582   1.36173   0.00000   2.313E-02   0.000E+00   9.769E-01
 301  7.47206779   0.692  -1.07761   3.57203   6.80627   1.36394   0.00000   2.339E-02   0.000E+00   9.766E-01
 302  7.47366920   0.692  -1.07828   3.57207   6.80672   1.36615   0.00000   2.366E-02   0.000E+00   9.763E-01
 303  7.47526473   0.692  -1.07896   3.57210   6.80716   1.36836   0.00000   2.393E-02   0.000E+00   9.761E-01
 304  7.47685442   0.692  -1.07963   3.57213   6.80761   1.37057   0.00000   2.420E-02   0.000E+00   9.758E-01
 305  7.47843831   0.692  -1.08031   3.57216   6.80805   1.37278   0.00000   2.447E-02   0.000E+00   9.755E-01
 306  7.48001645   0.692  -1.08098   3.57220   6.80850   1.37499   0.00000   2.474E-02   0.000E+00   9.753E-01
 307  7.48158887   0.692  -1.08166   3.57223   6.80895   1.37720   0.00000   2.500E-02   0.000E+00   9.750E-01
 308  7.48315562   0.692  -1.08225   3.57227   6.80938   1.37932   0.00000   2.533E-02   0.000E+00   9.747E-01
 309  7.48471674   0.692  -1.08284   3.57231   6.80981   1.38144   0.00000   2.565E-02   0.000E+00   9.744E-01
 310  7.48627227   0.692  -1.08343   3.57234   6.81025   1.38356   0.00000   2.597E-02   0.000E+00   9.740E-01
 311  7.48782224   0.692  -1.08402   3.57238   6.81068   1.38568   0.00000   2.629E-02   0.000E+00   9.737E-01
 312  7.48936671   0.692  -1.08462   3.57242   6.81111   1.38780   0.00000   2.662E-02   0.000E+00   9.734E-01
 313  7.49090570   0.692  -1.08521   3.57246   6.81155   1.38992   0.00000   2.694E-02   0.000E+00   9.731E-01
 314  7.49243925   0.692  -1.08580   3.57250   6.81198   1.39204   0.00000   2.726E-02   0.000E+00   9.727E-01
 315  7.49396741   0.692  -1.08639   3.57253   6.81241   1.39415   0.00000   2.758E-02   0.000E+00   9.724E-01
 316  7.49549022   0.692  -1.08698   3.57257   6.81285   1.39627   0.00000   2.790E-02   0.000E+00   9.721E-01
 317  7.49700770   0.692  -1.08757   3.57261   6.81328   1.39839   0.00000   2.823E-02   0.000E+00   9.718E-01
 318  7.49851989   0.692  -1.08816   3.57265   6.81371   1.40051   0.00000   2.855E-02   0.000E+00   9.715E-01
 319  7.50002684   0.692  -1.08875   3.57269   6.81415   1.40263   0.00000   2.887E-02   0.000E+00   9.711E-01
 320  7.50152858   0.692  -1.08935   3.57272   6.81458   1.40475   0.00000   2.919E-02   0.000E+00   9.708E-01
 321  7.50302514   0.692  -1.08994   3.57276   6.81502   1.40687   0.00000   2.951E-02   0.000E+00   9.705E-01
 322  7.50451657   0.692  -1.09053   3.57280   6.81545   1.40899   0.00000   2.984E-02   0.000E+00   9.702E-01
 323  7.50600289   0.692  -1.09108   3.57284   6.81588   1.41107   0.00000   3.018E-02   0.000E+00   9.698E-01
 324  7.50748414   0.692  -1.09159   3.57288   6.81630   1.41310   0.00000   3.055E-02   0.000E+00   9.694E-01
 325  7.50896036   0.692  -1.09210   3.57293   6.81672   1.41513   0.00000   3.093E-02   0.000E+00   9.691E-01
 326  7.51043157   0.692  -1.09261   3.57297   6.81714   1.41716   0.00000   3.130E-02   0.000E+00   9.687E-01
 327  7.51189782   0.692  -1.09312   3.57301   6.81756   1.41920   0.00000   3.167E-02   0.000E+00   9.683E-01
 328  7.51335913   0.692  -1.09363   3.57305   6.81799   1.42123   0.00000   3.204E-02   0.000E+00   9.680E-01
 329  7.51481555   0.692  -1.09415   3.57310   6.81841   1.42326   0.00000   3.241E-02   0.000E+00   9.676E-01
 330  7.51626709   0.692  -1.09466   3.57314   6.81883   1.42529   0.00000   3.278E-02   0.000E+00   9.672E-01
 331  7.51771380   0.692  -1.09517   3.57318   6.81925   1.42733   0.00000   3.315E-02   0.000E+00   9.668E-01
 332  7.51915571   0.692  -1.09568   3.57323   6.81967   1.42936   0.00000   3.353E-02   0.000E+00   9.665E-01
 333  7.52059285   0.692  -1.09619   3.57327   6.82009   1.43139   0.00000   3.390E-02   0.000E+00   9.661E-01
 334  7.52202524   0.692  -1.09670   3.57331   6.82052   1.43342   0.00000   3.427E-02   0.000E+00   9.657E-01
 335  7.52345293   0.692  -1.09721   3.57335   6.82094   1.43545   0.00000   3.464E-02   0.000E+00   9.654E-01
 336  7.52487594   0.692  -1.09772   3.57340   6.82136   1.43749   0.00000   3.501E-02   0.000E+00   9.650E-01
 337  7.52629430   0.692  -1.09823   3.57344   6.82178   1.43952   0.00000   3.538E-02   0.000E+00   9.646E-01
 338  7.52770804   0.692  -1.09874   3.57348   6.82220   1.44155   0.00000   3.576E-02   0.000E+00   9.642E-01
 339  7.52911720   0.692  -1.09923   3.57353   6.82262   1.44356   0.00000   3.612E-02   0.000E+00   9.639E-01
 340  7.53052180   0.692  -1.09966   3.57357   6.82303   1.44551   0.00000   3.648E-02   0.000E+00   9.635E-01
 341  7.53192187   0.692  -1.10010   3.57362   6.82344   1.44746   0.00000   3.684E-02   0.000E+00   9.632E-01
 342  7.53331745   0.692  -1.10053   3.57367   6.82386   1.44941   0.00000   3.719E-02   0.000E+00   9.628E-01
 343  7.53470855   0.692  -1.10096   3.57372   6.82427   1.45136   0.00000   3.755E-02   0.000E+00   9.624E-01
 344  7.53609521   0.692  -1.10140   3.57376   6.82468   1.45331   0.00000   3.791E-02   0.000E+00   9.621E-01
 345  7.53747746   0.692  -1.10183   3.57381   6.82509   1.45526   0.00000   3.827E-02   0.000E+00   9.617E-01
 346  7.53885532   0.692  -1.10226   3.57386   6.82550   1.45721   0.00000   3.862E-02   0.000E+00   9.614E-01
 347  7.54022882   0.692  -1.10270   3.57391   6.82591   1.45916   0.00000   3.898E-02   0.000E+00   9.610E-01
 348  7.54159800   0.692  -1.10313   3.57396   6.82633   1.46111   0.00000   3.934E-02   0.000E+00   9.607E-01
 349  7.54296287   0.692  -1.10356   3.57400   6.82674   1.46306   0.00000   3.970E-02   0.000E+00   9.603E-01
 350  7.54432346   0.692  -1.10400   3.57405   6.82715   1.46502   0.00000   4.005E-02   0.000E+00   9.599E-01
 351  7.54567981   0.692  -1.10443   3.57410   6.82756   1.46697   0.00000   4.041E-02   0.000E+00   9.596E-01
 352  7.54703193   0.692  -1.10487   3.57415   6.82797   1.46892   0.00000   4.077E-02   0.000E+00   9.592E-01
 353  7.54837986   0.692  -1.10530   3.57419   6.82838   1.47087   0.00000   4.113E-02   0.000E+00   9.589E-01
 354  7.54972362   0.692  -1.10573   3.57424   6.82879   1.47282   0.00000   4.148E-02   0.000E+00   9.585E-01
 355  7.55106323   0.692  -1.10617   3.57429   6.82921   1.47477   0.00000   4.184E-02   0.000E+00   9.582E-01
 356  7.55239872   0.692  -1.10656   3.57434   6.82961   1.47668   0.00000   4.225E-02   0.000E+00   9.577E-01
 357  7.55373012   0.692  -1.10692   3.57439   6.83001   1.47855   0.00000   4.271E-02   0.000E+00   9.573E-01
 358  7.55505744   0.692  -1.10728   3.57444   6.83042   1.48042   0.00000   4.317E-02   0.000E+00   9.568E-01
 359  7.55638073   0.692  -1.10763   3.57450   6.83082   1.48229   0.00000   4.363E-02   0.000E+00   9.564E-01
 360  7.55769999   0.692  -1.10799   3.57455   6.83122   1.48417   0.00000   4.409E-02   0.000E+00   9.559E-01
 361  7.55901526   0.692  -1.10835   3.57460   6.83162   1.48604   0.00000   4.455E-02   0.000E+00   9.555E-01
 362  7.56032656   0.692  -1.10871   3.57466   6.83202   1.48791   0.00000   4.501E-02   0.000E+00   9.550E-01
 363  7.56163391   0.692  -1.10907   3.57471   6.83243   1.48978   0.00000   4.546E-02   0.000E+00   9.545E-01
 364  7.56293734   0.692  -1.10943   3.57476   6.83283   1.49165   0.00000   4.592E-02   0.000E+00   9.541E-01
 365  7.56423686   0.692  -1.10978   3.57481   6.83323   1.49353   0.00000   4.638E-02   0.000E+00   9.536E-01
 366  7.56553251   0.692  -1.11014   3.57487   6.83363   1.49540   0.00000   4.684E-02   0.000E+00   9.532E-01
 367  7.56682431   0.692  -1.11050   3.57492   6.83403   1.49727   0.00000   4.730E-02   0.000E+00   9.527E-01
 368  7.56811227   0.692  -1.11086   3.57497   6.83444   1.49914   0.00000   4.776E-02   0.000E+00   9.522E-01
 369  7.56939643   0.692  -1.11122   3.57502   6.83484   1.50101   0.00000   4.822E-02   0.000E+00   9.518E-01
 370  7.57067680   0.692  -1.11158   3.57508   6.83524   1.50289   0.00000   4.868E-02   0.000E+00   9.513E-01
 371  7.57195340   0.692  -1.11193   3.57513   6.83564   1.50476   0.00000   4.913E-02   0.000E+00   9.509E-01
 372  7.57322627   0.692  -1.11229   3.57518   6.83604   1.50663   0.00000   4.959E-02   0.000E+00   9.504E-01
 373  7.57449541   0.692  -1.11264   3.57524   6.83644   1.50849   0.00000   5.006E-02   0.000E+00   9.499E-01
 374  7.57576086   0.692  -1.11293   3.57529   6.83684   1.51029   0.00000   5.061E-02   0.000E+00   9.494E-01
 375  7.57702263   0.692  -1.11322   3.57535   6.83723   1.51208   0.00000   5.117E-02   0.000E+00   9.488E-01
 376  7.57828075   0.692  -1.11351   3.57541   6.83763   1.51388   0.00000   5.172E-02   0.000E+00   9.483E-01
 377  7.57953523   0.692  -1.11379   3.57547   6.83802   1.51568   0.00000   5.227E-02   0.000E+00   9.477E-01
 378  7.58078610   0.692  -1.11408   3.57553   6.83842   1.51747   0.00000   5.282E-02   0.000E+00   9.472E-01
 379  7.58203337   0.692  -1.11437   3.57558   6.83881   1.51927   0.00000   5.337E-02   0.000E+00   9.466E-01
 380  7.58327708   0.692  -1.11466   3.57564   6.83921   1.52106   0.00000   5.393E-02   0.000E+00   9.461E-01
 381  7.58451723   0.692  -1.11494   3.57570   6.83960   1.52286   0.00000   5.448E-02   0.000E+00   9.455E-01
 382  7.58575385   0.692  -1.11523   3.57576   6.84000   1.52466   0.00000   5.503E-02   0.000E+00   9.450E-01
 383  7.58698696   0.692  -1.11552   3.57582   6.84039   1.52645   0.00000   5.558E-02   0.000E+00   9.444E-01
 384  7.58821658   0.692  -1.11581   3.57587   6.84079   1.52825   0.00000   5.614E-02   0.000E+00   9.439E-01
 385  7.58944272   0.692  -1.11609   3.57593   6.84118   1.53004   0.00000   5.669E-02   0.000E+00   9.433E-01
 386  7.59066542   0.692  -1.11638   3.57599   6.84158   1.53184   0.00000   5.724E-02   0.000E+00   9.428E-01
 387  7.59188468   0.692  -1.11667   3.57605   6.84197   1.53364   0.00000   5.779E-02   0.000E+00   9.422E-01
 388  7.59310053   0.692  -1.11696   3.57611   6.84237   1.53543   0.00000   5.834E-02   0.000E+00   9.417E-01
 389  7.59431298   0.692  -1.11724   3.57616   6.84276   1.53723   0.00000   5.890E-02   0.000E+00   9.411E-01
 390  7.59552206   0.692  -1.11753   3.57622   6.84316   1.53902   0.00000   5.945E-02   0.000E+00   9.406E-01
 391  7.59672779   0.692  -1.11782   3.57628   6.84355   1.54082   0.00000   6.000E-02   0.000E+00   9.400E-01
 392  7.60759706   0.692  -1.11982   3.57685   6.84709   1.55652   0.00000   6.535E-02   0.000E+00   9.347E-01
 393  7.61820093   0.692  -1.12182   3.57743   6.85064   1.57223   0.00000   7.069E-02   0.000E+00   9.293E-01
 394  7.62855205   0.692  -1.12325   3.57805   6.85413   1.58727   0.00000   7.673E-02   0.000E+00   9.233E-01
 395  7.63866219   0.692  -1.12465   3.57867   6.85761   1.60228   0.00000   8.281E-02   0.000E+00   9.172E-01
 396  7.64854232   0.692  -1.12556   3.57933   6.86106   1.61672   0.00000   8.907E-02   0.000E+00   9.109E-01
 397  7.65820266   0.692  -1.12635   3.58001   6.86449   1.63104   0.00000   9.537E-02   0.000E+00   9.046E-01
 398  7.66765279   0.692  -1.12683   3.58071   6.86790   1.64495   0.00000   1.023E-01   0.000E+00   8.977E-01
 399  7.67690166   0.692  -1.12707   3.58142   6.87129   1.65857   0.00000   1.098E-01   0.000E+00   8.902E-01
 400  7.68595767   0.692  -1.12717   3.58215   6.87466   1.67199   0.00000   1.174E-01   0.000E+00   8.826E-01
 401  7.69482868   0.692  -1.12691   3.58291   6.87799   1.68491   0.00000   1.256E-01   0.000E+00   8.744E-01
 402  7.70352212   0.692  -1.12665   3.58368   6.88132   1.69784   0.00000   1.337E-01   0.000E+00   8.663E-01
 403  7.71204494   0.692  -1.12593   3.58448   6.88461   1.71008   0.00000   1.429E-01   0.000E+00   8.571E-01
 404  7.72040373   0.692  -1.12519   3.58528   6.88791   1.72230   0.00000   1.521E-01   0.000E+00   8.479E-01
 405  7.72860467   0.692  -1.12423   3.58610   6.89117   1.73410   0.00000   1.617E-01   0.000E+00   8.383E-01
 406  7.73665361   0.692  -1.12310   3.58693   6.89442   1.74560   0.00000   1.716E-01   0.000E+00   8.284E-01
 407  7.74455608   0.692  -1.12194   3.58776   6.89766   1.75699   0.00000   1.815E-01   0.000E+00   8.185E-01
 408  7.75231733   0.692  -1.12051   3.58861   6.90086   1.76775   0.00000   1.924E-01   0.000E+00   8.076E-01
 409  7.75994231   0.692  -1.11908   3.58945   6.90405   1.77851   0.00000   2.032E-01   0.000E+00   7.968E-01
 410  7.76743573   0.692  -1.11745   3.59029   6.90718   1.78874   0.00000   2.144E-01   0.000E+00   7.856E-01
 411  7.77480204   0.692  -1.11569   3.59114   6.91025   1.79858   0.00000   2.257E-01   0.000E+00   7.743E-01
 412  7.78204549   0.692  -1.11385   3.59199   6.91328   1.80810   0.00000   2.371E-01   0.000E+00   7.629E-01
 413  7.78917010   0.692  -1.11194   3.59282   6.91630   1.81730   0.00000   2.490E-01   0.000E+00   7.510E-01
 414  7.79617972   0.692  -1.10997   3.59367   6.91927   1.82615   0.00000   2.605E-01   0.000E+00   7.395E-01
 415  7.80307800   0.692  -1.10795   3.59451   6.92225   1.83476   0.00000   2.732E-01   0.000E+00   7.268E-01
 416  7.80986842   0.692  -1.10588   3.59535   6.92520   1.84308   0.00000   2.854E-01   0.000E+00   7.137E-01
 417  7.81655430   0.692  -1.10379   3.59619   6.92814   1.85110   0.00000   2.988E-01   0.000E+00   7.012E-01
 418  7.82313881   0.692  -1.10169   3.59701   6.93106   1.85881   0.00000   3.124E-01   0.000E+00   6.876E-01
 419  7.82962497   0.692  -1.09960   3.59784   6.93397   1.86621   0.00000   3.260E-01   0.000E+00   6.740E-01
 420  7.83601569   0.692  -1.09749   3.59866   6.93685   1.87333   0.00000   3.397E-01   0.000E+00   6.603E-01
 421  7.84231374   0.692  -1.09543   3.59947   6.93972   1.88012   0.00000   3.545E-01   0.000E+00   6.455E-01
 422  7.84852175   0.692  -1.09333   3.60028   6.94258   1.88660   0.00000   3.690E-01   0.000E+00   6.310E-01
 423  7.85464227   0.692  -1.09128   3.60109   6.94543   1.89274   0.00000   3.839E-01   0.000E+00   6.161E-01
 424  7.86067774   0.692  -1.08928   3.60188   6.94827   1.89856   0.00000   3.992E-01   0.000E+00   6.008E-01
 425  7.86663047   0.692  -1.08732   3.60266   6.95112   1.90403   0.00000   4.145E-01   0.000E+00   5.852E-01
 426  7.87250272   0.692  -1.08546   3.60342   6.95397   1.90913   0.00000   4.307E-01   0.000E+00   5.686E-01
 427  7.87829662   0.692  -1.08366   3.60417   6.95682   1.91384   0.00000   4.477E-01   0.000E+00   5.523E-01
 428  7.88401425   0.692  -1.08197   3.60489   6.95969   1.91816   0.00000   4.651E-01   0.000E+00   5.348E-01
 429  7.88965757   0.692  -1.08042   3.60559   6.96258   1.92205   0.00000   4.821E-01   0.000E+00   5.170E-01
 430  7.89522851   0.692  -1.07901   3.60626   6.96550   1.92542   0.00000   5.006E-01   0.000E+00   4.991E-01
 431  7.90072888   0.692  -1.07780   3.60689   6.96843   1.92832   0.00001   5.199E-01   0.000E+00   4.801E-01
 432  7.90616047   0.692  -1.07675   3.60748   6.97136   1.93083   0.00034   5.397E-01   1.279E-04   4.603E-01
 433  7.91152496   0.691  -1.07589   3.60803   6.97424   1.93287   0.00175   5.603E-01   6.830E-04   4.397E-01
 434  7.91682400   0.691  -1.07522   3.60854   6.97698   1.93457   0.00370   5.814E-01   1.000E-03   4.184E-01
 435  7.92205916   0.691  -1.07481   3.60899   6.97955   1.93584   0.00637   6.034E-01   1.000E-03   3.960E-01
 436  7.92723196   0.691  -1.07448   3.60943   6.98207   1.93699   0.00903   6.255E-01   1.000E-03   3.735E-01
 437  7.93234388   0.691  -1.07481   3.60972   6.98414   1.93718   0.01155   6.493E-01   1.000E-03   3.497E-01
 438  7.93739632   0.691  -1.07515   3.61000   6.98622   1.93737   0.01407   6.731E-01   1.000E-03   3.259E-01
 439  7.94239066   0.691  -1.07549   3.61029   6.98830   1.93756   0.01659   6.969E-01   1.000E-03   3.021E-01
 440  7.94732822   0.691  -1.07647   3.61042   6.98993   1.93703   0.01913   7.198E-01   1.000E-03   2.792E-01
 441  7.95221028   0.691  -1.07784   3.61046   6.99128   1.93605   0.02170   7.422E-01   1.000E-03   2.568E-01
 442  7.95703806   0.691  -1.07921   3.61051   6.99263   1.93507   0.02426   7.646E-01   1.000E-03   2.344E-01
 443  7.96181277   0.691  -1.08058   3.61055   6.99399   1.93409   0.02682   7.869E-01   1.000E-03   2.121E-01
 444  7.96653555   0.691  -1.08195   3.61059   6.99534   1.93312   0.02938   8.093E-01   1.000E-03   1.897E-01
 445  7.97120752   0.691  -1.08342   3.61058   6.99666   1.93131   0.03393   8.499E-01   1.000E-03   1.490E-01
 446  7.97582977   0.691  -1.08506   3.61051   6.99793   1.92820   0.04159   9.192E-01   1.000E-03   7.941E-02
 447  7.98040334   0.691  -1.08705   3.61036   6.99894   1.92464   0.04600   9.643E-01   1.761E-03   3.390E-02
 448  7.98492925   0.691  -1.08928   3.61015   6.99977   1.92108   0.04904   9.941E-01   2.000E-03   4.118E-03
 449  7.98940848   0.691  -1.09179   3.60989   7.00041   1.91763   0.05190   1.012E+00   2.000E-03  -1.351E-02
 450  7.99384199   0.691  -1.09455   3.60958   7.00089   1.91428   0.05488   1.028E+00   2.000E-03  -2.983E-02
 451  7.99823069   0.691  -1.09755   3.60921   7.00123   1.91102   0.05623   1.042E+00   2.000E-03  -4.377E-02
 452  8.00257548   0.691  -1.10074   3.60881   7.00146   1.90786   0.05743   1.053E+00   2.000E-03  -5.543E-02
 453  8.00687724   0.691  -1.10410   3.60837   7.00158   1.90493   0.05743   1.060E+00   2.000E-03  -6.157E-02
 454  8.01113680   0.691  -1.10759   3.60790   7.00162   1.90218   0.05743   1.065E+00   2.000E-03  -6.641E-02
 455  8.01535500   0.691  -1.11116   3.60742   7.00159   1.89962   0.05743   1.068E+00   2.000E-03  -7.007E-02
 456  8.01953262   0.691  -1.11479   3.60690   7.00151   1.89726   0.05743   1.071E+00   2.000E-03  -7.285E-02
 457  8.02367043   0.691  -1.11843   3.60638   7.00138   1.89509   0.05544   1.073E+00   2.000E-03  -7.478E-02
 458  8.02776919   0.691  -1.12205   3.60586   7.00119   1.89310   0.05488   1.074E+00   2.000E-03  -7.584E-02
 459  8.03182963   0.691  -1.12561   3.60534   7.00098   1.89130   0.05488   1.074E+00   2.000E-03  -7.628E-02
 460  8.03585246   0.691  -1.12908   3.60483   7.00075   1.88966   0.05233   1.075E+00   2.000E-03  -7.634E-02
 461  8.03983837   0.691  -1.13237   3.60433   7.00049   1.88818   0.05233   1.074E+00   2.000E-03  -7.557E-02
 462  8.04378802   0.691  -1.13551   3.60386   7.00022   1.88687   0.05233   1.073E+00   2.000E-03  -7.452E-02
 463  8.04770209   0.691  -1.13849   3.60340   6.99994   1.88569   0.04977   1.072E+00   2.000E-03  -7.328E-02
 464  8.05158119   0.691  -1.14127   3.60297   6.99965   1.88466   0.04977   1.070E+00   2.000E-03  -7.148E-02
 465  8.05542595   0.691  -1.14389   3.60257   6.99935   1.88374   0.04761   1.068E+00   2.000E-03  -6.953E-02
 466  8.05923697   0.691  -1.14630   3.60218   6.99907   1.88295   0.04722   1.066E+00   2.000E-03  -6.725E-02
 467  8.06301483   0.691  -1.14850   3.60183   6.99878   1.88227   0.04722   1.063E+00   2.000E-03  -6.485E-02
 468  8.06676012   0.691  -1.15046   3.60150   6.99849   1.88167   0.04621   1.061E+00   2.000E-03  -6.241E-02
 469  8.07047339   0.691  -1.15220   3.60122   6.99822   1.88118   0.04467   1.058E+00   2.000E-03  -5.968E-02
 470  8.07415517   0.691  -1.15374   3.60096   6.99796   1.88077   0.04467   1.055E+00   2.000E-03  -5.682E-02
 471  8.07780601   0.691  -1.15511   3.60072   6.99770   1.88042   0.04453   1.053E+00   2.000E-03  -5.408E-02
 472  8.08142641   0.691  -1.15625   3.60052   6.99746   1.88014   0.04276   1.050E+00   2.000E-03  -5.138E-02
 473  8.08501688   0.691  -1.15723   3.60034   6.99723   1.87993   0.04212   1.047E+00   2.000E-03  -4.858E-02
 474  8.08857791   0.691  -1.15811   3.60018   6.99700   1.87975   0.04212   1.044E+00   2.000E-03  -4.572E-02
 475  8.09210998   0.691  -1.15873   3.60005   6.99680   1.87964   0.04124   1.042E+00   2.000E-03  -4.313E-02
 476  8.09561355   0.691  -1.15932   3.59994   6.99661   1.87954   0.04026   1.039E+00   2.000E-03  -4.058E-02
 477  8.09908908   0.691  -1.15969   3.59985   6.99643   1.87949   0.03953   1.037E+00   1.819E-03  -3.815E-02
 478  8.10253703   0.691  -1.15994   3.59978   6.99627   1.87947   0.03897   1.034E+00   1.525E-03  -3.580E-02
 479  8.10595781   0.691  -1.16019   3.59971   6.99611   1.87945   0.03841   1.032E+00   1.231E-03  -3.345E-02
 480  8.10935186   0.691  -1.16038   3.59966   6.99597   1.87945   0.03790   1.030E+00   1.000E-03  -3.121E-02
 481  8.11271959   0.691  -1.16034   3.59964   6.99586   1.87949   0.03759   1.028E+00   1.000E-03  -2.938E-02
 482  8.11606141   0.691  -1.16031   3.59962   6.99575   1.87953   0.03727   1.026E+00   1.000E-03  -2.756E-02
 483  8.11937770   0.691  -1.16027   3.59960   6.99564   1.87957   0.03696   1.024E+00   1.000E-03  -2.574E-02
 484  8.12266887   0.691  -1.16023   3.59958   6.99553   1.87961   0.03665   1.023E+00   1.000E-03  -2.391E-02
 485  8.12593528   0.691  -1.16018   3.59956   6.99542   1.87964   0.03635   1.021E+00   1.000E-03  -2.218E-02
 486  8.12917731   0.691  -1.16000   3.59957   6.99536   1.87968   0.03618   1.020E+00   1.000E-03  -2.116E-02
 487  8.13239532   0.691  -1.15982   3.59958   6.99529   1.87972   0.03602   1.019E+00   1.000E-03  -2.014E-02
 488  8.13558965   0.691  -1.15963   3.59958   6.99523   1.87976   0.03585   1.018E+00   1.000E-03  -1.912E-02
 489  8.13876067   0.691  -1.15945   3.59959   6.99516   1.87980   0.03569   1.017E+00   1.000E-03  -1.810E-02
 490  8.14190869   0.691  -1.15927   3.59960   6.99510   1.87983   0.03552   1.016E+00   1.000E-03  -1.708E-02
 491  8.14503407   0.691  -1.15909   3.59961   6.99503   1.87987   0.03535   1.015E+00   1.000E-03  -1.606E-02
 492  8.14813711   0.691  -1.15891   3.59962   6.99496   1.87991   0.03519   1.014E+00   1.000E-03  -1.504E-02
 493  8.15121813   0.691  -1.15873   3.59963   6.99491   1.87993   0.03505   1.013E+00   1.000E-03  -1.433E-02
 494  8.15427746   0.691  -1.15857   3.59964   6.99487   1.87992   0.03493   1.012E+00   1.000E-03  -1.397E-02
 495  8.15731538   0.691  -1.15840   3.59965   6.99483   1.87991   0.03481   1.012E+00   1.000E-03  -1.361E-02
 496  8.16033220   0.691  -1.15824   3.59966   6.99480   1.87990   0.03470   1.012E+00   1.000E-03  -1.325E-02
 497  8.16332821   0.691  -1.15807   3.59968   6.99476   1.87990   0.03458   1.011E+00   1.000E-03  -1.288E-02
 498  8.16630369   0.691  -1.15790   3.59969   6.99472   1.87989   0.03447   1.011E+00   1.000E-03  -1.252E-02
 499  8.16925893   0.691  -1.15774   3.59970   6.99468   1.87988   0.03435   1.011E+00   1.000E-03  -1.216E-02
 500  8.17219419   0.691  -1.15757   3.59971   6.99464   1.87988   0.03423   1.010E+00   1.000E-03  -1.180E-02
 501  8.17510974   0.691  -1.15741   3.59973   6.99460   1.87987   0.03412   1.010E+00   1.000E-03  -1.143E-02
 502  8.17800586   0.691  -1.15724   3.59974   6.99456   1.87986   0.03400   1.010E+00   1.000E-03  -1.107E-02
 503  8.18088278   0.691  -1.15708   3.59975   6.99452   1.87985   0.03389   1.009E+00   1.000E-03  -1.071E-02
 504  8.18374078   0.691  -1.15694   3.59976   6.99449   1.87983   0.03378   1.009E+00   1.000E-03  -1.047E-02
 505  8.18658009   0.691  -1.15684   3.59977   6.99446   1.87979   0.03367   1.009E+00   1.000E-03  -1.039E-02
 506  8.18940096   0.691  -1.15675   3.59977   6.99443   1.87975   0.03356   1.009E+00   1.000E-03  -1.031E-02
 507  8.19220362   0.691  -1.15665   3.59978   6.99440   1.87970   0.03346   1.009E+00   1.000E-03  -1.022E-02
 508  8.19498832   0.691  -1.15656   3.59979   6.99436   1.87966   0.03335   1.009E+00   1.000E-03  -1.014E-02
 509  8.19775527   0.691  -1.15646   3.59979   6.99433   1.87962   0.03324   1.009E+00   1.000E-03  -1.006E-02
 510  8.20050470   0.691  -1.15637   3.59980   6.99430   1.87957   0.03314   1.008E+00   1.000E-03  -9.983E-03
 511  8.20323684   0.691  -1.15627   3.59980   6.99427   1.87953   0.03303   1.008E+00   1.000E-03  -9.903E-03
 512  8.20595190   0.691  -1.15618   3.59981   6.99424   1.87949   0.03293   1.008E+00   1.000E-03  -9.822E-03
 513  8.20865009   0.691  -1.15608   3.59981   6.99421   1.87944   0.03282   1.008E+00   1.000E-03  -9.742E-03
 514  8.21133162   0.691  -1.15599   3.59982   6.99418   1.87940   0.03271   1.008E+00   1.000E-03  -9.661E-03
 515  8.21399669   0.691  -1.15589   3.59983   6.99415   1.87936   0.03261   1.008E+00   1.000E-03  -9.581E-03
 516  8.21664551   0.691  -1.15582   3.59983   6.99412   1.87931   0.03247   1.008E+00   1.000E-03  -9.526E-03
 517  8.21927827   0.691  -1.15579   3.59983   6.99409   1.87925   0.03227   1.008E+00   1.000E-03  -9.516E-03
 518  8.22189517   0.691  -1.15576   3.59982   6.99406   1.87920   0.03208   1.008E+00   1.000E-03  -9.506E-03
 519  8.22449639   0.691  -1.15573   3.59982   6.99402   1.87914   0.03189   1.008E+00   1.000E-03  -9.496E-03
 520  8.22708213   0.691  -1.15570   3.59982   6.99399   1.87908   0.03169   1.008E+00   1.000E-03  -9.486E-03
 521  8.22965256   0.691  -1.15567   3.59981   6.99396   1.87903   0.03150   1.008E+00   1.000E-03  -9.477E-03
 522  8.23220787   0.691  -1.15564   3.59981   6.99393   1.87897   0.03131   1.008E+00   1.000E-03  -9.467E-03
 523  8.23474823   0.691  -1.15561   3.59981   6.99390   1.87891   0.03111   1.008E+00   1.000E-03  -9.457E-03
 524  8.23727382   0.690  -1.15558   3.59980   6.99387   1.87886   0.03092   1.008E+00   1.000E-03  -9.447E-03
 525  8.23978481   0.690  -1.15556   3.59980   6.99383   1.87880   0.03073   1.008E+00   1.000E-03  -9.437E-03
 526  8.24228136   0.690  -1.15553   3.59980   6.99380   1.87874   0.03053   1.008E+00   1.000E-03  -9.427E-03
 527  8.24476364   0.690  -1.15550   3.59979   6.99377   1.87869   0.03034   1.008E+00   1.000E-03  -9.417E-03
 528  8.24723181   0.690  -1.15547   3.59979   6.99374   1.87863   0.03015   1.008E+00   1.000E-03  -9.407E-03
 529  8.24968604   0.690  -1.15544   3.59979   6.99371   1.87858   0.02995   1.008E+00   1.000E-03  -9.397E-03
 530  8.25212647   0.690  -1.15541   3.59978   6.99368   1.87852   0.02976   1.008E+00   1.000E-03  -9.387E-03
 531  8.25455327   0.690  -1.15538   3.59978   6.99365   1.87846   0.02956   1.008E+00   1.000E-03  -9.377E-03
 532  8.25696659   0.690  -1.15535   3.59978   6.99361   1.87841   0.02937   1.008E+00   1.000E-03  -9.367E-03
 533  8.25936656   0.690  -1.15532   3.59977   6.99358   1.87835   0.02918   1.008E+00   1.000E-03  -9.357E-03
 534  8.26175335   0.690  -1.15530   3.59977   6.99355   1.87830   0.02900   1.008E+00   1.000E-03  -9.333E-03
 535  8.26412709   0.690  -1.15529   3.59976   6.99352   1.87827   0.02884   1.008E+00   1.000E-03  -9.276E-03
 536  8.26648793   0.690  -1.15528   3.59976   6.99348   1.87824   0.02869   1.008E+00   1.000E-03  -9.219E-03
 537  8.26883600   0.690  -1.15527   3.59975   6.99345   1.87821   0.02854   1.008E+00   1.000E-03  -9.162E-03
 538  8.27117145   0.690  -1.15526   3.59975   6.99341   1.87817   0.02838   1.008E+00   1.000E-03  -9.105E-03
 539  8.27349440   0.690  -1.15525   3.59974   6.99338   1.87814   0.02823   1.008E+00   1.000E-03  -9.047E-03
 540  8.27580500   0.690  -1.15524   3.59974   6.99335   1.87811   0.02808   1.008E+00   1.000E-03  -8.990E-03
 541  8.27810336   0.690  -1.15523   3.59974   6.99331   1.87808   0.02792   1.008E+00   1.000E-03  -8.933E-03
 542  8.28038963   0.690  -1.15522   3.59973   6.99328   1.87805   0.02777   1.008E+00   1.000E-03  -8.876E-03
 543  8.28266393   0.690  -1.15521   3.59973   6.99324   1.87802   0.02762   1.008E+00   1.000E-03  -8.819E-03
 544  8.28492637   0.690  -1.15520   3.59972   6.99321   1.87798   0.02746   1.008E+00   1.000E-03  -8.762E-03
 545  8.28717710   0.690  -1.15519   3.59972   6.99318   1.87795   0.02731   1.008E+00   1.000E-03  -8.704E-03
 546  8.28941621   0.690  -1.15518   3.59971   6.99314   1.87792   0.02716   1.008E+00   1.000E-03  -8.647E-03
 547  8.29164385   0.690  -1.15517   3.59971   6.99311   1.87789   0.02701   1.008E+00   1.000E-03  -8.590E-03
 548  8.29386011   0.690  -1.15516   3.59970   6.99308   1.87786   0.02685   1.007E+00   1.000E-03  -8.533E-03
 549  8.29606512   0.690  -1.15515   3.59970   6.99304   1.87782   0.02670   1.007E+00   1.000E-03  -8.476E-03
 550  8.29825900   0.690  -1.15514   3.59969   6.99301   1.87779   0.02655   1.007E+00   1.000E-03  -8.419E-03
 551  8.30044184   0.690  -1.15513   3.59969   6.99297   1.87776   0.02639   1.007E+00   1.000E-03  -8.361E-03
 552  8.30261377   0.690  -1.15512   3.59968   6.99294   1.87773   0.02624   1.007E+00   1.000E-03  -8.304E-03
 553  8.30477490   0.690  -1.15511   3.59968   6.99291   1.87770   0.02609   1.007E+00   1.000E-03  -8.247E-03
 554  8.30692532   0.690  -1.15511   3.59967   6.99287   1.87767   0.02593   1.007E+00   1.000E-03  -8.190E-03
 555  8.30906514   0.690  -1.15510   3.59967   6.99284   1.87763   0.02578   1.007E+00   1.000E-03  -8.133E-03
 556  8.31119448   0.690  -1.15509   3.59966   6.99280   1.87760   0.02563   1.007E+00   1.000E-03  -8.076E-03
 557  8.31331342   0.690  -1.15508   3.59966   6.99277   1.87757   0.02547   1.007E+00   1.000E-03  -8.018E-03
 558  8.31542208   0.690  -1.15507   3.59965   6.99274   1.87754   0.02532   1.007E+00   1.000E-03  -7.961E-03
 559  8.31752055   0.690  -1.15506   3.59965   6.99270   1.87751   0.02517   1.007E+00   1.000E-03  -7.904E-03
 560  8.31960893   0.690  -1.15505   3.59964   6.99267   1.87748   0.02502   1.007E+00   1.000E-03  -7.847E-03
 561  8.32168731   0.690  -1.15504   3.59964   6.99263   1.87744   0.02486   1.007E+00   1.000E-03  -7.803E-03
 562  8.32375579   0.690  -1.15504   3.59963   6.99260   1.87740   0.02472   1.007E+00   1.000E-03  -7.817E-03
 563  8.32581447   0.690  -1.15504   3.59963   6.99256   1.87736   0.02458   1.007E+00   1.000E-03  -7.831E-03
 564  8.32786344   0.690  -1.15504   3.59962   6.99253   1.87732   0.02443   1.007E+00   1.000E-03  -7.845E-03
 565  8.32990278   0.690  -1.15504   3.59961   6.99250   1.87728   0.02429   1.007E+00   1.000E-03  -7.860E-03
 566  8.33193260   0.690  -1.15504   3.59961   6.99246   1.87724   0.02415   1.007E+00   1.000E-03  -7.874E-03
 567  8.33395297   0.690  -1.15504   3.59960   6.99243   1.87720   0.02400   1.007E+00   1.000E-03  -7.888E-03
 568  8.33596398   0.690  -1.15504   3.59960   6.99239   1.87716   0.02386   1.007E+00   1.000E-03  -7.902E-03
 569  8.33796573   0.690  -1.15504   3.59959   6.99236   1.87711   0.02372   1.007E+00   1.000E-03  -7.917E-03
 570  8.33995829   0.690  -1.15504   3.59958   6.99232   1.87707   0.02357   1.007E+00   1.000E-03  -7.931E-03
 571  8.34194175   0.690  -1.15503   3.59958   6.99229   1.87703   0.02343   1.007E+00   1.000E-03  -7.945E-03
 572  8.34391619   0.690  -1.15503   3.59957   6.99225   1.87699   0.02329   1.007E+00   1.000E-03  -7.959E-03
 573  8.34588170   0.690  -1.15503   3.59957   6.99222   1.87695   0.02314   1.007E+00   1.000E-03  -7.974E-03
 574  8.34783835   0.690  -1.15503   3.59956   6.99218   1.87691   0.02300   1.007E+00   1.000E-03  -7.988E-03
 575  8.34978623   0.690  -1.15503   3.59955   6.99215   1.87687   0.02286   1.007E+00   1.000E-03  -8.002E-03
 576  8.35172541   0.690  -1.15503   3.59955   6.99211   1.87683   0.02271   1.007E+00   1.000E-03  -8.016E-03
 577  8.35365597   0.690  -1.15503   3.59954   6.99208   1.87679   0.02257   1.007E+00   1.000E-03  -8.031E-03
 578  8.35557798   0.690  -1.15503   3.59953   6.99204   1.87674   0.02243   1.007E+00   1.000E-03  -8.045E-03
 579  8.35749153   0.690  -1.15503   3.59953   6.99201   1.87670   0.02228   1.007E+00   1.000E-03  -8.059E-03
 580  8.35939668   0.690  -1.15503   3.59952   6.99198   1.87666   0.02214   1.007E+00   1.000E-03  -8.074E-03
 581  8.36129351   0.690  -1.15503   3.59952   6.99194   1.87662   0.02200   1.007E+00   1.000E-03  -8.088E-03
 582  8.36318210   0.690  -1.15503   3.59951   6.99191   1.87658   0.02185   1.007E+00   1.000E-03  -8.102E-03
 583  8.36506250   0.690  -1.15503   3.59950   6.99187   1.87654   0.02171   1.007E+00   1.000E-03  -8.116E-03
 584  8.36693480   0.690  -1.15503   3.59950   6.99184   1.87650   0.02157   1.007E+00   1.000E-03  -8.131E-03
 585  8.36879906   0.690  -1.15503   3.59949   6.99180   1.87646   0.02142   1.007E+00   1.000E-03  -8.145E-03
 586  8.37065535   0.690  -1.15503   3.59949   6.99177   1.87642   0.02128   1.007E+00   1.000E-03  -8.159E-03
 587  8.37250375   0.690  -1.15503   3.59948   6.99173   1.87638   0.02114   1.007E+00   1.000E-03  -8.173E-03
 588  8.37434431   0.690  -1.15503   3.59947   6.99170   1.87633   0.02099   1.007E+00   1.000E-03  -8.188E-03
 589  8.37617710   0.690  -1.15503   3.59947   6.99166   1.87629   0.02085   1.007E+00   1.000E-03  -8.202E-03
 590  8.37800219   0.690  -1.15503   3.59946   6.99163   1.87625   0.02071   1.007E+00   1.000E-03  -8.216E-03
 591  8.37981964   0.690  -1.15503   3.59945   6.99159   1.87621   0.02056   1.007E+00   1.000E-03  -8.230E-03
 592  8.38162952   0.690  -1.15502   3.59945   6.99156   1.87617   0.02042   1.007E+00   1.000E-03  -8.245E-03
 593  8.38343188   0.690  -1.15502   3.59944   6.99152   1.87613   0.02028   1.007E+00   1.000E-03  -8.259E-03
 594  8.38522680   0.690  -1.15502   3.59944   6.99149   1.87609   0.02013   1.007E+00   1.000E-03  -8.273E-03
 595  8.38701433   0.690  -1.15502   3.59943   6.99146   1.87605   0.01999   1.007E+00   1.000E-03  -8.287E-03
 596  8.38879453   0.690  -1.15502   3.59942   6.99142   1.87601   0.01985   1.007E+00   1.000E-03  -8.302E-03
 597  8.39056747   0.690  -1.15502   3.59942   6.99139   1.87596   0.01970   1.007E+00   1.000E-03  -8.316E-03
 598  8.39233319   0.690  -1.15502   3.59941   6.99135   1.87592   0.01956   1.007E+00   1.000E-03  -8.330E-03
 599  8.39409177   0.690  -1.15502   3.59941   6.99132   1.87588   0.01942   1.007E+00   1.000E-03  -8.344E-03
 600  8.39584326   0.689  -1.15502   3.59940   6.99128   1.87584   0.01927   1.007E+00   1.000E-03  -8.359E-03
 601  8.39758771   0.689  -1.15502   3.59939   6.99125   1.87580   0.01913   1.007E+00   1.000E-03  -8.373E-03
 602  8.39932518   0.689  -1.15502   3.59939   6.99121   1.87576   0.01900   1.007E+00   1.000E-03  -8.373E-03
 603  8.40105572   0.689  -1.15502   3.59938   6.99118   1.87573   0.01890   1.007E+00   1.000E-03  -8.358E-03
 604  8.40277940   0.689  -1.15502   3.59938   6.99115   1.87570   0.01879   1.007E+00   1.000E-03  -8.343E-03
 605  8.40449627   0.689  -1.15501   3.59937   6.99111   1.87567   0.01868   1.007E+00   1.000E-03  -8.329E-03
 606  8.40620637   0.689  -1.15501   3.59936   6.99108   1.87564   0.01857   1.007E+00   1.000E-03  -8.314E-03
 607  8.40790977   0.689  -1.15501   3.59936   6.99105   1.87560   0.01846   1.007E+00   1.000E-03  -8.300E-03
 608  8.40960651   0.689  -1.15501   3.59935   6.99101   1.87557   0.01835   1.007E+00   1.000E-03  -8.285E-03
 609  8.41129665   0.689  -1.15501   3.59935   6.99098   1.87554   0.01825   1.007E+00   1.000E-03  -8.270E-03
 610  8.41298023   0.689  -1.15501   3.59934   6.99095   1.87551   0.01814   1.007E+00   1.000E-03  -8.256E-03
 611  8.41465732   0.689  -1.15501   3.59934   6.99092   1.87547   0.01803   1.007E+00   1.000E-03  -8.241E-03
 612  8.41632795   0.689  -1.15500   3.59933   6.99088   1.87544   0.01792   1.007E+00   1.000E-03  -8.227E-03
 613  8.41799218   0.689  -1.15500   3.59933   6.99085   1.87541   0.01781   1.007E+00   1.000E-03  -8.212E-03
 614  8.41965006   0.689  -1.15500   3.59932   6.99082   1.87538   0.01770   1.007E+00   1.000E-03  -8.198E-03
 615  8.42130164   0.689  -1.15500   3.59931   6.99078   1.87535   0.01759   1.007E+00   1.000E-03  -8.183E-03
 616  8.42294695   0.689  -1.15500   3.59931   6.99075   1.87531   0.01749   1.007E+00   1.000E-03  -8.168E-03
 617  8.42458606   0.689  -1.15500   3.59930   6.99072   1.87528   0.01738   1.007E+00   1.000E-03  -8.154E-03
 618  8.42621900   0.689  -1.15500   3.59930   6.99068   1.87525   0.01727   1.007E+00   1.000E-03  -8.139E-03
 619  8.42784583   0.689  -1.15499   3.59929   6.99065   1.87522   0.01716   1.007E+00   1.000E-03  -8.125E-03
 620  8.42946659   0.689  -1.15499   3.59929   6.99062   1.87519   0.01705   1.007E+00   1.000E-03  -8.110E-03
 621  8.43108132   0.689  -1.15499   3.59928   6.99058   1.87515   0.01694   1.007E+00   1.000E-03  -8.095E-03
 622  8.43269007   0.689  -1.15499   3.59928   6.99055   1.87512   0.01683   1.007E+00   1.000E-03  -8.081E-03
 623  8.43429288   0.689  -1.15499   3.59927   6.99052   1.87509   0.01673   1.007E+00   1.000E-03  -8.066E-03
 624  8.43588979   0.689  -1.15499   3.59926   6.99048   1.87506   0.01662   1.007E+00   1.000E-03  -8.052E-03
 625  8.43748086   0.689  -1.15499   3.59926   6.99045   1.87502   0.01651   1.007E+00   1.000E-03  -8.037E-03
 626  8.43906612   0.689  -1.15498   3.59925   6.99042   1.87499   0.01640   1.007E+00   1.000E-03  -8.022E-03
 627  8.44064562   0.689  -1.15498   3.59925   6.99039   1.87496   0.01629   1.007E+00   1.000E-03  -8.008E-03
 628  8.44221939   0.689  -1.15498   3.59924   6.99035   1.87493   0.01618   1.007E+00   1.000E-03  -7.993E-03
 629  8.44378747   0.689  -1.15498   3.59924   6.99032   1.87490   0.01607   1.007E+00   1.000E-03  -7.979E-03
 630  8.44534992   0.689  -1.15498   3.59923   6.99029   1.87486   0.01597   1.007E+00   1.000E-03  -7.964E-03
 631  8.44690677   0.689  -1.15498   3.59923   6.99025   1.87483   0.01586   1.007E+00   1.000E-03  -7.950E-03
 632  8.44845805   0.689  -1.15497   3.59922   6.99022   1.87480   0.01575   1.006E+00   1.000E-03  -7.935E-03
 633  8.45000381   0.689  -1.15497   3.59921   6.99019   1.87477   0.01564   1.006E+00   1.000E-03  -7.920E-03
 634  8.45154409   0.689  -1.15497   3.59921   6.99015   1.87474   0.01553   1.006E+00   1.000E-03  -7.906E-03
 635  8.45307893   0.689  -1.15497   3.59920   6.99012   1.87470   0.01542   1.006E+00   1.000E-03  -7.891E-03
 636  8.45460836   0.689  -1.15497   3.59920   6.99009   1.87467   0.01532   1.006E+00   1.000E-03  -7.877E-03
 637  8.45613243   0.689  -1.15497   3.59919   6.99005   1.87464   0.01521   1.006E+00   1.000E-03  -7.862E-03
 638  8.45765117   0.689  -1.15497   3.59919   6.99002   1.87461   0.01510   1.006E+00   1.000E-03  -7.847E-03
 639  8.45916461   0.689  -1.15496   3.59918   6.98999   1.87457   0.01499   1.006E+00   1.000E-03  -7.833E-03
 640  8.46067279   0.689  -1.15496   3.59918   6.98995   1.87454   0.01488   1.006E+00   1.000E-03  -7.818E-03
 641  8.46217576   0.689  -1.15496   3.59917   6.98992   1.87451   0.01477   1.006E+00   1.000E-03  -7.804E-03
 642  8.46367355   0.689  -1.15496   3.59916   6.98989   1.87448   0.01466   1.006E+00   1.000E-03  -7.789E-03
 643  8.46516618   0.689  -1.15496   3.59916   6.98986   1.87445   0.01456   1.006E+00   1.000E-03  -7.774E-03
 644  8.46665371   0.689  -1.15496   3.59915   6.98982   1.87441   0.01445   1.006E+00   1.000E-03  -7.760E-03
 645  8.46813615   0.689  -1.15496   3.59915   6.98979   1.87438   0.01434   1.006E+00   1.000E-03  -7.745E-03
 646  8.46961356   0.689  -1.15495   3.59914   6.98976   1.87435   0.01423   1.006E+00   1.000E-03  -7.731E-03
 647  8.47108595   0.689  -1.15495   3.59914   6.98972   1.87432   0.01412   1.006E+00   1.000E-03  -7.716E-03
 648  8.47255337   0.689  -1.15495   3.59913   6.98969   1.87429   0.01401   1.006E+00   1.000E-03  -7.702E-03
 649  8.47401585   0.689  -1.15495   3.59913   6.98966   1.87425   0.01390   1.006E+00   1.000E-03  -7.687E-03
 650  8.47547342   0.689  -1.15495   3.59912   6.98962   1.87422   0.01380   1.006E+00   1.000E-03  -7.672E-03
 651  8.47692611   0.689  -1.15495   3.59911   6.98959   1.87419   0.01369   1.006E+00   1.000E-03  -7.658E-03
 652  8.47837396   0.689  -1.15495   3.59911   6.98956   1.87416   0.01358   1.006E+00   1.000E-03  -7.643E-03
 653  8.47981700   0.689  -1.15494   3.59910   6.98952   1.87413   0.01347   1.006E+00   1.000E-03  -7.629E-03
 654  8.48125526   0.689  -1.15494   3.59910   6.98949   1.87409   0.01336   1.006E+00   1.000E-03  -7.614E-03
 655  8.48268878   0.689  -1.15494   3.59909   6.98946   1.87406   0.01325   1.006E+00   1.000E-03  -7.599E-03
 656  8.48411758   0.689  -1.15494   3.59909   6.98943   1.87403   0.01315   1.006E+00   1.000E-03  -7.585E-03
 657  8.48554169   0.689  -1.15494   3.59908   6.98939   1.87400   0.01304   1.006E+00   1.000E-03  -7.570E-03
 658  8.48696115   0.689  -1.15494   3.59908   6.98936   1.87396   0.01293   1.006E+00   1.000E-03  -7.556E-03
 659  8.48837598   0.689  -1.15494   3.59907   6.98933   1.87393   0.01282   1.006E+00   1.000E-03  -7.541E-03
 660  8.48978622   0.689  -1.15493   3.59906   6.98929   1.87390   0.01271   1.006E+00   1.000E-03  -7.526E-03
 661  8.49119189   0.689  -1.15493   3.59906   6.98926   1.87387   0.01260   1.006E+00   1.000E-03  -7.512E-03
 662  8.49259303   0.689  -1.15493   3.59905   6.98923   1.87384   0.01249   1.006E+00   1.000E-03  -7.497E-03
 663  8.49398967   0.689  -1.15493   3.59905   6.98920   1.87381   0.01241   1.006E+00   1.000E-03  -7.476E-03
 664  8.49538182   0.689  -1.15492   3.59905   6.98917   1.87380   0.01236   1.006E+00   1.000E-03  -7.448E-03
 665  8.49676953   0.689  -1.15491   3.59904   6.98915   1.87379   0.01230   1.006E+00   1.000E-03  -7.420E-03
 666  8.49815282   0.689  -1.15490   3.59904   6.98913   1.87378   0.01224   1.006E+00   1.000E-03  -7.392E-03
 667  8.49953172   0.689  -1.15490   3.59904   6.98910   1.87377   0.01219   1.006E+00   1.000E-03  -7.364E-03
 668  8.50090625   0.689  -1.15489   3.59903   6.98908   1.87375   0.01213   1.006E+00   1.000E-03  -7.336E-03
 669  8.50227645   0.689  -1.15488   3.59903   6.98905   1.87374   0.01208   1.006E+00   1.000E-03  -7.308E-03
 670  8.50364233   0.689  -1.15488   3.59903   6.98903   1.87373   0.01202   1.006E+00   1.000E-03  -7.280E-03
 671  8.50500394   0.689  -1.15487   3.59902   6.98900   1.87372   0.01197   1.006E+00   1.000E-03  -7.252E-03
 672  8.50636128   0.688  -1.15486   3.59902   6.98898   1.87371   0.01191   1.006E+00   1.000E-03  -7.224E-03
 673  8.50771440   0.688  -1.15485   3.59902   6.98896   1.87369   0.01185   1.006E+00   1.000E-03  -7.196E-03
 674  8.50906332   0.688  -1.15485   3.59902   6.98893   1.87368   0.01180   1.006E+00   1.000E-03  -7.168E-03
 675  8.51040806   0.688  -1.15484   3.59901   6.98891   1.87367   0.01174   1.006E+00   1.000E-03  -7.140E-03
 676  8.51174865   0.688  -1.15483   3.59901   6.98888   1.87366   0.01169   1.006E+00   1.000E-03  -7.112E-03
 677  8.51308511   0.688  -1.15483   3.59901   6.98886   1.87365   0.01163   1.006E+00   1.000E-03  -7.084E-03
 678  8.51441748   0.688  -1.15482   3.59900   6.98883   1.87364   0.01158   1.006E+00   1.000E-03  -7.056E-03
 679  8.51574576   0.688  -1.15481   3.59900   6.98881   1.87362   0.01152   1.006E+00   1.000E-03  -7.028E-03
 680  8.51707000   0.688  -1.15480   3.59900   6.98879   1.87361   0.01146   1.006E+00   1.000E-03  -7.000E-03
 681  8.51839021   0.688  -1.15480   3.59900   6.98876   1.87360   0.01141   1.006E+00   1.000E-03  -6.972E-03
 682  8.51970643   0.688  -1.15479   3.59899   6.98874   1.87359   0.01135   1.006E+00   1.000E-03  -6.944E-03
 683  8.52101866   0.688  -1.15478   3.59899   6.98871   1.87358   0.01130   1.006E+00   1.000E-03  -6.916E-03
 684  8.52232694   0.688  -1.15477   3.59899   6.98869   1.87356   0.01124   1.006E+00   1.000E-03  -6.888E-03
 685  8.52363129   0.688  -1.15477   3.59898   6.98866   1.87355   0.01119   1.006E+00   1.000E-03  -6.860E-03
 686  8.52493174   0.688  -1.15476   3.59898   6.98864   1.87354   0.01113   1.005E+00   1.000E-03  -6.833E-03
 687  8.52622830   0.688  -1.15475   3.59898   6.98862   1.87353   0.01107   1.005E+00   1.000E-03  -6.805E-03
 688  8.52752101   0.688  -1.15475   3.59897   6.98859   1.87352   0.01102   1.005E+00   1.000E-03  -6.777E-03
 689  8.52880988   0.688  -1.15474   3.59897   6.98857   1.87350   0.01096   1.005E+00   1.000E-03  -6.749E-03
 690  8.53009493   0.688  -1.15473   3.59897   6.98854   1.87349   0.01091   1.005E+00   1.000E-03  -6.721E-03
 691  8.53137620   0.688  -1.15472   3.59897   6.98852   1.87348   0.01085   1.005E+00   1.000E-03  -6.693E-03
 692  8.53265369   0.688  -1.15472   3.59896   6.98849   1.87347   0.01080   1.005E+00   1.000E-03  -6.665E-03
 693  8.53392744   0.688  -1.15471   3.59896   6.98847   1.87346   0.01074   1.005E+00   1.000E-03  -6.637E-03
 694  8.53519746   0.688  -1.15470   3.59896   6.98845   1.87344   0.01068   1.005E+00   1.000E-03  -6.609E-03
 695  8.53646378   0.688  -1.15470   3.59895   6.98842   1.87343   0.01063   1.005E+00   1.000E-03  -6.581E-03
 696  8.53772642   0.688  -1.15469   3.59895   6.98840   1.87342   0.01057   1.005E+00   1.000E-03  -6.553E-03
 697  8.53898540   0.688  -1.15468   3.59895   6.98837   1.87341   0.01052   1.005E+00   1.000E-03  -6.525E-03
 698  8.54024073   0.688  -1.15467   3.59895   6.98835   1.87340   0.01046   1.005E+00   1.000E-03  -6.497E-03
 699  8.54149245   0.688  -1.15467   3.59894   6.98832   1.87339   0.01041   1.005E+00   1.000E-03  -6.469E-03
 700  8.54274058   0.688  -1.15466   3.59894   6.98830   1.87337   0.01035   1.005E+00   1.000E-03  -6.441E-03
 701  8.54398512   0.688  -1.15465   3.59894   6.98828   1.87336   0.01029   1.005E+00   1.000E-03  -6.413E-03
 702  8.54522611   0.688  -1.15465   3.59893   6.98825   1.87335   0.01024   1.005E+00   1.000E-03  -6.385E-03
 703  8.54646357   0.688  -1.15464   3.59893   6.98823   1.87334   0.01018   1.005E+00   1.000E-03  -6.357E-03
 704  8.54769751   0.688  -1.15463   3.59893   6.98820   1.87333   0.01013   1.005E+00   1.000E-03  -6.329E-03
 705  8.54892795   0.688  -1.15462   3.59892   6.98818   1.87331   0.01007   1.005E+00   1.000E-03  -6.301E-03
 706  8.55015492   0.688  -1.15462   3.59892   6.98815   1.87330   0.01002   1.005E+00   1.000E-03  -6.273E-03
 707  8.55137842   0.688  -1.15461   3.59892   6.98813   1.87329   0.00996   1.005E+00   1.000E-03  -6.245E-03
 708  8.55259850   0.688  -1.15460   3.59892   6.98811   1.87328   0.00990   1.005E+00   1.000E-03  -6.217E-03
 709  8.55381515   0.688  -1.15459   3.59891   6.98808   1.87327   0.00985   1.005E+00   1.000E-03  -6.189E-03
 710  8.55502841   0.688  -1.15459   3.59891   6.98806   1.87325   0.00979   1.005E+00   1.000E-03  -6.161E-03
 711  8.55623828   0.688  -1.15458   3.59891   6.98803   1.87324   0.00974   1.005E+00   1.000E-03  -6.133E-03
 712  8.55744480   0.688  -1.15457   3.59890   6.98801   1.87323   0.00968   1.005E+00   1.000E-03  -6.105E-03
 713  8.55864797   0.688  -1.15457   3.59890   6.98798   1.87322   0.00963   1.005E+00   1.000E-03  -6.077E-03
 714  8.55984782   0.688  -1.15456   3.59890   6.98796   1.87321   0.00957   1.005E+00   1.000E-03  -6.049E-03
 715  8.56104436   0.688  -1.15455   3.59890   6.98794   1.87319   0.00951   1.005E+00   1.000E-03  -6.021E-03
 716  8.56223761   0.688  -1.15454   3.59889   6.98791   1.87318   0.00946   1.005E+00   1.000E-03  -5.993E-03
 717  8.56342760   0.688  -1.15454   3.59889   6.98789   1.87317   0.00940   1.005E+00   1.000E-03  -5.965E-03
 718  8.56461433   0.688  -1.15453   3.59889   6.98786   1.87316   0.00935   1.005E+00   1.000E-03  -5.937E-03
 719  8.56579783   0.688  -1.15452   3.59888   6.98784   1.87315   0.00929   1.005E+00   1.000E-03  -5.909E-03
 720  8.56697811   0.688  -1.15452   3.59888   6.98782   1.87314   0.00924   1.005E+00   1.000E-03  -5.881E-03
 721  8.56815519   0.688  -1.15451   3.59888   6.98779   1.87312   0.00918   1.005E+00   1.000E-03  -5.853E-03
 722  8.56932910   0.688  -1.15450   3.59887   6.98777   1.87311   0.00912   1.005E+00   1.000E-03  -5.825E-03
 723  8.57049983   0.688  -1.15449   3.59887   6.98774   1.87310   0.00907   1.005E+00   1.000E-03  -5.797E-03
 724  8.57166742   0.688  -1.15449   3.59887   6.98772   1.87309   0.00901   1.005E+00   1.000E-03  -5.769E-03
 725  8.57283188   0.688  -1.15448   3.59887   6.98769   1.87308   0.00896   1.005E+00   1.000E-03  -5.741E-03
 726  8.57399323   0.688  -1.15447   3.59886   6.98767   1.87306   0.00890   1.005E+00   1.000E-03  -5.714E-03
 727  8.57515148   0.688  -1.15446   3.59886   6.98765   1.87305   0.00885   1.005E+00   1.000E-03  -5.686E-03
 728  8.57630664   0.688  -1.15446   3.59886   6.98762   1.87304   0.00879   1.005E+00   1.000E-03  -5.658E-03
 729  8.57745875   0.688  -1.15445   3.59885   6.98760   1.87303   0.00873   1.005E+00   1.000E-03  -5.630E-03
 730  8.57860780   0.688  -1.15444   3.59885   6.98757   1.87302   0.00868   1.005E+00   1.000E-03  -5.602E-03
 731  8.57975382   0.688  -1.15444   3.59885   6.98755   1.87300   0.00862   1.005E+00   1.000E-03  -5.574E-03
 732  8.58089683   0.688  -1.15443   3.59884   6.98752   1.87299   0.00857   1.004E+00   1.000E-03  -5.546E-03
 733  8.58203684   0.688  -1.15442   3.59884   6.98750   1.87298   0.00851   1.004E+00   1.000E-03  -5.518E-03
 734  8.58317386   0.688  -1.15441   3.59884   6.98748   1.87297   0.00846   1.004E+00   1.000E-03  -5.490E-03
 735  8.58430791   0.688  -1.15441   3.59884   6.98745   1.87296   0.00840   1.004E+00   1.000E-03  -5.462E-03
 736  8.58543901   0.688  -1.15440   3.59883   6.98743   1.87294   0.00834   1.004E+00   1.000E-03  -5.434E-03
 737  8.58656717   0.688  -1.15439   3.59883   6.98740   1.87293   0.00829   1.004E+00   1.000E-03  -5.406E-03
 738  8.58769241   0.688  -1.15439   3.59883   6.98738   1.87292   0.00823   1.004E+00   1.000E-03  -5.378E-03
 739  8.58881474   0.688  -1.15438   3.59882   6.98735   1.87291   0.00818   1.004E+00   1.000E-03  -5.350E-03
 740  8.58993417   0.688  -1.15437   3.59882   6.98733   1.87290   0.00812   1.004E+00   1.000E-03  -5.322E-03
 741  8.59105073   0.688  -1.15436   3.59882   6.98731   1.87288   0.00806   1.004E+00   1.000E-03  -5.294E-03
 742  8.59216443   0.688  -1.15436   3.59882   6.98728   1.87287   0.00801   1.004E+00   1.000E-03  -5.266E-03
 743  8.59327527   0.687  -1.15435   3.59881   6.98726   1.87286   0.00795   1.004E+00   1.000E-03  -5.238E-03
 744  8.59438329   0.687  -1.15434   3.59881   6.98723   1.87285   0.00790   1.004E+00   1.000E-03  -5.210E-03
 745  8.59548848   0.687  -1.15433   3.59881   6.98721   1.87284   0.00784   1.004E+00   1.000E-03  -5.182E-03
 746  8.59659087   0.687  -1.15433   3.59880   6.98718   1.87283   0.00779   1.004E+00   1.000E-03  -5.154E-03
 747  8.59769046   0.687  -1.15432   3.59880   6.98716   1.87281   0.00773   1.004E+00   1.000E-03  -5.126E-03
 748  8.59878728   0.687  -1.15431   3.59880   6.98714   1.87280   0.00767   1.004E+00   1.000E-03  -5.098E-03
 749  8.59988134   0.687  -1.15431   3.59879   6.98711   1.87279   0.00762   1.004E+00   1.000E-03  -5.070E-03
 750  8.60097265   0.687  -1.15430   3.59879   6.98709   1.87278   0.00756   1.004E+00   1.000E-03  -5.042E-03
 751  8.60206122   0.687  -1.15429   3.59879   6.98706   1.87277   0.00751   1.004E+00   1.000E-03  -5.014E-03
 752  8.60314707   0.687  -1.15428   3.59879   6.98704   1.87275   0.00745   1.004E+00   1.000E-03  -4.986E-03
 753  8.60423021   0.687  -1.15428   3.59878   6.98701   1.87274   0.00740   1.004E+00   1.000E-03  -4.958E-03
 754  8.60531066   0.687  -1.15427   3.59878   6.98699   1.87273   0.00734   1.004E+00   1.000E-03  -4.930E-03
 755  8.60638842   0.687  -1.15426   3.59878   6.98697   1.87272   0.00731   1.004E+00   1.000E-03  -4.918E-03
 756  8.60746352   0.687  -1.15426   3.59878   6.98696   1.87272   0.00728   1.004E+00   1.000E-03  -4.905E-03
 757  8.60853597   0.687  -1.15425   3.59877   6.98694   1.87271   0.00725   1.004E+00   1.000E-03  -4.893E-03
 758  8.60960577   0.687  -1.15424   3.59877   6.98693   1.87271   0.00723   1.004E+00   1.000E-03  -4.881E-03
 759  8.61067294   0.687  -1.15424   3.59877   6.98691   1.87270   0.00720   1.004E+00   1.000E-03  -4.868E-03
 760  8.61173750   0.687  -1.15423   3.59877   6.98690   1.87270   0.00717   1.004E+00   1.000E-03  -4.856E-03
 761  8.61279945   0.687  -1.15422   3.59877   6.98688   1.87269   0.00714   1.004E+00   1.000E-03  -4.843E-03
 762  8.61385881   0.687  -1.15421   3.59877   6.98687   1.87269   0.00711   1.004E+00   1.000E-03  -4.831E-03
 763  8.61491560   0.687  -1.15421   3.59876   6.98685   1.87268   0.00708   1.004E+00   1.000E-03  -4.819E-03
 764  8.61596982   0.687  -1.15420   3.59876   6.98684   1.87268   0.00706   1.004E+00   1.000E-03  -4.806E-03
 765  8.61702149   0.687  -1.15419   3.59876   6.98682   1.87267   0.00703   1.004E+00   1.000E-03  -4.794E-03
 766  8.61807061   0.687  -1.15419   3.59876   6.98681   1.87266   0.00700   1.004E+00   1.000E-03  -4.781E-03
 767  8.61911721   0.687  -1.15418   3.59876   6.98679   1.87266   0.00697   1.004E+00   1.000E-03  -4.769E-03
 768  8.62016129   0.687  -1.15417   3.59876   6.98678   1.87265   0.00694   1.004E+00   1.000E-03  -4.757E-03
 769  8.62120287   0.687  -1.15417   3.59875   6.98676   1.87265   0.00691   1.004E+00   1.000E-03  -4.744E-03
 770  8.62224196   0.687  -1.15416   3.59875   6.98675   1.87264   0.00688   1.004E+00   1.000E-03  -4.732E-03
 771  8.62327856   0.687  -1.15415   3.59875   6.98673   1.87264   0.00686   1.004E+00   1.000E-03  -4.720E-03
 772  8.62431270   0.687  -1.15415   3.59875   6.98672   1.87263   0.00683   1.004E+00   1.000E-03  -4.707E-03
 773  8.62534438   0.687  -1.15414   3.59875   6.98670   1.87263   0.00680   1.004E+00   1.000E-03  -4.695E-03
 774  8.62637362   0.687  -1.15413   3.59875   6.98669   1.87262   0.00677   1.004E+00   1.000E-03  -4.682E-03
 775  8.62740042   0.687  -1.15412   3.59874   6.98667   1.87262   0.00674   1.004E+00   1.000E-03  -4.670E-03
 776  8.62842480   0.687  -1.15412   3.59874   6.98666   1.87261   0.00671   1.004E+00   1.000E-03  -4.658E-03
 777  8.62944677   0.687  -1.15411   3.59874   6.98664   1.87260   0.00669   1.004E+00   1.000E-03  -4.645E-03
 778  8.63046634   0.687  -1.15410   3.59874   6.98663   1.87260   0.00666   1.004E+00   1.000E-03  -4.633E-03
 779  8.63148353   0.687  -1.15410   3.59874   6.98661   1.87259   0.00663   1.004E+00   1.000E-03  -4.620E-03
 780  8.63249833   0.687  -1.15409   3.59873   6.98660   1.87259   0.00660   1.004E+00   1.000E-03  -4.608E-03
 781  8.63351077   0.687  -1.15408   3.59873   6.98658   1.87258   0.00657   1.004E+00   1.000E-03  -4.596E-03
 782  8.63452086   0.687  -1.15408   3.59873   6.98657   1.87258   0.00654   1.004E+00   1.000E-03  -4.583E-03
 783  8.63552860   0.687  -1.15407   3.59873   6.98655   1.87257   0.00651   1.004E+00   1.000E-03  -4.571E-03
 784  8.63653401   0.687  -1.15406   3.59873   6.98654   1.87257   0.00649   1.004E+00   1.000E-03  -4.559E-03
 785  8.63753710   0.687  -1.15406   3.59873   6.98652   1.87256   0.00646   1.004E+00   1.000E-03  -4.546E-03
 786  8.63853787   0.687  -1.15405   3.59872   6.98651   1.87256   0.00643   1.004E+00   1.000E-03  -4.534E-03
 787  8.63953635   0.687  -1.15404   3.59872   6.98649   1.87255   0.00640   1.004E+00   1.000E-03  -4.521E-03
 788  8.64053253   0.687  -1.15403   3.59872   6.98647   1.87254   0.00637   1.004E+00   1.000E-03  -4.509E-03
 789  8.64152643   0.687  -1.15403   3.59872   6.98646   1.87254   0.00634   1.003E+00   1.000E-03  -4.497E-03
 790  8.64251807   0.687  -1.15402   3.59872   6.98644   1.87253   0.00631   1.003E+00   1.000E-03  -4.484E-03
 791  8.64350744   0.687  -1.15401   3.59872   6.98643   1.87253   0.00629   1.003E+00   1.000E-03  -4.472E-03
 792  8.64449457   0.687  -1.15401   3.59871   6.98641   1.87252   0.00626   1.003E+00   1.000E-03  -4.459E-03
 793  8.64547946   0.687  -1.15400   3.59871   6.98640   1.87252   0.00623   1.003E+00   1.000E-03  -4.447E-03
 794  8.64646212   0.687  -1.15399   3.59871   6.98638   1.87251   0.00620   1.003E+00   1.000E-03  -4.435E-03
 795  8.64744256   0.687  -1.15399   3.59871   6.98637   1.87251   0.00617   1.003E+00   1.000E-03  -4.422E-03
 796  8.64842079   0.687  -1.15398   3.59871   6.98635   1.87250   0.00614   1.003E+00   1.000E-03  -4.410E-03
 797  8.64939683   0.687  -1.15397   3.59870   6.98634   1.87250   0.00612   1.003E+00   1.000E-03  -4.398E-03
 798  8.65037068   0.687  -1.15397   3.59870   6.98632   1.87249   0.00609   1.003E+00   1.000E-03  -4.385E-03
 799  8.65134234   0.687  -1.15396   3.59870   6.98631   1.87248   0.00606   1.003E+00   1.000E-03  -4.373E-03
 800  8.65231184   0.687  -1.15395   3.59870   6.98629   1.87248   0.00603   1.003E+00   1.000E-03  -4.360E-03
 801  8.65327918   0.687  -1.15394   3.59870   6.98628   1.87247   0.00600   1.003E+00   1.000E-03  -4.348E-03
 802  8.65424437   0.687  -1.15394   3.59870   6.98626   1.87247   0.00597   1.003E+00   1.000E-03  -4.336E-03
 803  8.65520742   0.687  -1.15393   3.59869   6.98625   1.87246   0.00594   1.003E+00   1.000E-03  -4.323E-03
 804  8.65616833   0.687  -1.15392   3.59869   6.98623   1.87246   0.00592   1.003E+00   1.000E-03  -4.311E-03
 805  8.65712713   0.687  -1.15392   3.59869   6.98622   1.87245   0.00589   1.003E+00   1.000E-03  -4.298E-03
 806  8.65808381   0.687  -1.15391   3.59869   6.98620   1.87245   0.00586   1.003E+00   1.000E-03  -4.286E-03
 807  8.65903840   0.687  -1.15390   3.59869   6.98619   1.87244   0.00583   1.003E+00   1.000E-03  -4.274E-03
 808  8.65999088   0.687  -1.15390   3.59869   6.98617   1.87243   0.00580   1.003E+00   1.000E-03  -4.261E-03
 809  8.66094129   0.687  -1.15389   3.59868   6.98616   1.87243   0.00577   1.003E+00   1.000E-03  -4.249E-03
 810  8.66188961   0.687  -1.15388   3.59868   6.98614   1.87242   0.00575   1.003E+00   1.000E-03  -4.237E-03
 811  8.66283588   0.686  -1.15388   3.59868   6.98613   1.87242   0.00572   1.003E+00   1.000E-03  -4.224E-03
 812  8.66378008   0.686  -1.15387   3.59868   6.98611   1.87241   0.00569   1.003E+00   1.000E-03  -4.212E-03
 813  8.66472224   0.686  -1.15386   3.59868   6.98610   1.87241   0.00566   1.003E+00   1.000E-03  -4.199E-03
 814  8.66566235   0.686  -1.15385   3.59868   6.98608   1.87240   0.00563   1.003E+00   1.000E-03  -4.187E-03
 815  8.66660044   0.686  -1.15385   3.59867   6.98607   1.87240   0.00560   1.003E+00   1.000E-03  -4.175E-03
 816  8.66753650   0.686  -1.15384   3.59867   6.98605   1.87239   0.00557   1.003E+00   1.000E-03  -4.162E-03
 817  8.66847055   0.686  -1.15383   3.59867   6.98604   1.87239   0.00555   1.003E+00   1.000E-03  -4.150E-03
 818  8.66940260   0.686  -1.15383   3.59867   6.98602   1.87238   0.00552   1.003E+00   1.000E-03  -4.137E-03
 819  8.67033265   0.686  -1.15382   3.59867   6.98601   1.87237   0.00549   1.003E+00   1.000E-03  -4.125E-03
 820  8.67126071   0.686  -1.15381   3.59866   6.98599   1.87237   0.00546   1.003E+00   1.000E-03  -4.113E-03
 821  8.67218680   0.686  -1.15381   3.59866   6.98597   1.87236   0.00543   1.003E+00   1.000E-03  -4.100E-03
 822  8.67311091   0.686  -1.15380   3.59866   6.98596   1.87236   0.00540   1.003E+00   1.000E-03  -4.088E-03
 823  8.67403306   0.686  -1.15379   3.59866   6.98594   1.87235   0.00537   1.003E+00   1.000E-03  -4.076E-03
 824  8.67495326   0.686  -1.15379   3.59866   6.98593   1.87235   0.00535   1.003E+00   1.000E-03  -4.063E-03
 825  8.67587151   0.686  -1.15378   3.59866   6.98591   1.87234   0.00532   1.003E+00   1.000E-03  -4.051E-03
 826  8.67678782   0.686  -1.15377   3.59865   6.98590   1.87234   0.00529   1.003E+00   1.000E-03  -4.038E-03
 827  8.67770221   0.686  -1.15376   3.59865   6.98588   1.87233   0.00526   1.003E+00   1.000E-03  -4.026E-03
 828  8.67861467   0.686  -1.15376   3.59865   6.98587   1.87233   0.00523   1.003E+00   1.000E-03  -4.014E-03
 829  8.67952522   0.686  -1.15375   3.59865   6.98585   1.87232   0.00520   1.003E+00   1.000E-03  -4.001E-03
 830  8.68043387   0.686  -1.15374   3.59865   6.98584   1.87231   0.00518   1.003E+00   1.000E-03  -3.989E-03
 831  8.68134062   0.686  -1.15374   3.59865   6.98582   1.87231   0.00515   1.003E+00   1.000E-03  -3.976E-03
 832  8.68224548   0.686  -1.15373   3.59864   6.98581   1.87230   0.00512   1.003E+00   1.000E-03  -3.964E-03
 833  8.68314845   0.686  -1.15372   3.59864   6.98579   1.87230   0.00509   1.003E+00   1.000E-03  -3.952E-03
 834  8.68404956   0.686  -1.15372   3.59864   6.98578   1.87229   0.00506   1.003E+00   1.000E-03  -3.939E-03
 835  8.68494880   0.686  -1.15371   3.59864   6.98576   1.87229   0.00503   1.003E+00   1.000E-03  -3.927E-03
 836  8.68584618   0.686  -1.15370   3.59864   6.98575   1.87228   0.00500   1.003E+00   1.000E-03  -3.915E-03
 837  8.68674171   0.686  -1.15370   3.59863   6.98573   1.87228   0.00498   1.003E+00   1.000E-03  -3.902E-03
 838  8.68763539   0.686  -1.15369   3.59863   6.98572   1.87227   0.00495   1.003E+00   1.000E-03  -3.890E-03
 839  8.68852725   0.686  -1.15368   3.59863   6.98570   1.87227   0.00492   1.003E+00   1.000E-03  -3.877E-03
 840  8.68941727   0.686  -1.15367   3.59863   6.98569   1.87226   0.00489   1.003E+00   1.000E-03  -3.865E-03
 841  8.69030547   0.686  -1.15367   3.59863   6.98567   1.87225   0.00486   1.003E+00   1.000E-03  -3.853E-03
 842  8.69119187   0.686  -1.15366   3.59863   6.98566   1.87225   0.00483   1.003E+00   1.000E-03  -3.840E-03
 843  8.69207645   0.686  -1.15365   3.59862   6.98564   1.87224   0.00481   1.003E+00   1.000E-03  -3.828E-03
 844  8.69295924   0.686  -1.15365   3.59862   6.98563   1.87224   0.00478   1.003E+00   1.000E-03  -3.815E-03
 845  8.69384024   0.686  -1.15364   3.59862   6.98561   1.87223   0.00475   1.003E+00   1.000E-03  -3.803E-03
 846  8.69471945   0.686  -1.15363   3.59862   6.98560   1.87223   0.00472   1.003E+00   1.000E-03  -3.791E-03
 847  8.69559689   0.686  -1.15363   3.59862   6.98558   1.87222   0.00469   1.003E+00   1.000E-03  -3.778E-03
 848  8.69647255   0.686  -1.15362   3.59862   6.98557   1.87222   0.00466   1.003E+00   1.000E-03  -3.766E-03
 849  8.69734646   0.686  -1.15361   3.59861   6.98555   1.87221   0.00463   1.003E+00   1.000E-03  -3.754E-03
 850  8.69821861   0.686  -1.15361   3.59861   6.98554   1.87221   0.00461   1.003E+00   1.000E-03  -3.741E-03
 851  8.69908901   0.686  -1.15360   3.59861   6.98552   1.87220   0.00458   1.003E+00   1.000E-03  -3.729E-03
 852  8.69995767   0.686  -1.15359   3.59861   6.98551   1.87219   0.00455   1.003E+00   1.000E-03  -3.716E-03
 853  8.70082460   0.686  -1.15358   3.59861   6.98549   1.87219   0.00452   1.003E+00   1.000E-03  -3.704E-03
 854  8.70168980   0.686  -1.15358   3.59861   6.98547   1.87218   0.00449   1.003E+00   1.000E-03  -3.692E-03
 855  8.70255328   0.686  -1.15357   3.59860   6.98546   1.87218   0.00446   1.003E+00   1.000E-03  -3.679E-03
 856  8.70341505   0.686  -1.15356   3.59860   6.98544   1.87217   0.00443   1.003E+00   1.000E-03  -3.667E-03
 857  8.70427511   0.686  -1.15356   3.59860   6.98543   1.87217   0.00441   1.002E+00   1.000E-03  -3.654E-03
 858  8.70513347   0.686  -1.15355   3.59860   6.98541   1.87216   0.00438   1.002E+00   1.000E-03  -3.642E-03
 859  8.70599014   0.686  -1.15354   3.59860   6.98540   1.87216   0.00435   1.002E+00   1.000E-03  -3.630E-03
 860  8.70684512   0.686  -1.15354   3.59859   6.98538   1.87215   0.00432   1.002E+00   1.000E-03  -3.617E-03
 861  8.70769842   0.686  -1.15353   3.59859   6.98537   1.87215   0.00429   1.002E+00   1.000E-03  -3.605E-03
 862  8.70855005   0.686  -1.15352   3.59859   6.98535   1.87214   0.00426   1.002E+00   1.000E-03  -3.593E-03
 863  8.70940001   0.686  -1.15352   3.59859   6.98534   1.87213   0.00424   1.002E+00   1.000E-03  -3.580E-03
 864  8.71024831   0.686  -1.15351   3.59859   6.98532   1.87213   0.00421   1.002E+00   1.000E-03  -3.568E-03
 865  8.71109496   0.686  -1.15350   3.59859   6.98531   1.87212   0.00418   1.002E+00   1.000E-03  -3.555E-03
 866  8.71193996   0.686  -1.15349   3.59858   6.98529   1.87212   0.00415   1.002E+00   1.000E-03  -3.543E-03
 867  8.71278332   0.686  -1.15349   3.59858   6.98528   1.87211   0.00412   1.002E+00   1.000E-03  -3.531E-03
 868  8.71362504   0.686  -1.15348   3.59858   6.98526   1.87211   0.00409   1.002E+00   1.000E-03  -3.518E-03
 869  8.71446514   0.686  -1.15347   3.59858   6.98525   1.87210   0.00406   1.002E+00   1.000E-03  -3.506E-03
 870  8.71530361   0.686  -1.15347   3.59858   6.98523   1.87210   0.00404   1.002E+00   1.000E-03  -3.493E-03
 871  8.71614047   0.686  -1.15346   3.59858   6.98522   1.87209   0.00401   1.002E+00   1.000E-03  -3.481E-03
 872  8.71697572   0.686  -1.15345   3.59857   6.98520   1.87209   0.00398   1.002E+00   1.000E-03  -3.469E-03
 873  8.71780936   0.686  -1.15345   3.59857   6.98519   1.87208   0.00395   1.002E+00   1.000E-03  -3.456E-03
 874  8.71864141   0.686  -1.15344   3.59857   6.98517   1.87207   0.00392   1.002E+00   1.000E-03  -3.444E-03
 875  8.71947187   0.686  -1.15343   3.59857   6.98516   1.87207   0.00389   1.002E+00   1.000E-03  -3.432E-03
 876  8.72030074   0.686  -1.15343   3.59857   6.98514   1.87206   0.00387   1.002E+00   1.000E-03  -3.419E-03
 877  8.72112804   0.686  -1.15342   3.59856   6.98513   1.87206   0.00384   1.002E+00   1.000E-03  -3.407E-03
 878  8.72195376   0.686  -1.15341   3.59856   6.98511   1.87205   0.00381   1.002E+00   1.000E-03  -3.394E-03
 879  8.72277791   0.685  -1.15340   3.59856   6.98510   1.87205   0.00378   1.002E+00   1.000E-03  -3.382E-03
 880  8.72360050   0.685  -1.15340   3.59856   6.98508   1.87204   0.00375   1.002E+00   1.000E-03  -3.370E-03
 881  8.72442154   0.685  -1.15339   3.59856   6.98507   1.87204   0.00372   1.002E+00   1.000E-03  -3.357E-03
 882  8.72524103   0.685  -1.15338   3.59856   6.98505   1.87203   0.00369   1.002E+00   1.000E-03  -3.345E-03
 883  8.72605897   0.685  -1.15338   3.59855   6.98504   1.87203   0.00367   1.002E+00   1.000E-03  -3.332E-03
 884  8.72687538   0.685  -1.15337   3.59855   6.98502   1.87202   0.00364   1.002E+00   1.000E-03  -3.320E-03
 885  8.72769026   0.685  -1.15336   3.59855   6.98501   1.87201   0.00361   1.002E+00   1.000E-03  -3.308E-03
 886  8.72850361   0.685  -1.15336   3.59855   6.98499   1.87201   0.00358   1.002E+00   1.000E-03  -3.295E-03
 887  8.72931543   0.685  -1.15335   3.59855   6.98497   1.87200   0.00355   1.002E+00   1.000E-03  -3.283E-03
 888  8.73012575   0.685  -1.15334   3.59855   6.98496   1.87200   0.00352   1.002E+00   1.000E-03  -3.271E-03
 889  8.73093455   0.685  -1.15334   3.59854   6.98494   1.87199   0.00349   1.002E+00   1.000E-03  -3.258E-03
 890  8.73174186   0.685  -1.15333   3.59854   6.98493   1.87199   0.00347   1.002E+00   1.000E-03  -3.246E-03
 891  8.73254766   0.685  -1.15332   3.59854   6.98491   1.87198   0.00344   1.002E+00   1.000E-03  -3.233E-03
 892  8.73335197   0.685  -1.15332   3.59854   6.98490   1.87198   0.00342   1.002E+00   1.000E-03  -3.226E-03
 893  8.73415480   0.685  -1.15331   3.59854   6.98489   1.87198   0.00341   1.002E+00   1.000E-03  -3.220E-03
 894  8.73495614   0.685  -1.15330   3.59854   6.98489   1.87198   0.00339   1.002E+00   1.000E-03  -3.214E-03
 895  8.73575601   0.685  -1.15330   3.59854   6.98488   1.87198   0.00338   1.002E+00   1.000E-03  -3.208E-03
 896  8.73655440   0.685  -1.15329   3.59854   6.98487   1.87198   0.00337   1.002E+00   1.000E-03  -3.202E-03
 897  8.73735133   0.685  -1.15328   3.59853   6.98486   1.87198   0.00335   1.002E+00   1.000E-03  -3.196E-03
 898  8.73814681   0.685  -1.15328   3.59853   6.98485   1.87198   0.00334   1.002E+00   1.000E-03  -3.190E-03
 899  8.73894082   0.685  -1.15327   3.59853   6.98484   1.87198   0.00333   1.002E+00   1.000E-03  -3.184E-03
 900  8.73973339   0.685  -1.15326   3.59853   6.98483   1.87198   0.00332   1.002E+00   1.000E-03  -3.178E-03
 901  8.74052452   0.685  -1.15326   3.59853   6.98482   1.87198   0.00330   1.002E+00   1.000E-03  -3.172E-03
 902  8.74131421   0.685  -1.15325   3.59853   6.98481   1.87198   0.00329   1.002E+00   1.000E-03  -3.166E-03
 903  8.74210246   0.685  -1.15324   3.59853   6.98481   1.87198   0.00328   1.002E+00   1.000E-03  -3.160E-03
 904  8.74288928   0.685  -1.15324   3.59853   6.98480   1.87198   0.00326   1.002E+00   1.000E-03  -3.154E-03
 905  8.74367469   0.685  -1.15323   3.59853   6.98479   1.87198   0.00325   1.002E+00   1.000E-03  -3.148E-03
 906  8.74445867   0.685  -1.15322   3.59853   6.98478   1.87198   0.00324   1.002E+00   1.000E-03  -3.142E-03
 907  8.74524124   0.685  -1.15322   3.59853   6.98477   1.87198   0.00322   1.002E+00   1.000E-03  -3.136E-03
 908  8.74602241   0.685  -1.15321   3.59852   6.98476   1.87198   0.00321   1.002E+00   1.000E-03  -3.130E-03
 909  8.74680217   0.685  -1.15320   3.59852   6.98475   1.87198   0.00320   1.002E+00   1.000E-03  -3.124E-03
 910  8.74758053   0.685  -1.15320   3.59852   6.98474   1.87198   0.00318   1.002E+00   1.000E-03  -3.118E-03
 911  8.74835750   0.685  -1.15319   3.59852   6.98473   1.87198   0.00317   1.002E+00   1.000E-03  -3.112E-03
 912  8.74913309   0.685  -1.15318   3.59852   6.98473   1.87198   0.00316   1.002E+00   1.000E-03  -3.106E-03
 913  8.74990729   0.685  -1.15318   3.59852   6.98472   1.87198   0.00314   1.002E+00   1.000E-03  -3.101E-03
 914  8.75068011   0.685  -1.15317   3.59852   6.98471   1.87198   0.00313   1.002E+00   1.000E-03  -3.095E-03
 915  8.75145156   0.685  -1.15316   3.59852   6.98470   1.87198   0.00312   1.002E+00   1.000E-03  -3.089E-03
 916  8.75222164   0.685  -1.15316   3.59852   6.98469   1.87198   0.00310   1.002E+00   1.000E-03  -3.083E-03
 917  8.75299036   0.685  -1.15315   3.59852   6.98468   1.87198   0.00309   1.002E+00   1.000E-03  -3.077E-03
 918  8.75375773   0.685  -1.15314   3.59852   6.98467   1.87198   0.00308   1.002E+00   1.000E-03  -3.071E-03
 919  8.75452373   0.685  -1.15314   3.59852   6.98466   1.87198   0.00306   1.002E+00   1.000E-03  -3.065E-03
 920  8.75528839   0.685  -1.15313   3.59851   6.98465   1.87198   0.00305   1.002E+00   1.000E-03  -3.059E-03
 921  8.75605171   0.685  -1.15313   3.59851   6.98465   1.87198   0.00304   1.002E+00   1.000E-03  -3.053E-03
 922  8.75681368   0.685  -1.15312   3.59851   6.98464   1.87198   0.00303   1.002E+00   1.000E-03  -3.047E-03
 923  8.75757433   0.685  -1.15311   3.59851   6.98463   1.87198   0.00301   1.002E+00   1.000E-03  -3.041E-03
 924  8.75833364   0.685  -1.15311   3.59851   6.98462   1.87198   0.00300   1.002E+00   1.000E-03  -3.035E-03
 925  8.75909162   0.685  -1.15310   3.59851   6.98461   1.87197   0.00299   1.002E+00   1.000E-03  -3.029E-03
 926  8.75984829   0.685  -1.15309   3.59851   6.98460   1.87197   0.00297   1.002E+00   1.000E-03  -3.023E-03
 927  8.76060364   0.685  -1.15309   3.59851   6.98459   1.87197   0.00296   1.002E+00   1.000E-03  -3.017E-03
 928  8.76135768   0.685  -1.15308   3.59851   6.98458   1.87197   0.00295   1.002E+00   1.000E-03  -3.011E-03
 929  8.76211041   0.685  -1.15307   3.59851   6.98457   1.87197   0.00293   1.002E+00   1.000E-03  -3.005E-03
 930  8.76286184   0.685  -1.15307   3.59851   6.98456   1.87197   0.00292   1.002E+00   1.000E-03  -2.999E-03
 931  8.76361197   0.685  -1.15306   3.59850   6.98456   1.87197   0.00291   1.002E+00   1.000E-03  -2.993E-03
 932  8.76436081   0.685  -1.15305   3.59850   6.98455   1.87197   0.00289   1.002E+00   1.000E-03  -2.987E-03
 933  8.76510836   0.685  -1.15305   3.59850   6.98454   1.87197   0.00288   1.002E+00   1.000E-03  -2.981E-03
 934  8.76585462   0.685  -1.15304   3.59850   6.98453   1.87197   0.00287   1.002E+00   1.000E-03  -2.975E-03
 935  8.76659960   0.685  -1.15303   3.59850   6.98452   1.87197   0.00285   1.002E+00   1.000E-03  -2.969E-03
 936  8.76734331   0.685  -1.15303   3.59850   6.98451   1.87197   0.00284   1.002E+00   1.000E-03  -2.964E-03
 937  8.76808575   0.685  -1.15302   3.59850   6.98450   1.87197   0.00283   1.002E+00   1.000E-03  -2.958E-03
 938  8.76882692   0.685  -1.15301   3.59850   6.98449   1.87197   0.00281   1.002E+00   1.000E-03  -2.952E-03
 939  8.76956683   0.685  -1.15301   3.59850   6.98448   1.87197   0.00280   1.002E+00   1.000E-03  -2.946E-03
 940  8.77030548   0.685  -1.15300   3.59850   6.98448   1.87197   0.00279   1.002E+00   1.000E-03  -2.940E-03
 941  8.77104287   0.685  -1.15299   3.59850   6.98447   1.87197   0.00278   1.002E+00   1.000E-03  -2.934E-03
 942  8.77177901   0.685  -1.15299   3.59849   6.98446   1.87197   0.00276   1.002E+00   1.000E-03  -2.928E-03
 943  8.77251391   0.685  -1.15298   3.59849   6.98445   1.87197   0.00275   1.002E+00   1.000E-03  -2.922E-03
 944  8.77324757   0.685  -1.15297   3.59849   6.98444   1.87197   0.00274   1.002E+00   1.000E-03  -2.916E-03
 945  8.77397999   0.684  -1.15297   3.59849   6.98443   1.87197   0.00272   1.002E+00   1.000E-03  -2.910E-03
 946  8.77471118   0.684  -1.15296   3.59849   6.98442   1.87197   0.00271   1.002E+00   1.000E-03  -2.904E-03
 947  8.77544114   0.684  -1.15295   3.59849   6.98441   1.87197   0.00270   1.002E+00   1.000E-03  -2.898E-03
 948  8.77616987   0.684  -1.15295   3.59849   6.98440   1.87197   0.00268   1.002E+00   1.000E-03  -2.892E-03
 949  8.77689738   0.684  -1.15294   3.59849   6.98440   1.87197   0.00267   1.002E+00   1.000E-03  -2.886E-03
 950  8.77762368   0.684  -1.15293   3.59849   6.98439   1.87197   0.00266   1.002E+00   1.000E-03  -2.880E-03
 951  8.77834876   0.684  -1.15293   3.59849   6.98438   1.87197   0.00264   1.002E+00   1.000E-03  -2.874E-03
 952  8.77907264   0.684  -1.15292   3.59849   6.98437   1.87197   0.00263   1.002E+00   1.000E-03  -2.868E-03
 953  8.77979531   0.684  -1.15292   3.59848   6.98436   1.87197   0.00262   1.002E+00   1.000E-03  -2.862E-03
 954  8.78051677   0.684  -1.15291   3.59848   6.98435   1.87197   0.00260   1.002E+00   1.000E-03  -2.856E-03
 955  8.78123705   0.684  -1.15290   3.59848   6.98434   1.87197   0.00259   1.002E+00   1.000E-03  -2.850E-03
 956  8.78195613   0.684  -1.15290   3.59848   6.98433   1.87197   0.00258   1.002E+00   1.000E-03  -2.844E-03
 957  8.78267402   0.684  -1.15289   3.59848   6.98432   1.87197   0.00256   1.002E+00   1.000E-03  -2.838E-03
 958  8.78339073   0.684  -1.15288   3.59848   6.98432   1.87197   0.00255   1.002E+00   1.000E-03  -2.832E-03
 959  8.78410625   0.684  -1.15288   3.59848   6.98431   1.87197   0.00254   1.002E+00   1.000E-03  -2.826E-03
 960  8.78482060   0.684  -1.15287   3.59848   6.98430   1.87197   0.00252   1.002E+00   1.000E-03  -2.821E-03
 961  8.78553378   0.684  -1.15286   3.59848   6.98429   1.87197   0.00251   1.002E+00   1.000E-03  -2.815E-03
 962  8.78624579   0.684  -1.15286   3.59848   6.98428   1.87197   0.00250   1.002E+00   1.000E-03  -2.809E-03
 963  8.78695663   0.684  -1.15285   3.59848   6.98427   1.87197   0.00249   1.002E+00   1.000E-03  -2.803E-03
 964  8.78766631   0.684  -1.15284   3.59847   6.98426   1.87197   0.00247   1.002E+00   1.000E-03  -2.797E-03
 965  8.78837483   0.684  -1.15284   3.59847   6.98425   1.87197   0.00246   1.002E+00   1.000E-03  -2.791E-03
 966  8.78908220   0.684  -1.15283   3.59847   6.98424   1.87197   0.00245   1.002E+00   1.000E-03  -2.785E-03
 967  8.78978842   0.684  -1.15282   3.59847   6.98424   1.87197   0.00243   1.002E+00   1.000E-03  -2.779E-03
 968  8.79049349   0.684  -1.15282   3.59847   6.98423   1.87197   0.00242   1.002E+00   1.000E-03  -2.773E-03
 969  8.79119742   0.684  -1.15281   3.59847   6.98422   1.87197   0.00241   1.002E+00   1.000E-03  -2.767E-03
 970  8.79190021   0.684  -1.15280   3.59847   6.98421   1.87197   0.00239   1.002E+00   1.000E-03  -2.761E-03
 971  8.79260186   0.684  -1.15280   3.59847   6.98420   1.87197   0.00238   1.002E+00   1.000E-03  -2.755E-03
 972  8.79330238   0.684  -1.15279   3.59847   6.98419   1.87197   0.00237   1.002E+00   1.000E-03  -2.749E-03
 973  8.79400178   0.684  -1.15278   3.59847   6.98418   1.87197   0.00235   1.002E+00   1.000E-03  -2.743E-03
 974  8.79470005   0.684  -1.15278   3.59847   6.98417   1.87197   0.00234   1.002E+00   1.000E-03  -2.737E-03
 975  8.79539719   0.684  -1.15277   3.59846   6.98416   1.87197   0.00233   1.002E+00   1.000E-03  -2.731E-03
 976  8.79609323   0.684  -1.15276   3.59846   6.98415   1.87197   0.00231   1.002E+00   1.000E-03  -2.725E-03
 977  8.79678814   0.684  -1.15276   3.59846   6.98415   1.87197   0.00230   1.002E+00   1.000E-03  -2.719E-03
 978  8.79748195   0.684  -1.15275   3.59846   6.98414   1.87197   0.00229   1.002E+00   1.000E-03  -2.713E-03
 979  8.79817465   0.684  -1.15274   3.59846   6.98413   1.87197   0.00227   1.002E+00   1.000E-03  -2.707E-03
 980  8.79886625   0.684  -1.15274   3.59846   6.98412   1.87197   0.00226   1.002E+00   1.000E-03  -2.701E-03
 981  8.79955675   0.684  -1.15273   3.59846   6.98411   1.87197   0.00225   1.002E+00   1.000E-03  -2.695E-03
 982  8.80024615   0.684  -1.15272   3.59846   6.98410   1.87197   0.00224   1.002E+00   1.000E-03  -2.689E-03
 983  8.80093446   0.684  -1.15272   3.59846   6.98409   1.87197   0.00222   1.002E+00   1.000E-03  -2.683E-03
 984  8.80162168   0.684  -1.15271   3.59846   6.98408   1.87197   0.00221   1.002E+00   1.000E-03  -2.678E-03
 985  8.80230782   0.684  -1.15271   3.59846   6.98407   1.87197   0.00220   1.002E+00   1.000E-03  -2.672E-03
 986  8.80299287   0.684  -1.15270   3.59845   6.98407   1.87197   0.00218   1.002E+00   1.000E-03  -2.666E-03
 987  8.80367684   0.684  -1.15269   3.59845   6.98406   1.87197   0.00217   1.002E+00   1.000E-03  -2.660E-03
 988  8.80435974   0.684  -1.15269   3.59845   6.98405   1.87197   0.00216   1.002E+00   1.000E-03  -2.654E-03
 989  8.80504156   0.684  -1.15268   3.59845   6.98404   1.87197   0.00214   1.002E+00   1.000E-03  -2.648E-03
 990  8.80572232   0.684  -1.15267   3.59845   6.98403   1.87197   0.00213   1.002E+00   1.000E-03  -2.642E-03
 991  8.80640201   0.684  -1.15267   3.59845   6.98402   1.87197   0.00212   1.002E+00   1.000E-03  -2.636E-03
 992  8.80708064   0.684  -1.15266   3.59845   6.98401   1.87196   0.00210   1.001E+00   1.000E-03  -2.630E-03
 993  8.80775821   0.684  -1.15265   3.59845   6.98400   1.87196   0.00209   1.001E+00   1.000E-03  -2.624E-03
 994  8.80843473   0.684  -1.15265   3.59845   6.98399   1.87196   0.00208   1.001E+00   1.000E-03  -2.618E-03
 995  8.80911019   0.684  -1.15264   3.59845   6.98399   1.87196   0.00206   1.001E+00   1.000E-03  -2.612E-03
 996  8.80978461   0.684  -1.15263   3.59845   6.98398   1.87196   0.00205   1.001E+00   1.000E-03  -2.606E-03
 997  8.81045797   0.684  -1.15263   3.59844   6.98397   1.87196   0.00204   1.001E+00   1.000E-03  -2.600E-03
 998  8.81113030   0.684  -1.15262   3.59844   6.98396   1.87196   0.00202   1.001E+00   1.000E-03  -2.594E-03
 999  8.81180159   0.684  -1.15261   3.59844   6.98395   1.87196   0.00201   1.001E+00   1.000E-03  -2.588E-03
1000  8.81247184   0.684  -1.15261   3.59844   6.98394   1.87196   0.00200   1.001E+00   1.000E-03  -2.582E-03
1001  8.81314106   0.684  -1.15260   3.59844   6.98393   1.87196   0.00199   1.001E+00   1.000E-03  -2.576E-03
1002  8.81380924   0.684  -1.15259   3.59844   6.98392   1.87196   0.00197   1.001E+00   1.000E-03  -2.570E-03
1003  8.81447641   0.684  -1.15259   3.59844   6.98391   1.87196   0.00196   1.001E+00   1.000E-03  -2.564E-03
1004  8.81514255   0.684  -1.15258   3.59844   6.98391   1.87196   0.00195   1.001E+00   1.000E-03  -2.558E-03
1005  8.81580766   0.684  -1.15257   3.59844   6.98390   1.87196   0.00193   1.001E+00   1.000E-03  -2.552E-03
1006  8.81647176   0.684  -1.15257   3.59844   6.98389   1.87196   0.00192   1.001E+00   1.000E-03  -2.546E-03
1007  8.81713485   0.684  -1.15256   3.59844   6.98388   1.87196   0.00191   1.001E+00   1.000E-03  -2.540E-03
1008  8.81779693   0.684  -1.15255   3.59843   6.98387   1.87196   0.00189   1.001E+00   1.000E-03  -2.535E-03
1009  8.81845800   0.683  -1.15255   3.59843   6.98386   1.87196   0.00188   1.001E+00   1.000E-03  -2.529E-03
1010  8.81911806   0.683  -1.15254   3.59843   6.98385   1.87196   0.00187   1.001E+00   1.000E-03  -2.523E-03
1011  8.81977712   0.683  -1.15253   3.59843   6.98384   1.87196   0.00185   1.001E+00   1.000E-03  -2.517E-03
1012  8.82043519   0.683  -1.15253   3.59843   6.98383   1.87196   0.00184   1.001E+00   1.000E-03  -2.511E-03
1013  8.82109226   0.683  -1.15252   3.59843   6.98383   1.87196   0.00183   1.001E+00   1.000E-03  -2.505E-03
1014  8.82174833   0.683  -1.15252   3.59843   6.98382   1.87196   0.00181   1.001E+00   1.000E-03  -2.499E-03
1015  8.82240342   0.683  -1.15251   3.59843   6.98381   1.87196   0.00180   1.001E+00   1.000E-03  -2.493E-03
1016  8.82305752   0.683  -1.15250   3.59843   6.98380   1.87196   0.00179   1.001E+00   1.000E-03  -2.487E-03
1017  8.82371063   0.683  -1.15250   3.59843   6.98379   1.87196   0.00177   1.001E+00   1.000E-03  -2.481E-03
1018  8.82436277   0.683  -1.15249   3.59843   6.98378   1.87196   0.00176   1.001E+00   1.000E-03  -2.475E-03
1019  8.82501392   0.683  -1.15248   3.59842   6.98377   1.87196   0.00175   1.001E+00   1.000E-03  -2.469E-03
1020  8.82566411   0.683  -1.15248   3.59842   6.98376   1.87196   0.00173   1.001E+00   1.000E-03  -2.463E-03
1021  8.82631332   0.683  -1.15247   3.59842   6.98375   1.87196   0.00172   1.001E+00   1.000E-03  -2.457E-03
1022  8.82696156   0.683  -1.15246   3.59842   6.98374   1.87196   0.00171   1.001E+00   1.000E-03  -2.451E-03
1023  8.82760883   0.683  -1.15246   3.59842   6.98374   1.87196   0.00170   1.001E+00   1.000E-03  -2.445E-03
1024  8.82825514   0.683  -1.15245   3.59842   6.98373   1.87196   0.00168   1.001E+00   1.000E-03  -2.439E-03
1025  8.82890050   0.683  -1.15244   3.59842   6.98372   1.87196   0.00167   1.001E+00   1.000E-03  -2.433E-03
1026  8.82954489   0.683  -1.15244   3.59842   6.98371   1.87196   0.00166   1.001E+00   1.000E-03  -2.427E-03
1027  8.83018833   0.683  -1.15243   3.59842   6.98370   1.87196   0.00164   1.001E+00   1.000E-03  -2.421E-03
1028  8.83083082   0.683  -1.15242   3.59842   6.98369   1.87196   0.00163   1.001E+00   1.000E-03  -2.415E-03
1029  8.83147235   0.683  -1.15242   3.59842   6.98368   1.87196   0.00162   1.001E+00   1.000E-03  -2.409E-03
1030  8.83211295   0.683  -1.15241   3.59841   6.98367   1.87196   0.00160   1.001E+00   1.000E-03  -2.403E-03
1031  8.83275259   0.683  -1.15240   3.59841   6.98366   1.87196   0.00159   1.001E+00   1.000E-03  -2.397E-03
1032  8.83339130   0.683  -1.15240   3.59841   6.98366   1.87196   0.00158   1.001E+00   1.000E-03  -2.392E-03
1033  8.83402907   0.683  -1.15239   3.59841   6.98365   1.87196   0.00156   1.001E+00   1.000E-03  -2.386E-03
1034  8.83466591   0.683  -1.15238   3.59841   6.98364   1.87196   0.00155   1.001E+00   1.000E-03  -2.380E-03
1035  8.83530181   0.683  -1.15238   3.59841   6.98363   1.87196   0.00154   1.001E+00   1.000E-03  -2.374E-03
1036  8.83593678   0.683  -1.15237   3.59841   6.98362   1.87196   0.00152   1.001E+00   1.000E-03  -2.368E-03
1037  8.83657083   0.683  -1.15236   3.59841   6.98361   1.87196   0.00151   1.001E+00   1.000E-03  -2.362E-03
1038  8.83720395   0.683  -1.15236   3.59841   6.98360   1.87196   0.00150   1.001E+00   1.000E-03  -2.356E-03
1039  8.83783615   0.683  -1.15235   3.59841   6.98359   1.87196   0.00148   1.001E+00   1.000E-03  -2.350E-03
1040  8.83846743   0.683  -1.15234   3.59841   6.98358   1.87196   0.00147   1.001E+00   1.000E-03  -2.344E-03
1041  8.83909779   0.683  -1.15234   3.59841   6.98358   1.87196   0.00146   1.001E+00   1.000E-03  -2.338E-03
1042  8.83972724   0.683  -1.15233   3.59840   6.98357   1.87196   0.00145   1.001E+00   1.000E-03  -2.332E-03
1043  8.84035578   0.683  -1.15232   3.59840   6.98356   1.87196   0.00143   1.001E+00   1.000E-03  -2.326E-03
1044  8.84098341   0.683  -1.15232   3.59840   6.98355   1.87196   0.00142   1.001E+00   1.000E-03  -2.320E-03
1045  8.84161014   0.683  -1.15231   3.59840   6.98354   1.87196   0.00141   1.001E+00   1.000E-03  -2.314E-03
1046  8.84223596   0.683  -1.15231   3.59840   6.98353   1.87196   0.00139   1.001E+00   1.000E-03  -2.308E-03
1047  8.84286088   0.683  -1.15230   3.59840   6.98352   1.87196   0.00138   1.001E+00   1.000E-03  -2.302E-03
1048  8.84348490   0.683  -1.15229   3.59840   6.98351   1.87196   0.00137   1.001E+00   1.000E-03  -2.296E-03
1049  8.84410803   0.683  -1.15229   3.59840   6.98350   1.87196   0.00135   1.001E+00   1.000E-03  -2.290E-03
1050  8.84473027   0.683  -1.15228   3.59840   6.98350   1.87196   0.00134   1.001E+00   1.000E-03  -2.284E-03
1051  8.84535161   0.683  -1.15227   3.59840   6.98349   1.87196   0.00133   1.001E+00   1.000E-03  -2.278E-03
1052  8.84597207   0.683  -1.15227   3.59840   6.98348   1.87196   0.00131   1.001E+00   1.000E-03  -2.272E-03
1053  8.84659164   0.683  -1.15226   3.59839   6.98347   1.87196   0.00130   1.001E+00   1.000E-03  -2.266E-03
1054  8.84721033   0.683  -1.15225   3.59839   6.98346   1.87196   0.00129   1.001E+00   1.000E-03  -2.260E-03
1055  8.84782814   0.683  -1.15225   3.59839   6.98345   1.87196   0.00127   1.001E+00   1.000E-03  -2.254E-03
1056  8.84844508   0.683  -1.15224   3.59839   6.98344   1.87196   0.00126   1.001E+00   1.000E-03  -2.249E-03
1057  8.84906113   0.683  -1.15223   3.59839   6.98343   1.87196   0.00125   1.001E+00   1.000E-03  -2.243E-03
1058  8.84967632   0.683  -1.15223   3.59839   6.98342   1.87195   0.00123   1.001E+00   1.000E-03  -2.237E-03
1059  8.85029063   0.683  -1.15222   3.59839   6.98342   1.87195   0.00122   1.001E+00   1.000E-03  -2.231E-03
1060  8.85090408   0.683  -1.15221   3.59839   6.98341   1.87195   0.00121   1.001E+00   1.000E-03  -2.225E-03
1061  8.85151666   0.683  -1.15221   3.59839   6.98340   1.87195   0.00120   1.001E+00   1.000E-03  -2.219E-03
1062  8.85212838   0.683  -1.15220   3.59839   6.98339   1.87195   0.00118   1.001E+00   1.000E-03  -2.213E-03
1063  8.85273924   0.683  -1.15219   3.59839   6.98338   1.87195   0.00117   1.001E+00   1.000E-03  -2.207E-03
1064  8.85334924   0.683  -1.15219   3.59838   6.98337   1.87195   0.00116   1.001E+00   1.000E-03  -2.201E-03
1065  8.85395838   0.683  -1.15218   3.59838   6.98336   1.87195   0.00114   1.001E+00   1.000E-03  -2.195E-03
1066  8.85456667   0.683  -1.15217   3.59838   6.98335   1.87195   0.00113   1.001E+00   1.000E-03  -2.189E-03
1067  8.85517411   0.683  -1.15217   3.59838   6.98334   1.87195   0.00112   1.001E+00   1.000E-03  -2.183E-03
1068  8.85578071   0.683  -1.15216   3.59838   6.98333   1.87195   0.00110   1.001E+00   1.000E-03  -2.177E-03
1069  8.85638645   0.683  -1.15215   3.59838   6.98333   1.87195   0.00109   1.001E+00   1.000E-03  -2.171E-03
1070  8.85699135   0.683  -1.15215   3.59838   6.98332   1.87195   0.00108   1.001E+00   1.000E-03  -2.165E-03
1071  8.85759541   0.683  -1.15214   3.59838   6.98331   1.87195   0.00106   1.001E+00   1.000E-03  -2.159E-03
1072  8.85819864   0.683  -1.15213   3.59838   6.98330   1.87195   0.00105   1.001E+00   1.000E-03  -2.153E-03
1073  8.85880102   0.683  -1.15213   3.59838   6.98329   1.87195   0.00104   1.001E+00   1.000E-03  -2.147E-03
1074  8.85940257   0.682  -1.15212   3.59838   6.98328   1.87195   0.00102   1.001E+00   1.000E-03  -2.141E-03
1075  8.86000329   0.682  -1.15211   3.59837   6.98327   1.87195   0.00101   1.001E+00   1.000E-03  -2.135E-03
1076  8.86060318   0.682  -1.15211   3.59837   6.98326   1.87195   0.00100   1.001E+00   1.000E-03  -2.129E-03
1077  8.86120224   0.682  -1.15210   3.59837   6.98325   1.87195   0.00098   1.001E+00   1.000E-03  -2.123E-03
1078  8.86180048   0.682  -1.15210   3.59837   6.98325   1.87195   0.00097   1.001E+00   1.000E-03  -2.117E-03
1079  8.86239789   0.682  -1.15209   3.59837   6.98324   1.87195   0.00096   1.001E+00   1.000E-03  -2.111E-03
1080  8.86299448   0.682  -1.15208   3.59837   6.98323   1.87195   0.00094   1.001E+00   1.000E-03  -2.106E-03
1081  8.86359026   0.682  -1.15208   3.59837   6.98322   1.87195   0.00093   1.001E+00   1.000E-03  -2.100E-03
1082  8.86418522   0.682  -1.15207   3.59837   6.98321   1.87195   0.00092   1.001E+00   1.000E-03  -2.094E-03
1083  8.86477936   0.682  -1.15206   3.59837   6.98320   1.87195   0.00091   1.001E+00   1.000E-03  -2.088E-03
1084  8.86537269   0.682  -1.15206   3.59837   6.98319   1.87195   0.00089   1.001E+00   1.000E-03  -2.082E-03
1085  8.86596521   0.682  -1.15205   3.59837   6.98318   1.87195   0.00088   1.001E+00   1.000E-03  -2.076E-03
1086  8.86655693   0.682  -1.15204   3.59836   6.98317   1.87195   0.00087   1.001E+00   1.000E-03  -2.070E-03
1087  8.86714784   0.682  -1.15204   3.59836   6.98317   1.87195   0.00085   1.001E+00   1.000E-03  -2.064E-03
1088  8.86773795   0.682  -1.15203   3.59836   6.98316   1.87195   0.00084   1.001E+00   1.000E-03  -2.058E-03
1089  8.86832726   0.682  -1.15202   3.59836   6.98315   1.87195   0.00083   1.001E+00   1.000E-03  -2.052E-03
1090  8.86891576   0.682  -1.15202   3.59836   6.98314   1.87195   0.00081   1.001E+00   1.000E-03  -2.046E-03
1091  8.86950348   0.682  -1.15201   3.59836   6.98313   1.87195   0.00080   1.001E+00   1.000E-03  -2.040E-03
1092  9.07391751   0.675  -1.14946   3.59817   6.98142   1.87226   0.00000   1.000E+00   1.000E-03  -9.897E-04
1093  9.21235380   0.669  -1.14675   3.59821   6.98106   1.87449   0.00000   1.000E+00   1.000E-03  -4.615E-04
1094  9.31716548   0.662  -1.14404   3.59835   6.98120   1.87766   0.00000   1.000E+00   1.000E-03  -2.102E-04
1095  9.40153574   0.654  -1.14136   3.59854   6.98159   1.88131   0.00000   9.990E-01   1.000E-03  -7.030E-05
1096  9.47215137   0.647  -1.13871   3.59875   6.98216   1.88522   0.00000   9.990E-01   1.000E-03   1.919E-05
1097  9.53287476   0.640  -1.13610   3.59898   6.98281   1.88927   0.00000   9.990E-01   1.000E-03   8.256E-05
1098  9.58613991   0.632  -1.13350   3.59921   6.98355   1.89341   0.00000   9.990E-01   1.000E-03   1.361E-04
1099  9.63358015   0.625  -1.13093   3.59946   6.98433   1.89758   0.00000   9.990E-01   1.000E-03   1.729E-04
1100  9.67634479   0.618  -1.12837   3.59971   6.98515   1.90175   0.00000   9.990E-01   1.000E-03   2.054E-04
1101  9.71527334   0.611  -1.12582   3.59997   6.98600   1.90595   0.00000   9.990E-01   1.000E-03   2.350E-04
1102  9.75099773   0.604  -1.12327   3.60023   6.98687   1.91014   0.00000   9.990E-01   1.000E-03   2.618E-04
1103  9.78400553   0.598  -1.12074   3.60049   6.98777   1.91462   0.00000   9.990E-01   1.000E-03   2.860E-04
1104  9.81468086   0.591  -1.11819   3.60076   6.98873   1.91962   0.00000   9.990E-01   1.000E-03   3.044E-04
1105  9.84333172   0.584  -1.11564   3.60103   6.98975   1.92462   0.00000   9.990E-01   1.000E-03   3.191E-04
1106  9.87020887   0.578  -1.11308   3.60130   6.99084   1.92962   0.00000   9.990E-01   1.000E-03   3.343E-04
1107  9.89551916   0.571  -1.11051   3.60157   6.99194   1.93463   0.00000   9.990E-01   1.000E-03   3.472E-04
1108  9.91943528   0.565  -1.10791   3.60184   6.99308   1.93965   0.00000   9.990E-01   1.000E-03   3.618E-04
1109  9.94210282   0.558  -1.10528   3.60212   6.99424   1.94469   0.00000   9.990E-01   1.000E-03   3.773E-04
1110  9.96364571   0.551  -1.10264   3.60240   6.99542   1.94976   0.00000   9.990E-01   1.000E-03   3.917E-04
1111  9.98417029   0.545  -1.09998   3.60268   6.99661   1.95485   0.00000   9.990E-01   1.000E-03   4.060E-04
1112 10.00376850   0.538  -1.09729   3.60297   6.99782   1.95997   0.00000   9.990E-01   1.000E-03   4.211E-04
1113 10.02252037   0.532  -1.09457   3.60325   6.99905   1.96509   0.00000   9.990E-01   1.000E-03   4.367E-04
1114 10.04049598   0.525  -1.09183   3.60354   7.00028   1.97027   0.00000   9.990E-01   1.000E-03   4.521E-04
1115 10.05775705   0.518  -1.08907   3.60383   7.00152   1.97542   0.00000   9.990E-01   1.000E-03   4.679E-04
1116 10.07435821   0.512  -1.08628   3.60413   7.00278   1.98063   0.00000   9.990E-01   1.000E-03   4.831E-04
1117 10.09034809   0.505  -1.08347   3.60443   7.00404   1.98584   0.00000   9.980E-01   1.000E-03   4.989E-04
1118 10.10577009   0.498  -1.08062   3.60474   7.00532   1.99109   0.00000   9.980E-01   1.000E-03   5.155E-04
1119 10.12066318   0.492  -1.07775   3.60505   7.00660   1.99635   0.00000   9.980E-01   1.000E-03   5.302E-04
1120 10.13506244   0.485  -1.07484   3.60537   7.00788   2.00164   0.00000   9.980E-01   1.000E-03   5.464E-04
1121 10.14899956   0.479  -1.07191   3.60569   7.00918   2.00697   0.00000   9.980E-01   1.000E-03   5.629E-04
1122 10.16250329   0.472  -1.06896   3.60601   7.01048   2.01232   0.00000   9.980E-01   1.000E-03   5.799E-04
1123 10.17559978   0.466  -1.06597   3.60634   7.01180   2.01772   0.00000   9.980E-01   1.000E-03   5.961E-04
1124 10.18831286   0.459  -1.06296   3.60668   7.01311   2.02312   0.00000   9.980E-01   1.000E-03   6.112E-04
1125 10.20066436   0.452  -1.05993   3.60701   7.01443   2.02860   0.00000   9.980E-01   1.000E-03   6.263E-04
1126 10.21267426   0.446  -1.05687   3.60735   7.01576   2.03408   0.00000   9.980E-01   1.000E-03   6.423E-04
1127 10.22436096   0.440  -1.05379   3.60770   7.01710   2.03962   0.00000   9.980E-01   1.000E-03   6.578E-04
1128 10.23574141   0.433  -1.05068   3.60804   7.01845   2.04518   0.00000   9.980E-01   1.000E-03   6.734E-04
1129 10.24683123   0.427  -1.04754   3.60840   7.01979   2.05080   0.00000   9.980E-01   1.000E-03   6.878E-04
1130 10.25764491   0.420  -1.04438   3.60876   7.02116   2.05644   0.00000   9.980E-01   1.000E-03   7.030E-04
1131 10.26819586   0.414  -1.04120   3.60911   7.02253   2.06210   0.00000   9.980E-01   1.000E-03   7.181E-04
1132 10.27849655   0.407  -1.03797   3.60948   7.02390   2.06785   0.00000   9.980E-01   1.000E-03   7.332E-04
1133 10.28855858   0.401  -1.03471   3.60986   7.02529   2.07363   0.00000   9.980E-01   1.000E-03   7.473E-04
1134 10.29839275   0.394  -1.03143   3.61024   7.02672   2.08038   0.00000   9.980E-01   1.000E-03   7.595E-04
1135 10.30800916   0.388  -1.02812   3.61062   7.02819   2.08732   0.00000   9.980E-01   1.000E-03   7.726E-04
1136 10.31741724   0.382  -1.02478   3.61100   7.02972   2.09437   0.00000   9.980E-01   1.000E-03   7.836E-04
1137 10.32662583   0.376  -1.02141   3.61138   7.03128   2.10139   0.00000   9.980E-01   1.000E-03   7.946E-04
1138 10.33564321   0.369  -1.01801   3.61177   7.03288   2.10854   0.00000   9.980E-01   1.000E-03   8.056E-04
1139 10.34447716   0.363  -1.01458   3.61217   7.03451   2.11569   0.00000   9.980E-01   1.000E-03   8.165E-04
1140 10.35313500   0.356  -1.01111   3.61256   7.03615   2.12293   0.00000   9.980E-01   1.000E-03   8.291E-04
1141 10.36162361   0.350  -1.00762   3.61295   7.03783   2.13017   0.00000   9.980E-01   1.000E-03   8.391E-04
1142 10.36994948   0.343  -1.00409   3.61335   7.03953   2.13749   0.00000   9.980E-01   1.000E-03   8.495E-04
1143 10.37811873   0.337  -1.00053   3.61376   7.04125   2.14487   0.00000   9.980E-01   1.000E-03   8.616E-04
1144 10.38613714   0.331  -0.99693   3.61416   7.04300   2.15226   0.00000   9.980E-01   1.000E-03   8.717E-04
1145 10.39401019   0.324  -0.99329   3.61457   7.04476   2.15974   0.00000   9.980E-01   1.000E-03   8.830E-04
1146 10.40174306   0.318  -0.98961   3.61499   7.04654   2.16725   0.00000   9.980E-01   1.000E-03   8.938E-04
1147 10.40934064   0.311  -0.98588   3.61541   7.04834   2.17484   0.00000   9.980E-01   1.000E-03   9.049E-04
1148 10.41680759   0.305  -0.98212   3.61583   7.05016   2.18247   0.00000   9.980E-01   1.000E-03   9.154E-04
1149 10.42414833   0.298  -0.97831   3.61625   7.05199   2.19015   0.00000   9.980E-01   2.000E-03   9.262E-04
1150 10.43136704   0.291  -0.97447   3.61669   7.05384   2.19804   0.00000   9.980E-01   2.000E-03   9.348E-04
1151 10.43846773   0.285  -0.97058   3.61712   7.05572   2.20586   0.00000   9.980E-01   2.000E-03   9.451E-04
1152 10.44545419   0.279  -0.96664   3.61756   7.05760   2.21362   0.00000   9.973E-01   2.000E-03   9.545E-04
1153 10.45233004   0.273  -0.96266   3.61800   7.05950   2.22138   0.00000   9.970E-01   2.000E-03   9.649E-04
1154 10.45909872   0.266  -0.95864   3.61845   7.06142   2.22924   0.00000   9.970E-01   2.000E-03   9.746E-04
1155 10.46576352   0.260  -0.95456   3.61891   7.06336   2.23719   0.00000   9.970E-01   2.000E-03   9.839E-04
1156 10.47232759   0.254  -0.95045   3.61936   7.06531   2.24519   0.00000   9.970E-01   2.000E-03   9.933E-04
1157 10.47879392   0.248  -0.94628   3.61982   7.06728   2.25328   0.00000   9.970E-01   2.000E-03   9.999E-04
1158 10.48516538   0.242  -0.94207   3.62029   7.06927   2.26149   0.00000   9.970E-01   2.000E-03   1.011E-03
1159 10.49144472   0.235  -0.93780   3.62077   7.07128   2.26976   0.00000   9.970E-01   2.000E-03   1.020E-03
1160 10.49763456   0.229  -0.93347   3.62125   7.07330   2.27812   0.00000   9.970E-01   2.000E-03   1.030E-03
1161 10.50373742   0.223  -0.92911   3.62173   7.07535   2.28658   0.00000   9.970E-01   2.000E-03   1.040E-03
1162 10.50975570   0.217  -0.92468   3.62222   7.07741   2.29507   0.00000   9.970E-01   2.000E-03   1.050E-03
1163 10.51569173   0.211  -0.92021   3.62272   7.07950   2.30358   0.00000   9.970E-01   2.000E-03   1.062E-03
1164 10.52154771   0.205  -0.91566   3.62323   7.08162   2.31211   0.00000   9.970E-01   2.000E-03   1.085E-03
1165 10.52732578   0.199  -0.91106   3.62374   7.08376   2.32117   0.00000   9.970E-01   2.000E-03   1.108E-03
1166 10.53302798   0.193  -0.90639   3.62426   7.08595   2.33149   0.00000   9.970E-01   2.000E-03   1.130E-03
1167 10.53865629   0.187  -0.90167   3.62478   7.08822   2.34185   0.00000   9.970E-01   2.000E-03   1.144E-03
1168 10.54421258   0.181  -0.89689   3.62531   7.09056   2.35226   0.00000   9.970E-01   2.000E-03   1.160E-03
1169 10.54969869   0.176  -0.89205   3.62584   7.09296   2.36276   0.00000   9.970E-01   2.000E-03   1.180E-03
1170 10.55511636   0.170  -0.88713   3.62638   7.09544   2.37335   0.00000   9.970E-01   2.000E-03   1.207E-03
1171 10.56046727   0.165  -0.88215   3.62692   7.09799   2.38389   0.00000   9.970E-01   2.000E-03   1.223E-03
1172 10.56575306   0.160  -0.87711   3.62748   7.10060   2.39458   0.00000   9.970E-01   2.000E-03   1.250E-03
1173 10.57097529   0.154  -0.87200   3.62802   7.10325   2.40532   0.00000   9.970E-01   2.000E-03   1.272E-03
1174 10.57613547   0.149  -0.86681   3.62858   7.10596   2.41622   0.00000   9.970E-01   2.000E-03   1.296E-03
1175 10.58123506   0.144  -0.86154   3.62915   7.10873   2.42721   0.00000   9.970E-01   2.000E-03   1.320E-03
1176 10.58627546   0.139  -0.85621   3.62972   7.11156   2.43835   0.00000   9.960E-01   2.000E-03   1.341E-03
1177 10.59125803   0.134  -0.85078   3.63031   7.11445   2.44963   0.00000   9.960E-01   2.000E-03   1.360E-03
1178 10.59618409   0.129  -0.84527   3.63089   7.11737   2.46111   0.00000   9.960E-01   2.000E-03   1.390E-03
1179 10.60105489   0.124  -0.83968   3.63148   7.12035   2.47273   0.00000   9.960E-01   2.273E-03   1.415E-03
1180 10.60587168   0.119  -0.83399   3.63208   7.12337   2.48458   0.00000   9.960E-01   3.000E-03   1.441E-03
1181 10.61063562   0.115  -0.82820   3.63269   7.12643   2.49664   0.00000   9.960E-01   3.000E-03   1.470E-03
1182 10.61534788   0.110  -0.82232   3.63331   7.12953   2.50891   0.00000   9.960E-01   3.000E-03   1.498E-03
1183 10.62000955   0.105  -0.81632   3.63393   7.13267   2.52138   0.00000   9.950E-01   3.000E-03   1.529E-03
1184 10.62462172   0.100  -0.81021   3.63457   7.13584   2.53407   0.00000   9.950E-01   3.000E-03   1.559E-03
1185 10.62918542   0.096  -0.80399   3.63522   7.13905   2.54704   0.00000   9.950E-01   3.007E-03   1.580E-03
1186 10.63370167   0.091  -0.79763   3.63587   7.14227   2.56025   0.00000   9.950E-01   4.000E-03   1.620E-03
1187 10.63817143   0.087  -0.79115   3.63655   7.14552   2.57376   0.00000   9.940E-01   4.000E-03   1.654E-03
1188 10.64259565   0.082  -0.78453   3.63723   7.14878   2.58760   0.00000   9.940E-01   4.000E-03   1.687E-03
1189 10.64697526   0.078  -0.77776   3.63793   7.15207   2.60179   0.00000   9.930E-01   5.000E-03   1.730E-03
1190 10.65131115   0.074  -0.77082   3.63864   7.15539   2.61631   0.00000   9.930E-01   5.000E-03   1.765E-03
1191 10.65560418   0.070  -0.76374   3.63936   7.15873   2.63124   0.00000   9.920E-01   6.000E-03   1.810E-03
1192 10.65701563   0.068  -0.76134   3.63960   7.15985   2.63628   0.00000   9.920E-01   6.000E-03   1.822E-03
1193 10.65842250   0.067  -0.75894   3.63985   7.16097   2.64137   0.00000   9.920E-01   6.000E-03   1.838E-03
1194 10.65982483   0.066  -0.75652   3.64009   7.16208   2.64648   0.00000   9.914E-01   6.586E-03   1.850E-03
1195 10.66122265   0.065  -0.75409   3.64034   7.16321   2.65164   0.00000   9.910E-01   7.000E-03   1.858E-03
1196 10.66261599   0.063  -0.75162   3.64058   7.16435   2.65686   0.00000   9.910E-01   7.000E-03   1.870E-03
1197 10.66400486   0.062  -0.74913   3.64084   7.16548   2.66213   0.00000   9.910E-01   7.253E-03   1.893E-03
1198 10.66538931   0.061  -0.74663   3.64109   7.16663   2.66746   0.00000   9.905E-01   8.000E-03   1.905E-03
1199 10.66676936   0.060  -0.74411   3.64134   7.16778   2.67283   0.00000   9.900E-01   8.000E-03   1.917E-03
1200 10.66814504   0.058  -0.74157   3.64159   7.16894   2.67825   0.00000   9.900E-01   8.012E-03   1.930E-03
1201 10.66951638   0.057  -0.73900   3.64185   7.17011   2.68374   0.00000   9.897E-01   9.000E-03   1.946E-03
1202 10.67088340   0.056  -0.73640   3.64212   7.17128   2.68929   0.00000   9.890E-01   9.000E-03   1.972E-03
1203 10.67224613   0.055  -0.73379   3.64237   7.17247   2.69486   0.00000   9.890E-01   9.000E-03   1.980E-03
1204 10.67360459   0.053  -0.73117   3.64264   7.17367   2.70048   0.00000   9.880E-01   1.000E-02   1.992E-03
1205 10.67495883   0.052  -0.72851   3.64290   7.17488   2.70616   0.00000   9.880E-01   1.000E-02   2.010E-03
1206 10.67630885   0.051  -0.72583   3.64316   7.17610   2.71191   0.00000   9.872E-01   1.083E-02   2.028E-03
1207 10.67765468   0.050  -0.72312   3.64343   7.17734   2.71767   0.00000   9.870E-01   1.100E-02   2.043E-03
1208 10.67899636   0.049  -0.72036   3.64373   7.17859   2.72350   0.00000   9.865E-01   1.154E-02   2.081E-03
1209 10.68033391   0.048  -0.71761   3.64399   7.17985   2.72938   0.00000   9.860E-01   1.200E-02   2.073E-03
1210 10.68166735   0.046  -0.71485   3.64427   7.18113   2.73529   0.00000   9.850E-01   1.300E-02   2.073E-03
1211 10.68299671   0.045  -0.71205   3.64454   7.18242   2.74122   0.00000   9.843E-01   1.300E-02   2.094E-03
1212 10.68432202   0.044  -0.70923   3.64482   7.18374   2.74723   0.00000   9.840E-01   1.400E-02   2.120E-03
1213 10.68564329   0.043  -0.70639   3.64509   7.18507   2.75327   0.00000   9.835E-01   1.449E-02   2.125E-03
1214 10.68696055   0.042  -0.70352   3.64536   7.18642   2.75937   0.00000   9.821E-01   1.500E-02   2.139E-03
1215 10.68827383   0.041  -0.70062   3.64565   7.18780   2.76552   0.00000   9.816E-01   1.600E-02   2.154E-03
1216 10.68958315   0.039  -0.69771   3.64593   7.18920   2.77171   0.00000   9.810E-01   1.681E-02   2.168E-03
1217 10.69088854   0.038  -0.69477   3.64621   7.19063   2.77794   0.00000   9.800E-01   1.800E-02   2.180E-03
1218 10.69219001   0.037  -0.69180   3.64649   7.19209   2.78417   0.00000   9.793E-01   1.874E-02   2.187E-03
1219 10.69348759   0.036  -0.68881   3.64677   7.19357   2.79046   0.00000   9.780E-01   2.000E-02   2.207E-03
1220 10.69478131   0.035  -0.68577   3.64706   7.19509   2.79678   0.00000   9.773E-01   2.073E-02   2.237E-03
1221 10.69607119   0.034  -0.68272   3.64735   7.19665   2.80315   0.00000   9.757E-01   2.200E-02   2.250E-03
1222 10.69735725   0.033  -0.67966   3.64764   7.19824   2.80953   0.00000   9.750E-01   2.278E-02   2.258E-03
1223 10.69863951   0.032  -0.67656   3.64793   7.19987   2.81594   0.00000   9.737E-01   2.432E-02   2.273E-03
1224 10.69991799   0.030  -0.67344   3.64822   7.20155   2.82236   0.00000   9.721E-01   2.587E-02   2.297E-03
1225 10.70119272   0.029  -0.67031   3.64850   7.20327   2.82878   0.00000   9.706E-01   2.743E-02   2.300E-03
1226 10.70246373   0.028  -0.66715   3.64879   7.20504   2.83521   0.00000   9.690E-01   2.901E-02   2.310E-03
1227 10.70373102   0.027  -0.66397   3.64908   7.20685   2.84165   0.00000   9.674E-01   3.059E-02   2.326E-03
1228 10.70499463   0.026  -0.66076   3.64936   7.20873   2.84810   0.00000   9.656E-01   3.218E-02   2.330E-03
1229 10.70625457   0.025  -0.65754   3.64965   7.21065   2.85454   0.00000   9.632E-01   3.379E-02   2.338E-03
1230 10.70751086   0.023  -0.65430   3.64994   7.21263   2.86097   0.00000   9.616E-01   3.640E-02   2.360E-03
1231 10.70876353   0.022  -0.65105   3.65022   7.21466   2.86736   0.00000   9.590E-01   3.903E-02   2.360E-03
1232 10.71001260   0.021  -0.64774   3.65054   7.21676   2.87373   0.00000   9.567E-01   4.066E-02   2.360E-03
1233 10.71125809   0.020  -0.64442   3.65084   7.21892   2.88011   0.00000   9.544E-01   4.365E-02   2.427E-03
1234 10.71250001   0.019  -0.64112   3.65112   7.22110   2.88646   0.00000   9.510E-01   4.598E-02   2.380E-03
1235 10.71373840   0.017  -0.63780   3.65140   7.22333   2.89284   0.00000   9.487E-01   4.926E-02   2.380E-03
1236 10.71497326   0.016  -0.63447   3.65168   7.22558   2.89924   0.00000   9.454E-01   5.258E-02   2.383E-03
1237 10.71620462   0.015  -0.63111   3.65195   7.22784   2.90566   0.00000   9.421E-01   5.592E-02   2.390E-03
1238 10.71743250   0.014  -0.62771   3.65223   7.23012   2.91218   0.00000   9.386E-01   5.936E-02   2.488E-03
1239 10.71865692   0.012  -0.62425   3.65252   7.23243   2.91885   0.00000   9.343E-01   6.313E-02   2.745E-03
1240 10.71987790   0.011  -0.62075   3.65281   7.23468   2.92573   0.00000   9.297E-01   6.733E-02   3.037E-03
1241 10.72109545   0.010  -0.61722   3.65310   7.23679   2.93291   0.00000   9.260E-01   7.100E-02   3.340E-03
1242 10.72138154   0.009  -0.61638   3.65317   7.23726   2.93467   0.00000   9.248E-01   7.218E-02   3.411E-03
1243 10.72166744   0.009  -0.61554   3.65323   7.23772   2.93644   0.00000   9.236E-01   7.319E-02   3.485E-03
1244 10.72195315   0.009  -0.61469   3.65330   7.23816   2.93822   0.00000   9.224E-01   7.381E-02   3.565E-03
1245 10.72223868   0.009  -0.61384   3.65337   7.23860   2.94003   0.00000   9.216E-01   7.488E-02   3.643E-03
1246 10.72252401   0.008  -0.61299   3.65344   7.23902   2.94185   0.00000   9.208E-01   7.608E-02   3.720E-03
1247 10.72280916   0.008  -0.61213   3.65350   7.23944   2.94370   0.00000   9.195E-01   7.674E-02   3.799E-03
1248 10.72309413   0.008  -0.61128   3.65357   7.23984   2.94558   0.00000   9.182E-01   7.784E-02   3.880E-03
1249 10.72337890   0.007  -0.61042   3.65364   7.24023   2.94748   0.00000   9.169E-01   7.911E-02   3.962E-03
1250 10.72366349   0.007  -0.60955   3.65371   7.24060   2.94941   0.00000   9.162E-01   7.981E-02   4.039E-03
1251 10.72394790   0.007  -0.60869   3.65378   7.24096   2.95137   0.00000   9.155E-01   8.053E-02   4.113E-03
1252 10.72423211   0.007  -0.60782   3.65384   7.24132   2.95335   0.00000   9.145E-01   8.151E-02   4.186E-03
1253 10.72451614   0.006  -0.60695   3.65391   7.24166   2.95536   0.00000   9.130E-01   8.300E-02   4.260E-03
1254 10.72479999   0.006  -0.60607   3.65398   7.24199   2.95741   0.00000   9.122E-01   8.376E-02   4.329E-03
1255 10.72508365   0.006  -0.60519   3.65404   7.24230   2.95948   0.00000   9.109E-01   8.454E-02   4.398E-03
1256 10.72536712   0.006  -0.60431   3.65411   7.24261   2.96156   0.00000   9.097E-01   8.532E-02   4.466E-03
1257 10.72565041   0.006  -0.60343   3.65417   7.24290   2.96368   0.00000   9.089E-01   8.612E-02   4.530E-03
1258 10.72593352   0.005  -0.60254   3.65423   7.24318   2.96582   0.00000   9.081E-01   8.694E-02   4.595E-03
1259 10.72621644   0.005  -0.60164   3.65430   7.24345   2.96799   0.00000   9.072E-01   8.853E-02   4.669E-03
1260 10.72649918   0.005  -0.60075   3.65437   7.24372   2.97017   0.00000   9.058E-01   8.961E-02   4.745E-03
1261 10.72678173   0.005  -0.59984   3.65444   7.24397   2.97238   0.00000   9.045E-01   9.046E-02   4.817E-03
1262 10.72706410   0.004  -0.59891   3.65452   7.24421   2.97462   0.00000   9.037E-01   9.133E-02   4.893E-03
1263 10.72734628   0.004  -0.59796   3.65460   7.24444   2.97688   0.00000   9.028E-01   9.220E-02   4.972E-03
1264 10.72762828   0.004  -0.59705   3.65467   7.24467   2.97916   0.00000   9.019E-01   9.310E-02   5.027E-03
1265 10.72791010   0.004  -0.59614   3.65473   7.24489   2.98147   0.00000   9.010E-01   9.400E-02   5.090E-03
1266 10.72819174   0.004  -0.59522   3.65479   7.24509   2.98381   0.00000   9.001E-01   9.492E-02   5.154E-03
1267 10.72847319   0.004  -0.59430   3.65486   7.24530   2.98616   0.00000   8.992E-01   9.585E-02   5.211E-03
1268 10.72875447   0.003  -0.59337   3.65493   7.24549   2.98854   0.00000   8.982E-01   9.679E-02   5.268E-03
1269 10.72903556   0.003  -0.59245   3.65499   7.24567   2.99093   0.00000   8.965E-01   9.775E-02   5.325E-03
1270 10.72931646   0.003  -0.59151   3.65505   7.24584   2.99335   0.00000   8.953E-01   9.871E-02   5.383E-03
1271 10.72959719   0.003  -0.59057   3.65512   7.24602   2.99579   0.00000   8.943E-01   9.969E-02   5.442E-03
1272 10.72987773   0.003  -0.58963   3.65518   7.24618   2.99826   0.00000   8.933E-01   1.007E-01   5.508E-03
1273 10.73015810   0.003  -0.58869   3.65524   7.24633   3.00074   0.00000   8.923E-01   1.017E-01   5.572E-03
1274 10.73043828   0.003  -0.58775   3.65531   7.24649   3.00325   0.00000   8.913E-01   1.027E-01   5.633E-03
1275 10.73071828   0.002  -0.58679   3.65537   7.24663   3.00578   0.00000   8.903E-01   1.037E-01   5.694E-03
1276 10.73099810   0.002  -0.58584   3.65544   7.24678   3.00834   0.00000   8.892E-01   1.048E-01   5.757E-03
1277 10.73127775   0.002  -0.58488   3.65550   7.24692   3.01091   0.00000   8.882E-01   1.058E-01   5.820E-03
1278 10.73155721   0.002  -0.58392   3.65556   7.24705   3.01351   0.00000   8.871E-01   1.069E-01   5.884E-03
1279 10.73183649   0.002  -0.58295   3.65562   7.24718   3.01612   0.00000   8.860E-01   1.080E-01   5.939E-03
1280 10.73211559   0.002  -0.58198   3.65568   7.24731   3.01876   0.00000   8.849E-01   1.090E-01   6.005E-03
1281 10.73239452   0.002  -0.58101   3.65575   7.24743   3.02141   0.00000   8.840E-01   1.092E-01   6.069E-03
1282 10.73267326   0.002  -0.58004   3.65581   7.24755   3.02409   0.00000   8.837E-01   1.103E-01   6.125E-03
1283 10.73295183   0.002  -0.57905   3.65587   7.24766   3.02679   0.00000   8.826E-01   1.114E-01   6.186E-03
1284 10.73323021   0.001  -0.57807   3.65593   7.24778   3.02949   0.00000   8.814E-01   1.126E-01   6.255E-03
1285 10.73350842   0.001  -0.57708   3.65599   7.24789   3.03221   0.00000   8.803E-01   1.137E-01   6.325E-03
1286 10.73378645   0.001  -0.57609   3.65606   7.24799   3.03495   0.00000   8.791E-01   1.149E-01   6.395E-03
1287 10.73406430   0.001  -0.57509   3.65612   7.24810   3.03770   0.00000   8.779E-01   1.160E-01   6.466E-03
1288 10.73434198   0.001  -0.57409   3.65618   7.24821   3.04048   0.00000   8.767E-01   1.163E-01   6.538E-03
1289 10.73461948   0.001  -0.57308   3.65624   7.24831   3.04327   0.00000   8.755E-01   1.175E-01   6.606E-03
1290 10.73489680   0.001  -0.57207   3.65630   7.24841   3.04608   0.00000   8.742E-01   1.188E-01   6.675E-03
1291 10.73517394   0.001  -0.57106   3.65636   7.24851   3.04891   0.00000   8.730E-01   1.200E-01   6.740E-03
1292 10.73590579   0.001  -0.56839   3.65653   7.24876   3.05654   0.00000   8.710E-01   1.221E-01   6.113E-03
1293 10.73663641   0.001  -0.56565   3.65671   7.24905   3.06464   0.00000   8.691E-01   1.249E-01   5.364E-03
1294 10.73736580   0.001  -0.56294   3.65687   7.24923   3.07256   0.00000   8.678E-01   1.282E-01   4.711E-03
1295 10.73809397   0.000  -0.56021   3.65701   7.24940   3.08058   0.00000   8.653E-01   1.307E-01   4.125E-03
1296 10.73882092   0.000  -0.55747   3.65715   7.24954   3.08873   0.00000   8.629E-01   1.333E-01   3.589E-03
1297 10.73954666   0.000  -0.55471   3.65728   7.24974   3.09723   0.00000   8.613E-01   1.357E-01   3.114E-03
1298 10.74027119   0.000  -0.55190   3.65741   7.24991   3.10575   0.00000   8.588E-01   1.383E-01   2.837E-03
1299 10.74099450   0.000  -0.54903   3.65756   7.25019   3.11414   0.00000   8.555E-01   1.420E-01   2.936E-03
1300 10.74171662   0.000  -0.54612   3.65771   7.25050   3.12260   0.00000   8.521E-01   1.449E-01   2.999E-03
1301 10.74243754   0.000  -0.54318   3.65785   7.25084   3.13126   0.00000   8.487E-01   1.483E-01   2.996E-03
1302 10.74315726   0.000  -0.54021   3.65799   7.25116   3.14013   0.00000   8.452E-01   1.518E-01   2.999E-03
1303 10.74387579   0.000  -0.53718   3.65814   7.25151   3.14932   0.00000   8.418E-01   1.552E-01   3.045E-03
1304 10.74459314   0.000  -0.53410   3.65829   7.25187   3.15886   0.00000   8.382E-01   1.588E-01   3.116E-03
1305 10.74530930   0.000  -0.53102   3.65842   7.25218   3.16855   0.00000   8.347E-01   1.619E-01   3.080E-03
1306 10.74602428   0.000  -0.52785   3.65855   7.25247   3.17832   0.00000   8.310E-01   1.660E-01   3.130E-03
1307 10.74673809   0.000  -0.52466   3.65868   7.25282   3.18825   0.00000   8.272E-01   1.698E-01   3.150E-03
1308 10.74745073   0.000  -0.52144   3.65880   7.25317   3.19839   0.00000   8.234E-01   1.736E-01   3.164E-03
1309 10.74816220   0.000  -0.51820   3.65892   7.25370   3.20897   0.00000   8.194E-01   1.776E-01   3.172E-03
1310 10.74887250   0.000  -0.51491   3.65903   7.25407   3.21975   0.00000   8.151E-01   1.819E-01   3.144E-03
1311 10.74958165   0.000  -0.51160   3.65912   7.25449   3.23075   0.00000   8.108E-01   1.862E-01   3.118E-03
1312 10.75028964   0.000  -0.50818   3.65922   7.25486   3.24202   0.00000   8.067E-01   1.903E-01   3.138E-03
1313 10.75099647   0.000  -0.50474   3.65931   7.25540   3.25367   0.00000   8.026E-01   1.944E-01   3.112E-03
1314 10.75170216   0.000  -0.50121   3.65939   7.25582   3.26548   0.00000   7.983E-01   1.987E-01   3.133E-03
1315 10.75240671   0.000  -0.49764   3.65947   7.25631   3.27752   0.00000   7.930E-01   2.040E-01   3.120E-03
1316 10.75311011   0.000  -0.49404   3.65954   7.25676   3.29001   0.00000   7.886E-01   2.084E-01   3.108E-03
1317 10.75381237   0.000  -0.49037   3.65961   7.25726   3.30259   0.00000   7.838E-01   2.128E-01   3.112E-03
1318 10.75451351   0.000  -0.48664   3.65967   7.25783   3.31537   0.00000   7.787E-01   2.183E-01   3.130E-03
1319 10.75521351   0.000  -0.48287   3.65972   7.25854   3.32832   0.00000   7.730E-01   2.240E-01   3.094E-03
1320 10.75591238   0.000  -0.47898   3.65976   7.25919   3.34187   0.00000   7.673E-01   2.294E-01   3.136E-03
1321 10.75661014   0.000  -0.47498   3.65982   7.25988   3.35579   0.00000   7.624E-01   2.346E-01   3.212E-03
1322 10.75730677   0.000  -0.47092   3.65985   7.26059   3.37024   0.00000   7.563E-01   2.407E-01   3.202E-03
1323 10.75800229   0.000  -0.46679   3.65986   7.26144   3.38498   0.00000   7.502E-01   2.468E-01   3.168E-03
1324 10.75869669   0.000  -0.46252   3.65989   7.26225   3.40033   0.00000   7.439E-01   2.531E-01   3.267E-03
1325 10.75938999   0.000  -0.45824   3.65985   7.26304   3.41639   0.00000   7.375E-01   2.595E-01   3.219E-03
1326 10.76008218   0.000  -0.45385   3.65980   7.26383   3.43296   0.00000   7.310E-01   2.660E-01   3.130E-03
1327 10.76077327   0.000  -0.44926   3.65976   7.26468   3.44995   0.00000   7.242E-01   2.728E-01   3.290E-03
1328 10.76146326   0.000  -0.44464   3.65969   7.26559   3.46756   0.00000   7.173E-01   2.797E-01   3.079E-03
1329 10.76215216   0.000  -0.43990   3.65961   7.26658   3.48581   0.00000   7.092E-01   2.878E-01   3.188E-03
1330 10.76283997   0.000  -0.43507   3.65948   7.26758   3.50466   0.00000   7.012E-01   2.959E-01   3.121E-03
1331 10.76352669   0.000  -0.43008   3.65934   7.26874   3.52379   0.00000   6.923E-01   3.047E-01   3.098E-03
1332 10.76421232   0.000  -0.42492   3.65922   7.26996   3.54388   0.00000   6.821E-01   3.139E-01   3.202E-03
1333 10.76489688   0.000  -0.41965   3.65903   7.27119   3.56451   0.00000   6.727E-01   3.243E-01   3.173E-03
1334 10.76558035   0.000  -0.41412   3.65883   7.27255   3.58577   0.00000   6.616E-01   3.352E-01   3.317E-03
1335 10.76626276   0.000  -0.40839   3.65862   7.27401   3.60769   0.00000   6.495E-01   3.466E-01   3.344E-03
1336 10.76694409   0.000  -0.40263   3.65836   7.27554   3.63060   0.00000   6.381E-01   3.589E-01   3.285E-03
1337 10.76762435   0.000  -0.39649   3.65806   7.27722   3.65434   0.00000   6.240E-01   3.720E-01   3.390E-03
1338 10.76830356   0.000  -0.38994   3.65775   7.27903   3.67898   0.00000   6.102E-01   3.860E-01   3.608E-03
1339 10.76898170   0.000  -0.38339   3.65734   7.28106   3.70518   0.00000   5.965E-01   4.011E-01   3.215E-03
1340 10.76965878   0.000  -0.37457   3.65669   7.28500   3.74270   0.00000   5.846E-01   4.109E-01   4.692E-03
1341 10.77033481   0.969  -0.36538   3.65584   7.28713   3.78510   0.00000   5.720E-01   4.250E-01   2.970E-03
