 # M = 0.75 Mo, Y = 0.2880, Z = 2.00000E-02, alpha = 1.68, X_D = 2.0E-05
 # Solar Mixture: Asplund et al. (2005)         
 # ------------------------------------------------------------------------------------------------------------
 # NMD   LOG AGE    Xc      LOG L     LOG TE    LOG Tc   LOG RHOc    M-CC       L-PP       L-CNO       L-GRA
 #        (yr)              (Lo)        (K)       (K)   (gr/cm^3)    (Mo)        (L)         (L)         (L)
 # ------------------------------------------------------------------------------------------------------------
   1  4.95947785   0.692   0.77400   3.62039   6.11408  -1.16170   0.00000   8.730E-01   0.000E+00   1.270E-01
   2  5.05082890   0.692   0.76717   3.62054   6.11768  -1.15090   0.00000   8.820E-01   0.000E+00   1.180E-01
   3  5.12626425   0.692   0.76033   3.62069   6.12128  -1.14009   0.00000   8.911E-01   0.000E+00   1.089E-01
   4  5.19051547   0.692   0.75440   3.62083   6.12440  -1.13072   0.00000   8.958E-01   0.000E+00   1.043E-01
   5  5.24647471   0.692   0.74857   3.62096   6.12746  -1.12151   0.00000   9.000E-01   0.000E+00   1.001E-01
   6  5.29603963   0.692   0.74276   3.62109   6.13052  -1.11233   0.00000   9.040E-01   0.000E+00   9.619E-02
   7  5.34052285   0.692   0.73726   3.62120   6.13341  -1.10365   0.00000   9.040E-01   0.000E+00   9.604E-02
   8  5.38087016   0.692   0.73176   3.62131   6.13630  -1.09497   0.00000   9.040E-01   0.000E+00   9.589E-02
   9  5.41778565   0.692   0.72626   3.62143   6.13919  -1.08629   0.00000   9.040E-01   0.000E+00   9.574E-02
  10  5.45180763   0.692   0.72066   3.62154   6.14213  -1.07747   0.00000   9.024E-01   0.000E+00   9.741E-02
  11  5.48335692   0.692   0.71501   3.62166   6.14508  -1.06859   0.00000   9.001E-01   0.000E+00   9.976E-02
  12  5.51276871   0.692   0.70937   3.62177   6.14804  -1.05971   0.00000   8.978E-01   0.000E+00   1.021E-01
  13  5.54031435   0.692   0.70362   3.62188   6.15105  -1.05066   0.00000   8.950E-01   0.000E+00   1.050E-01
  14  5.56621660   0.692   0.69745   3.62201   6.15427  -1.04097   0.00000   8.900E-01   0.000E+00   1.100E-01
  15  5.59066055   0.692   0.69128   3.62213   6.15750  -1.03128   0.00000   8.851E-01   0.000E+00   1.149E-01
  16  5.61380169   0.692   0.68511   3.62225   6.16073  -1.02158   0.00000   8.801E-01   0.000E+00   1.199E-01
  17  5.63577190   0.692   0.67819   3.62237   6.16432  -1.01080   0.00000   8.718E-01   0.000E+00   1.282E-01
  18  5.65668399   0.692   0.67105   3.62250   6.16801  -0.99969   0.00000   8.626E-01   0.000E+00   1.374E-01
  19  5.67663521   0.692   0.66392   3.62262   6.17171  -0.98859   0.00000   8.533E-01   0.000E+00   1.467E-01
  20  5.69571000   0.692   0.65595   3.62275   6.17583  -0.97619   0.00000   8.404E-01   0.000E+00   1.596E-01
  21  5.71398213   0.692   0.64751   3.62289   6.18020  -0.96307   0.00000   8.253E-01   0.000E+00   1.747E-01
  22  5.73151643   0.692   0.63907   3.62303   6.18457  -0.94995   0.00000   8.103E-01   0.000E+00   1.897E-01
  23  5.74837019   0.692   0.62908   3.62318   6.18972  -0.93447   0.00000   7.868E-01   0.000E+00   2.132E-01
  24  5.76459426   0.692   0.61894   3.62334   6.19495  -0.91877   0.00000   7.626E-01   0.000E+00   2.374E-01
  25  5.78023400   0.692   0.60758   3.62349   6.20077  -0.90126   0.00000   7.301E-01   0.000E+00   2.699E-01
  26  5.79533005   0.692   0.59541   3.62365   6.20699  -0.88258   0.00000   6.923E-01   0.000E+00   3.077E-01
  27  5.80991895   0.692   0.58180   3.62381   6.21393  -0.86176   0.00000   6.442E-01   0.000E+00   3.558E-01
  28  5.82403365   0.692   0.56741   3.62398   6.22126  -0.83975   0.00000   5.903E-01   0.000E+00   4.097E-01
  29  5.83770403   0.692   0.55102   3.62413   6.22952  -0.81492   0.00000   5.212E-01   0.000E+00   4.788E-01
  30  5.85095720   0.692   0.53347   3.62428   6.23836  -0.78841   0.00000   4.452E-01   0.000E+00   5.548E-01
  31  5.86381788   0.692   0.51472   3.62441   6.24776  -0.76020   0.00000   3.636E-01   0.000E+00   6.364E-01
  32  5.87630864   0.692   0.49493   3.62451   6.25765  -0.73054   0.00000   2.804E-01   0.000E+00   7.196E-01
  33  5.88845018   0.692   0.47450   3.62459   6.26782  -0.70006   0.00000   2.032E-01   0.000E+00   7.968E-01
  34  5.90026149   0.692   0.45380   3.62462   6.27800  -0.66951   0.00000   1.391E-01   0.000E+00   8.609E-01
  35  5.91176006   0.692   0.43338   3.62463   6.28804  -0.63946   0.00000   9.063E-02   0.000E+00   9.094E-01
  36  5.92296203   0.692   0.41347   3.62459   6.29775  -0.61039   0.00000   5.624E-02   0.000E+00   9.438E-01
  37  5.93388230   0.692   0.39430   3.62453   6.30700  -0.58263   0.00000   3.331E-02   0.000E+00   9.667E-01
  38  5.94453471   0.692   0.37594   3.62443   6.31584  -0.55616   0.00000   1.947E-02   0.000E+00   9.805E-01
  39  5.95493208   0.692   0.35841   3.62431   6.32424  -0.53102   0.00000   1.136E-02   0.000E+00   9.886E-01
  40  5.96508634   0.692   0.34171   3.62417   6.33214  -0.50729   0.00000   6.531E-03   0.000E+00   9.935E-01
  41  5.97500859   0.692   0.32574   3.62402   6.33965  -0.48473   0.00000   4.000E-03   0.000E+00   9.960E-01
  42  6.01439573   0.692   0.26605   3.62320   6.36726  -0.40182   0.00000   8.439E-04   0.000E+00   9.992E-01
  43  6.05050590   0.692   0.21529   3.62222   6.39020  -0.33290   0.00000   0.000E+00   0.000E+00   1.000E+00
  44  6.08384274   0.692   0.17129   3.62120   6.40976  -0.27414   0.00000   0.000E+00   0.000E+00   1.000E+00
  45  6.11480204   0.692   0.13260   3.62021   6.42678  -0.22298   0.00000   0.000E+00   0.000E+00   1.000E+00
  46  6.14370045   0.692   0.09795   3.61925   6.44189  -0.17762   0.00000   0.000E+00   0.000E+00   1.000E+00
  47  6.17079533   0.692   0.06687   3.61834   6.45536  -0.13712   0.00000   0.000E+00   0.000E+00   1.000E+00
  48  6.19629861   0.692   0.03846   3.61748   6.46762  -0.10031   0.00000   0.000E+00   0.000E+00   1.000E+00
  49  6.22038695   0.692   0.01247   3.61666   6.47878  -0.06675   0.00000   0.000E+00   0.000E+00   1.000E+00
  50  6.24320915   0.692  -0.01165   3.61590   6.48911  -0.03569   0.00000   0.000E+00   0.000E+00   1.000E+00
  51  6.26489167   0.692  -0.03404   3.61515   6.49866  -0.00698   0.00000   0.000E+00   0.000E+00   1.000E+00
  52  6.28554296   0.692  -0.05481   3.61447   6.50752   0.01966   0.00000   0.000E+00   0.000E+00   1.000E+00
  53  6.30525667   0.692  -0.07430   3.61382   6.51583   0.04463   0.00000   0.000E+00   0.000E+00   1.000E+00
  54  6.32411425   0.692  -0.09267   3.61321   6.52365   0.06811   0.00000   0.000E+00   0.000E+00   1.000E+00
  55  6.34218697   0.692  -0.11001   3.61262   6.53102   0.09029   0.00000   0.000E+00   0.000E+00   1.000E+00
  56  6.35953756   0.692  -0.12647   3.61206   6.53800   0.11127   0.00000   0.000E+00   0.000E+00   1.000E+00
  57  6.37622152   0.692  -0.14197   3.61152   6.54458   0.13103   0.00000   0.000E+00   0.000E+00   1.000E+00
  58  6.39228819   0.692  -0.15674   3.61102   6.55085   0.14987   0.00000   0.000E+00   0.000E+00   1.000E+00
  59  6.40778161   0.692  -0.17089   3.61053   6.55684   0.16791   0.00000   0.000E+00   0.000E+00   1.000E+00
  60  6.42274130   0.692  -0.18453   3.61005   6.56261   0.18526   0.00000   0.000E+00   0.000E+00   1.000E+00
  61  6.43720280   0.692  -0.19740   3.60961   6.56806   0.20165   0.00000   0.000E+00   0.000E+00   1.000E+00
  62  6.45119822   0.692  -0.20979   3.60917   6.57330   0.21742   0.00000   0.000E+00   0.000E+00   1.000E+00
  63  6.46475668   0.692  -0.22185   3.60875   6.57840   0.23276   0.00000   0.000E+00   0.000E+00   1.000E+00
  64  6.47790464   0.692  -0.23324   3.60834   6.58322   0.24724   0.00000   0.000E+00   0.000E+00   1.000E+00
  65  6.49066621   0.692  -0.24434   3.60795   6.58791   0.26135   0.00000   0.000E+00   0.000E+00   1.000E+00
  66  6.50306348   0.692  -0.25505   3.60758   6.59244   0.27496   0.00000   0.000E+00   0.000E+00   1.000E+00
  67  6.51511665   0.692  -0.26534   3.60721   6.59678   0.28803   0.00000   0.000E+00   0.000E+00   1.000E+00
  68  6.52684432   0.692  -0.27542   3.60685   6.60103   0.30083   0.00000   0.000E+00   0.000E+00   1.000E+00
  69  6.53826361   0.692  -0.28501   3.60651   6.60508   0.31302   0.00000   0.000E+00   0.000E+00   1.000E+00
  70  6.54939031   0.692  -0.29447   3.60618   6.60907   0.32507   0.00000   0.000E+00   0.000E+00   1.000E+00
  71  6.56023906   0.692  -0.30349   3.60586   6.61278   0.33661   0.00000   0.000E+00   0.000E+00   1.000E+00
  72  6.57082339   0.692  -0.31240   3.60554   6.61644   0.34805   0.00000   0.000E+00   0.000E+00   1.000E+00
  73  6.58115589   0.692  -0.32093   3.60523   6.61988   0.35908   0.00000   0.000E+00   0.000E+00   1.000E+00
  74  6.59124827   0.692  -0.32931   3.60493   6.62323   0.36994   0.00000   0.000E+00   0.000E+00   1.000E+00
  75  6.60111143   0.692  -0.33745   3.60464   6.62645   0.38055   0.00000   0.000E+00   0.000E+00   1.000E+00
  76  6.61075556   0.692  -0.34532   3.60436   6.62952   0.39087   0.00000   0.000E+00   0.000E+00   1.000E+00
  77  6.62019017   0.692  -0.35315   3.60408   6.63257   0.40115   0.00000   0.000E+00   0.000E+00   1.000E+00
  78  6.62942418   0.692  -0.36054   3.60382   6.63539   0.41095   0.00000   0.000E+00   0.000E+00   1.000E+00
  79  6.63846593   0.692  -0.36793   3.60355   6.63821   0.42076   0.00000   0.000E+00   0.000E+00   1.000E+00
  80  6.64732327   0.692  -0.37508   3.60330   6.64091   0.43032   0.00000   0.000E+00   0.000E+00   1.000E+00
  81  6.65600357   0.692  -0.38201   3.60305   6.64351   0.43964   0.00000   0.000E+00   0.000E+00   1.000E+00
  82  6.66451377   0.692  -0.38894   3.60280   6.64610   0.44897   0.00000   0.000E+00   0.000E+00   1.000E+00
  83  6.67286041   0.692  -0.39552   3.60257   6.64852   0.45793   0.00000   0.000E+00   0.000E+00   1.000E+00
  84  6.68104966   0.692  -0.40203   3.60234   6.65090   0.46680   0.00000   0.000E+00   0.000E+00   1.000E+00
  85  6.68908734   0.692  -0.40854   3.60211   6.65328   0.47568   0.00000   0.000E+00   0.000E+00   1.000E+00
  86  6.69697896   0.692  -0.41465   3.60189   6.65549   0.48416   0.00000   0.000E+00   0.000E+00   1.000E+00
  87  6.70472974   0.692  -0.42075   3.60167   6.65769   0.49260   0.00000   0.000E+00   0.000E+00   1.000E+00
  88  6.71234461   0.692  -0.42684   3.60146   6.65988   0.50105   0.00000   0.000E+00   0.000E+00   1.000E+00
  89  6.71982826   0.692  -0.43259   3.60126   6.66193   0.50915   0.00000   0.000E+00   0.000E+00   1.000E+00
  90  6.72718514   0.692  -0.43828   3.60106   6.66396   0.51719   0.00000   0.000E+00   0.000E+00   1.000E+00
  91  6.73441947   0.692  -0.44397   3.60086   6.66598   0.52523   0.00000   0.000E+00   0.000E+00   1.000E+00
  92  6.74153526   0.692  -0.44945   3.60067   6.66792   0.53305   0.00000   0.000E+00   0.000E+00   1.000E+00
  93  6.74853634   0.692  -0.45478   3.60049   6.66979   0.54070   0.00000   0.000E+00   0.000E+00   1.000E+00
  94  6.75542634   0.692  -0.46011   3.60031   6.67166   0.54836   0.00000   0.000E+00   0.000E+00   1.000E+00
  95  6.76220874   0.692  -0.46542   3.60013   6.67352   0.55599   0.00000   0.000E+00   0.000E+00   1.000E+00
  96  6.76888685   0.692  -0.47038   3.59996   6.67526   0.56328   0.00000   0.000E+00   0.000E+00   1.000E+00
  97  6.77546382   0.692  -0.47535   3.59979   6.67699   0.57057   0.00000   0.000E+00   0.000E+00   1.000E+00
  98  6.78194267   0.692  -0.48031   3.59963   6.67872   0.57786   0.00000   0.000E+00   0.000E+00   1.000E+00
  99  6.78832629   0.692  -0.48517   3.59946   6.68042   0.58504   0.00000   0.000E+00   0.000E+00   1.000E+00
 100  6.79461744   0.692  -0.48979   3.59931   6.68203   0.59198   0.00000   0.000E+00   0.000E+00   1.000E+00
 101  6.80081875   0.692  -0.49442   3.59916   6.68364   0.59892   0.00000   0.000E+00   0.000E+00   1.000E+00
 102  6.80693276   0.692  -0.49905   3.59901   6.68524   0.60586   0.00000   0.000E+00   0.000E+00   1.000E+00
 103  6.81296189   0.692  -0.50358   3.59886   6.68682   0.61270   0.00000   0.000E+00   0.000E+00   1.000E+00
 104  6.81890846   0.692  -0.50788   3.59873   6.68832   0.61931   0.00000   0.000E+00   0.000E+00   1.000E+00
 105  6.82477471   0.692  -0.51219   3.59859   6.68981   0.62591   0.00000   0.000E+00   0.000E+00   1.000E+00
 106  6.83056278   0.692  -0.51649   3.59846   6.69131   0.63252   0.00000   0.000E+00   0.000E+00   1.000E+00
 107  6.83627472   0.692  -0.52079   3.59833   6.69281   0.63912   0.00000   0.000E+00   0.000E+00   1.000E+00
 108  6.84191251   0.692  -0.52479   3.59820   6.69420   0.64542   0.00000   0.000E+00   0.000E+00   1.000E+00
 109  6.84747804   0.692  -0.52878   3.59808   6.69559   0.65171   0.00000   0.000E+00   0.000E+00   1.000E+00
 110  6.85297316   0.692  -0.53277   3.59796   6.69698   0.65800   0.00000   0.000E+00   0.000E+00   1.000E+00
 111  6.85839962   0.692  -0.53675   3.59783   6.69837   0.66428   0.00000   0.000E+00   0.000E+00   1.000E+00
 112  6.86375910   0.692  -0.54065   3.59772   6.69973   0.67048   0.00000   0.000E+00   0.000E+00   1.000E+00
 113  6.86905326   0.692  -0.54435   3.59761   6.70102   0.67647   0.00000   0.000E+00   0.000E+00   1.000E+00
 114  6.87428365   0.692  -0.54805   3.59751   6.70232   0.68246   0.00000   0.000E+00   0.000E+00   1.000E+00
 115  6.87945180   0.692  -0.55174   3.59740   6.70361   0.68845   0.00000   0.000E+00   0.000E+00   1.000E+00
 116  6.88455917   0.692  -0.55544   3.59729   6.70491   0.69444   0.00000   0.000E+00   0.000E+00   1.000E+00
 117  6.88960718   0.692  -0.55905   3.59719   6.70617   0.70034   0.00000   5.447E-05   0.000E+00   9.999E-01
 118  6.89459718   0.692  -0.56246   3.59710   6.70735   0.70600   0.00000   2.394E-04   0.000E+00   9.998E-01
 119  6.89953050   0.692  -0.56587   3.59701   6.70854   0.71166   0.00000   4.242E-04   0.000E+00   9.996E-01
 120  6.90440841   0.692  -0.56928   3.59692   6.70972   0.71733   0.00000   6.091E-04   0.000E+00   9.994E-01
 121  6.90923214   0.692  -0.57269   3.59683   6.71090   0.72299   0.00000   7.940E-04   0.000E+00   9.992E-01
 122  6.91400288   0.692  -0.57610   3.59674   6.71208   0.72865   0.00000   9.789E-04   0.000E+00   9.990E-01
 123  6.91872178   0.692  -0.57927   3.59666   6.71322   0.73411   0.00000   1.000E-03   0.000E+00   9.990E-01
 124  6.92338996   0.692  -0.58241   3.59659   6.71435   0.73954   0.00000   1.000E-03   0.000E+00   9.990E-01
 125  6.92800849   0.692  -0.58555   3.59651   6.71548   0.74497   0.00000   1.000E-03   0.000E+00   9.990E-01
 126  6.93257843   0.692  -0.58869   3.59643   6.71661   0.75040   0.00000   1.000E-03   0.000E+00   9.990E-01
 127  6.93710077   0.692  -0.59183   3.59636   6.71774   0.75582   0.00000   1.000E-03   0.000E+00   9.990E-01
 128  6.94157651   0.692  -0.59496   3.59628   6.71887   0.76125   0.00000   1.000E-03   0.000E+00   9.990E-01
 129  6.94600660   0.692  -0.59785   3.59621   6.71992   0.76641   0.00000   1.000E-03   0.000E+00   9.990E-01
 130  6.95039195   0.692  -0.60073   3.59615   6.72097   0.77157   0.00000   1.000E-03   0.000E+00   9.990E-01
 131  6.95473346   0.692  -0.60362   3.59608   6.72203   0.77673   0.00000   1.000E-03   0.000E+00   9.990E-01
 132  6.95903200   0.692  -0.60651   3.59601   6.72308   0.78189   0.00000   1.000E-03   0.000E+00   9.990E-01
 133  6.96328841   0.692  -0.60940   3.59595   6.72413   0.78705   0.00000   1.000E-03   0.000E+00   9.990E-01
 134  6.96750351   0.692  -0.61228   3.59588   6.72518   0.79221   0.00000   1.000E-03   0.000E+00   9.990E-01
 135  6.97167809   0.692  -0.61499   3.59583   6.72619   0.79720   0.00000   1.000E-03   0.000E+00   9.990E-01
 136  6.97581293   0.692  -0.61762   3.59578   6.72719   0.80212   0.00000   1.000E-03   0.000E+00   9.990E-01
 137  6.97990877   0.692  -0.62025   3.59573   6.72818   0.80703   0.00000   1.000E-03   0.000E+00   9.990E-01
 138  6.98396634   0.692  -0.62288   3.59568   6.72917   0.81195   0.00000   1.000E-03   0.000E+00   9.990E-01
 139  6.98798635   0.692  -0.62551   3.59563   6.73016   0.81686   0.00000   1.000E-03   0.000E+00   9.990E-01
 140  6.99196950   0.692  -0.62813   3.59558   6.73115   0.82177   0.00000   1.000E-03   0.000E+00   9.990E-01
 141  6.99591644   0.692  -0.63076   3.59553   6.73215   0.82669   0.00000   1.000E-03   0.000E+00   9.990E-01
 142  6.99982784   0.692  -0.63316   3.59549   6.73308   0.83137   0.00000   1.000E-03   0.000E+00   9.990E-01
 143  7.00370432   0.692  -0.63555   3.59546   6.73401   0.83605   0.00000   1.000E-03   0.000E+00   9.990E-01
 144  7.00754651   0.692  -0.63795   3.59542   6.73494   0.84073   0.00000   1.000E-03   0.000E+00   9.990E-01
 145  7.01135500   0.692  -0.64035   3.59539   6.73587   0.84541   0.00000   1.000E-03   0.000E+00   9.990E-01
 146  7.01513039   0.692  -0.64274   3.59535   6.73681   0.85009   0.00000   1.000E-03   0.000E+00   9.990E-01
 147  7.01887324   0.692  -0.64514   3.59532   6.73774   0.85477   0.00000   1.000E-03   0.000E+00   9.990E-01
 148  7.02258410   0.692  -0.64754   3.59528   6.73867   0.85946   0.00000   1.000E-03   0.000E+00   9.990E-01
 149  7.02626353   0.692  -0.64972   3.59526   6.73955   0.86392   0.00000   1.135E-03   0.000E+00   9.989E-01
 150  7.02991205   0.692  -0.65190   3.59523   6.74043   0.86839   0.00000   1.271E-03   0.000E+00   9.987E-01
 151  7.03353017   0.692  -0.65408   3.59521   6.74131   0.87285   0.00000   1.406E-03   0.000E+00   9.986E-01
 152  7.03711840   0.692  -0.65626   3.59518   6.74220   0.87732   0.00000   1.542E-03   0.000E+00   9.985E-01
 153  7.04067722   0.692  -0.65844   3.59516   6.74308   0.88178   0.00000   1.677E-03   0.000E+00   9.983E-01
 154  7.04420712   0.692  -0.66062   3.59513   6.74396   0.88624   0.00000   1.813E-03   0.000E+00   9.982E-01
 155  7.04770855   0.692  -0.66280   3.59511   6.74484   0.89071   0.00000   1.948E-03   0.000E+00   9.981E-01
 156  7.05118199   0.692  -0.66486   3.59509   6.74570   0.89505   0.00000   2.000E-03   0.000E+00   9.980E-01
 157  7.05462786   0.692  -0.66684   3.59508   6.74653   0.89931   0.00000   2.000E-03   0.000E+00   9.980E-01
 158  7.05804661   0.692  -0.66883   3.59507   6.74737   0.90357   0.00000   2.000E-03   0.000E+00   9.980E-01
 159  7.06143865   0.692  -0.67081   3.59505   6.74820   0.90784   0.00000   2.000E-03   0.000E+00   9.980E-01
 160  7.06480441   0.692  -0.67279   3.59504   6.74904   0.91210   0.00000   2.000E-03   0.000E+00   9.980E-01
 161  7.06814428   0.692  -0.67477   3.59503   6.74988   0.91636   0.00000   2.000E-03   0.000E+00   9.980E-01
 162  7.07145867   0.692  -0.67675   3.59501   6.75071   0.92063   0.00000   2.000E-03   0.000E+00   9.980E-01
 163  7.07474795   0.692  -0.67873   3.59500   6.75155   0.92489   0.00000   2.000E-03   0.000E+00   9.980E-01
 164  7.07801251   0.692  -0.68055   3.59500   6.75235   0.92899   0.00000   2.000E-03   0.000E+00   9.980E-01
 165  7.08125271   0.692  -0.68235   3.59500   6.75314   0.93306   0.00000   2.000E-03   0.000E+00   9.980E-01
 166  7.08446891   0.692  -0.68414   3.59500   6.75394   0.93714   0.00000   2.000E-03   0.000E+00   9.980E-01
 167  7.08766147   0.692  -0.68594   3.59500   6.75473   0.94121   0.00000   2.000E-03   0.000E+00   9.980E-01
 168  7.09083074   0.692  -0.68773   3.59499   6.75553   0.94529   0.00000   2.000E-03   0.000E+00   9.980E-01
 169  7.09397704   0.692  -0.68953   3.59499   6.75632   0.94936   0.00000   2.000E-03   0.000E+00   9.980E-01
 170  7.09710071   0.692  -0.69132   3.59499   6.75712   0.95344   0.00000   2.000E-03   0.000E+00   9.980E-01
 171  7.10020208   0.692  -0.69312   3.59499   6.75791   0.95751   0.00000   2.000E-03   0.000E+00   9.980E-01
 172  7.10328146   0.692  -0.69478   3.59500   6.75868   0.96146   0.00000   2.087E-03   0.000E+00   9.979E-01
 173  7.10633915   0.692  -0.69640   3.59501   6.75944   0.96536   0.00000   2.205E-03   0.000E+00   9.978E-01
 174  7.10937547   0.692  -0.69802   3.59502   6.76020   0.96927   0.00000   2.322E-03   0.000E+00   9.977E-01
 175  7.11239071   0.692  -0.69964   3.59503   6.76096   0.97317   0.00000   2.440E-03   0.000E+00   9.976E-01
 176  7.11538515   0.692  -0.70126   3.59503   6.76172   0.97707   0.00000   2.558E-03   0.000E+00   9.974E-01
 177  7.11835909   0.692  -0.70288   3.59504   6.76247   0.98097   0.00000   2.675E-03   0.000E+00   9.973E-01
 178  7.12131281   0.692  -0.70450   3.59505   6.76323   0.98487   0.00000   2.793E-03   0.000E+00   9.972E-01
 179  7.12424657   0.692  -0.70612   3.59506   6.76399   0.98878   0.00000   2.910E-03   0.000E+00   9.971E-01
 180  7.12716065   0.692  -0.70770   3.59507   6.76474   0.99264   0.00000   3.027E-03   0.000E+00   9.970E-01
 181  7.13005530   0.692  -0.70915   3.59510   6.76547   0.99638   0.00000   3.139E-03   0.000E+00   9.969E-01
 182  7.13293079   0.692  -0.71061   3.59512   6.76620   1.00012   0.00000   3.252E-03   0.000E+00   9.967E-01
 183  7.13578737   0.692  -0.71206   3.59514   6.76693   1.00386   0.00000   3.365E-03   0.000E+00   9.966E-01
 184  7.13862527   0.692  -0.71352   3.59516   6.76765   1.00761   0.00000   3.477E-03   0.000E+00   9.965E-01
 185  7.14144476   0.692  -0.71498   3.59518   6.76838   1.01135   0.00000   3.590E-03   0.000E+00   9.964E-01
 186  7.14424606   0.692  -0.71643   3.59520   6.76911   1.01509   0.00000   3.702E-03   0.000E+00   9.963E-01
 187  7.14702940   0.692  -0.71789   3.59522   6.76983   1.01883   0.00000   3.815E-03   0.000E+00   9.962E-01
 188  7.14979502   0.692  -0.71934   3.59524   6.77056   1.02257   0.00000   3.927E-03   0.000E+00   9.961E-01
 189  7.15254314   0.692  -0.72074   3.59526   6.77128   1.02626   0.00000   4.000E-03   0.000E+00   9.960E-01
 190  7.15527398   0.692  -0.72204   3.59529   6.77198   1.02985   0.00000   4.000E-03   0.000E+00   9.960E-01
 191  7.15798775   0.692  -0.72334   3.59532   6.77268   1.03345   0.00000   4.000E-03   0.000E+00   9.960E-01
 192  7.16068468   0.692  -0.72464   3.59535   6.77338   1.03705   0.00000   4.000E-03   0.000E+00   9.960E-01
 193  7.16336495   0.692  -0.72594   3.59538   6.77408   1.04064   0.00000   4.000E-03   0.000E+00   9.960E-01
 194  7.16602879   0.692  -0.72724   3.59541   6.77478   1.04424   0.00000   4.000E-03   0.000E+00   9.960E-01
 195  7.16867639   0.692  -0.72854   3.59544   6.77548   1.04783   0.00000   4.000E-03   0.000E+00   9.960E-01
 196  7.17130795   0.692  -0.72983   3.59546   6.77618   1.05143   0.00000   4.000E-03   0.000E+00   9.960E-01
 197  7.17392365   0.692  -0.73113   3.59549   6.77688   1.05502   0.00000   4.000E-03   0.000E+00   9.960E-01
 198  7.17652370   0.692  -0.73242   3.59552   6.77757   1.05860   0.00000   4.010E-03   0.000E+00   9.960E-01
 199  7.17910827   0.692  -0.73358   3.59556   6.77825   1.06206   0.00000   4.113E-03   0.000E+00   9.959E-01
 200  7.18167756   0.692  -0.73473   3.59560   6.77892   1.06552   0.00000   4.217E-03   0.000E+00   9.958E-01
 201  7.18423173   0.692  -0.73589   3.59564   6.77960   1.06897   0.00000   4.321E-03   0.000E+00   9.957E-01
 202  7.18677097   0.692  -0.73705   3.59568   6.78027   1.07243   0.00000   4.425E-03   0.000E+00   9.956E-01
 203  7.18929544   0.692  -0.73821   3.59572   6.78094   1.07589   0.00000   4.528E-03   0.000E+00   9.955E-01
 204  7.19180533   0.692  -0.73937   3.59576   6.78162   1.07934   0.00000   4.632E-03   0.000E+00   9.954E-01
 205  7.19430080   0.692  -0.74052   3.59580   6.78229   1.08280   0.00000   4.736E-03   0.000E+00   9.953E-01
 206  7.19678201   0.692  -0.74168   3.59584   6.78297   1.08626   0.00000   4.840E-03   0.000E+00   9.952E-01
 207  7.19924912   0.692  -0.74284   3.59588   6.78364   1.08971   0.00000   4.943E-03   0.000E+00   9.951E-01
 208  7.20170230   0.692  -0.74393   3.59592   6.78431   1.09311   0.00000   5.045E-03   0.000E+00   9.950E-01
 209  7.20414170   0.692  -0.74495   3.59597   6.78496   1.09644   0.00000   5.145E-03   0.000E+00   9.949E-01
 210  7.20656747   0.692  -0.74597   3.59602   6.78561   1.09977   0.00000   5.245E-03   0.000E+00   9.948E-01
 211  7.20897977   0.692  -0.74698   3.59607   6.78627   1.10309   0.00000   5.345E-03   0.000E+00   9.947E-01
 212  7.21137875   0.692  -0.74800   3.59612   6.78692   1.10642   0.00000   5.445E-03   0.000E+00   9.946E-01
 213  7.21376454   0.692  -0.74902   3.59617   6.78757   1.10975   0.00000   5.545E-03   0.000E+00   9.945E-01
 214  7.21613730   0.692  -0.75003   3.59622   6.78823   1.11308   0.00000   5.645E-03   0.000E+00   9.944E-01
 215  7.21849717   0.692  -0.75105   3.59626   6.78888   1.11640   0.00000   5.744E-03   0.000E+00   9.943E-01
 216  7.22084429   0.692  -0.75206   3.59631   6.78953   1.11973   0.00000   5.844E-03   0.000E+00   9.942E-01
 217  7.22317878   0.692  -0.75308   3.59636   6.79018   1.12306   0.00000   5.944E-03   0.000E+00   9.941E-01
 218  7.22550080   0.692  -0.75404   3.59642   6.79083   1.12633   0.00000   6.085E-03   0.000E+00   9.939E-01
 219  7.22781046   0.692  -0.75493   3.59647   6.79146   1.12955   0.00000   6.277E-03   0.000E+00   9.937E-01
 220  7.23010791   0.692  -0.75582   3.59653   6.79210   1.13276   0.00000   6.470E-03   0.000E+00   9.935E-01
 221  7.23239327   0.692  -0.75671   3.59659   6.79273   1.13597   0.00000   6.663E-03   0.000E+00   9.933E-01
 222  7.23466667   0.692  -0.75760   3.59665   6.79337   1.13918   0.00000   6.855E-03   0.000E+00   9.931E-01
 223  7.23692822   0.692  -0.75849   3.59670   6.79400   1.14239   0.00000   7.048E-03   0.000E+00   9.930E-01
 224  7.23917806   0.692  -0.75938   3.59676   6.79464   1.14560   0.00000   7.240E-03   0.000E+00   9.928E-01
 225  7.24141631   0.692  -0.76027   3.59682   6.79527   1.14881   0.00000   7.433E-03   0.000E+00   9.926E-01
 226  7.24364308   0.692  -0.76116   3.59688   6.79591   1.15202   0.00000   7.626E-03   0.000E+00   9.924E-01
 227  7.24585849   0.692  -0.76205   3.59694   6.79654   1.15523   0.00000   7.818E-03   0.000E+00   9.922E-01
 228  7.24806266   0.692  -0.76293   3.59699   6.79717   1.15843   0.00000   8.005E-03   0.000E+00   9.920E-01
 229  7.25025569   0.692  -0.76370   3.59706   6.79779   1.16153   0.00000   8.098E-03   0.000E+00   9.919E-01
 230  7.25243771   0.692  -0.76446   3.59713   6.79841   1.16463   0.00000   8.191E-03   0.000E+00   9.918E-01
 231  7.25460882   0.692  -0.76522   3.59719   6.79903   1.16773   0.00000   8.284E-03   0.000E+00   9.917E-01
 232  7.25676913   0.692  -0.76599   3.59726   6.79965   1.17083   0.00000   8.377E-03   0.000E+00   9.916E-01
 233  7.25891875   0.692  -0.76675   3.59733   6.80027   1.17393   0.00000   8.470E-03   0.000E+00   9.915E-01
 234  7.26105777   0.692  -0.76751   3.59740   6.80089   1.17703   0.00000   8.563E-03   0.000E+00   9.914E-01
 235  7.26318632   0.692  -0.76828   3.59746   6.80150   1.18013   0.00000   8.656E-03   0.000E+00   9.913E-01
 236  7.26530448   0.692  -0.76904   3.59753   6.80212   1.18324   0.00000   8.749E-03   0.000E+00   9.913E-01
 237  7.26741237   0.692  -0.76981   3.59760   6.80274   1.18634   0.00000   8.842E-03   0.000E+00   9.912E-01
 238  7.26951007   0.692  -0.77057   3.59766   6.80336   1.18944   0.00000   8.935E-03   0.000E+00   9.911E-01
 239  7.27159769   0.692  -0.77130   3.59773   6.80397   1.19250   0.00000   9.055E-03   0.000E+00   9.909E-01
 240  7.27367532   0.692  -0.77194   3.59781   6.80458   1.19550   0.00000   9.235E-03   0.000E+00   9.908E-01
 241  7.27574306   0.692  -0.77259   3.59789   6.80519   1.19850   0.00000   9.415E-03   0.000E+00   9.906E-01
 242  7.27780100   0.692  -0.77323   3.59797   6.80579   1.20150   0.00000   9.595E-03   0.000E+00   9.904E-01
 243  7.27984924   0.692  -0.77388   3.59804   6.80640   1.20450   0.00000   9.775E-03   0.000E+00   9.902E-01
 244  7.28188786   0.692  -0.77452   3.59812   6.80700   1.20749   0.00000   9.955E-03   0.000E+00   9.900E-01
 245  7.28391695   0.692  -0.77517   3.59820   6.80761   1.21049   0.00000   1.013E-02   0.000E+00   9.899E-01
 246  7.28593661   0.692  -0.77581   3.59828   6.80821   1.21349   0.00000   1.031E-02   0.000E+00   9.897E-01
 247  7.28794692   0.692  -0.77646   3.59835   6.80882   1.21649   0.00000   1.049E-02   0.000E+00   9.895E-01
 248  7.28994797   0.692  -0.77710   3.59843   6.80943   1.21949   0.00000   1.067E-02   0.000E+00   9.893E-01
 249  7.29193984   0.692  -0.77775   3.59851   6.81003   1.22249   0.00000   1.086E-02   0.000E+00   9.891E-01
 250  7.29392262   0.692  -0.77837   3.59859   6.81064   1.22546   0.00000   1.103E-02   0.000E+00   9.890E-01
 251  7.29589639   0.692  -0.77891   3.59867   6.81123   1.22837   0.00000   1.121E-02   0.000E+00   9.888E-01
 252  7.29786122   0.692  -0.77944   3.59876   6.81182   1.23127   0.00000   1.138E-02   0.000E+00   9.886E-01
 253  7.29981721   0.692  -0.77997   3.59884   6.81242   1.23418   0.00000   1.156E-02   0.000E+00   9.884E-01
 254  7.30176442   0.692  -0.78051   3.59893   6.81301   1.23708   0.00000   1.173E-02   0.000E+00   9.883E-01
 255  7.30370295   0.692  -0.78104   3.59901   6.81361   1.23999   0.00000   1.191E-02   0.000E+00   9.881E-01
 256  7.30563286   0.692  -0.78157   3.59910   6.81420   1.24289   0.00000   1.208E-02   0.000E+00   9.879E-01
 257  7.30755423   0.692  -0.78210   3.59919   6.81479   1.24579   0.00000   1.226E-02   0.000E+00   9.877E-01
 258  7.30946714   0.692  -0.78264   3.59927   6.81539   1.24870   0.00000   1.243E-02   0.000E+00   9.876E-01
 259  7.31137166   0.692  -0.78317   3.59936   6.81598   1.25160   0.00000   1.260E-02   0.000E+00   9.874E-01
 260  7.31326787   0.692  -0.78370   3.59944   6.81658   1.25451   0.00000   1.278E-02   0.000E+00   9.872E-01
 261  7.31515583   0.692  -0.78424   3.59953   6.81717   1.25741   0.00000   1.295E-02   0.000E+00   9.870E-01
 262  7.31703562   0.692  -0.78468   3.59962   6.81776   1.26025   0.00000   1.312E-02   0.000E+00   9.869E-01
 263  7.31890731   0.692  -0.78510   3.59972   6.81834   1.26307   0.00000   1.329E-02   0.000E+00   9.867E-01
 264  7.32077096   0.692  -0.78552   3.59981   6.81893   1.26588   0.00000   1.346E-02   0.000E+00   9.865E-01
 265  7.32262666   0.692  -0.78594   3.59991   6.81951   1.26870   0.00000   1.363E-02   0.000E+00   9.864E-01
 266  7.32447446   0.692  -0.78635   3.60001   6.82010   1.27152   0.00000   1.380E-02   0.000E+00   9.862E-01
 267  7.32631443   0.692  -0.78677   3.60010   6.82068   1.27433   0.00000   1.397E-02   0.000E+00   9.860E-01
 268  7.32814663   0.692  -0.78719   3.60020   6.82126   1.27715   0.00000   1.414E-02   0.000E+00   9.859E-01
 269  7.32997114   0.692  -0.78760   3.60030   6.82185   1.27996   0.00000   1.431E-02   0.000E+00   9.857E-01
 270  7.33178802   0.692  -0.78802   3.60039   6.82243   1.28278   0.00000   1.448E-02   0.000E+00   9.855E-01
 271  7.33359733   0.692  -0.78844   3.60049   6.82302   1.28560   0.00000   1.465E-02   0.000E+00   9.854E-01
 272  7.33539913   0.692  -0.78885   3.60059   6.82360   1.28841   0.00000   1.482E-02   0.000E+00   9.852E-01
 273  7.33719349   0.692  -0.78927   3.60068   6.82419   1.29123   0.00000   1.499E-02   0.000E+00   9.850E-01
 274  7.33898046   0.692  -0.78958   3.60079   6.82476   1.29397   0.00000   1.523E-02   0.000E+00   9.848E-01
 275  7.34076011   0.692  -0.78989   3.60090   6.82534   1.29670   0.00000   1.548E-02   0.000E+00   9.845E-01
 276  7.34253250   0.692  -0.79019   3.60101   6.82592   1.29944   0.00000   1.572E-02   0.000E+00   9.843E-01
 277  7.34429768   0.692  -0.79050   3.60112   6.82650   1.30217   0.00000   1.597E-02   0.000E+00   9.840E-01
 278  7.34605572   0.692  -0.79080   3.60123   6.82707   1.30491   0.00000   1.622E-02   0.000E+00   9.838E-01
 279  7.34780667   0.692  -0.79111   3.60133   6.82765   1.30764   0.00000   1.646E-02   0.000E+00   9.835E-01
 280  7.34955059   0.692  -0.79141   3.60144   6.82823   1.31038   0.00000   1.671E-02   0.000E+00   9.833E-01
 281  7.35128754   0.692  -0.79172   3.60155   6.82881   1.31311   0.00000   1.696E-02   0.000E+00   9.830E-01
 282  7.35301756   0.692  -0.79202   3.60166   6.82938   1.31585   0.00000   1.721E-02   0.000E+00   9.828E-01
 283  7.35474072   0.692  -0.79233   3.60177   6.82996   1.31858   0.00000   1.745E-02   0.000E+00   9.825E-01
 284  7.35645707   0.692  -0.79263   3.60188   6.83054   1.32132   0.00000   1.770E-02   0.000E+00   9.823E-01
 285  7.35816667   0.692  -0.79293   3.60199   6.83112   1.32405   0.00000   1.795E-02   0.000E+00   9.821E-01
 286  7.35986956   0.692  -0.79315   3.60210   6.83169   1.32673   0.00000   1.819E-02   0.000E+00   9.818E-01
 287  7.36156580   0.692  -0.79335   3.60222   6.83226   1.32939   0.00000   1.843E-02   0.000E+00   9.816E-01
 288  7.36325544   0.692  -0.79354   3.60235   6.83283   1.33205   0.00000   1.867E-02   0.000E+00   9.813E-01
 289  7.36493854   0.692  -0.79373   3.60247   6.83340   1.33471   0.00000   1.891E-02   0.000E+00   9.811E-01
 290  7.36661513   0.692  -0.79393   3.60259   6.83397   1.33737   0.00000   1.915E-02   0.000E+00   9.808E-01
 291  7.36828528   0.692  -0.79412   3.60271   6.83455   1.34003   0.00000   1.939E-02   0.000E+00   9.806E-01
 292  7.36994903   0.692  -0.79431   3.60283   6.83512   1.34269   0.00000   1.963E-02   0.000E+00   9.804E-01
 293  7.37160643   0.692  -0.79451   3.60295   6.83569   1.34535   0.00000   1.987E-02   0.000E+00   9.801E-01
 294  7.37325753   0.692  -0.79470   3.60307   6.83626   1.34802   0.00000   2.012E-02   0.000E+00   9.799E-01
 295  7.37490238   0.692  -0.79489   3.60319   6.83683   1.35068   0.00000   2.036E-02   0.000E+00   9.796E-01
 296  7.37654102   0.692  -0.79509   3.60331   6.83740   1.35334   0.00000   2.060E-02   0.000E+00   9.794E-01
 297  7.37817350   0.692  -0.79528   3.60343   6.83797   1.35600   0.00000   2.084E-02   0.000E+00   9.792E-01
 298  7.37979986   0.692  -0.79544   3.60355   6.83855   1.35863   0.00000   2.110E-02   0.000E+00   9.789E-01
 299  7.38142016   0.692  -0.79552   3.60369   6.83911   1.36122   0.00000   2.142E-02   0.000E+00   9.786E-01
 300  7.38303444   0.692  -0.79560   3.60382   6.83968   1.36381   0.00000   2.173E-02   0.000E+00   9.783E-01
 301  7.38464274   0.692  -0.79569   3.60395   6.84025   1.36640   0.00000   2.204E-02   0.000E+00   9.780E-01
 302  7.38624510   0.692  -0.79577   3.60409   6.84082   1.36900   0.00000   2.236E-02   0.000E+00   9.776E-01
 303  7.38784157   0.692  -0.79585   3.60422   6.84139   1.37159   0.00000   2.267E-02   0.000E+00   9.773E-01
 304  7.38943220   0.692  -0.79594   3.60435   6.84196   1.37418   0.00000   2.298E-02   0.000E+00   9.770E-01
 305  7.39101702   0.692  -0.79602   3.60449   6.84253   1.37677   0.00000   2.330E-02   0.000E+00   9.767E-01
 306  7.39259608   0.692  -0.79610   3.60462   6.84309   1.37936   0.00000   2.361E-02   0.000E+00   9.764E-01
 307  7.39416942   0.692  -0.79618   3.60475   6.84366   1.38195   0.00000   2.392E-02   0.000E+00   9.761E-01
 308  7.39573708   0.692  -0.79627   3.60488   6.84423   1.38454   0.00000   2.424E-02   0.000E+00   9.758E-01
 309  7.39729910   0.692  -0.79635   3.60502   6.84480   1.38713   0.00000   2.455E-02   0.000E+00   9.755E-01
 310  7.39885553   0.692  -0.79643   3.60515   6.84537   1.38972   0.00000   2.486E-02   0.000E+00   9.751E-01
 311  7.40040639   0.692  -0.79646   3.60529   6.84594   1.39227   0.00000   2.521E-02   0.000E+00   9.748E-01
 312  7.40195174   0.692  -0.79644   3.60544   6.84650   1.39479   0.00000   2.560E-02   0.000E+00   9.744E-01
 313  7.40349161   0.692  -0.79642   3.60558   6.84707   1.39731   0.00000   2.598E-02   0.000E+00   9.740E-01
 314  7.40502604   0.692  -0.79640   3.60573   6.84763   1.39983   0.00000   2.636E-02   0.000E+00   9.736E-01
 315  7.40655506   0.692  -0.79638   3.60588   6.84820   1.40235   0.00000   2.674E-02   0.000E+00   9.733E-01
 316  7.40807872   0.692  -0.79636   3.60602   6.84876   1.40487   0.00000   2.713E-02   0.000E+00   9.729E-01
 317  7.40959706   0.692  -0.79634   3.60617   6.84933   1.40739   0.00000   2.751E-02   0.000E+00   9.725E-01
 318  7.41111010   0.692  -0.79632   3.60632   6.84990   1.40991   0.00000   2.789E-02   0.000E+00   9.721E-01
 319  7.41261789   0.692  -0.79630   3.60646   6.85046   1.41244   0.00000   2.828E-02   0.000E+00   9.717E-01
 320  7.41412047   0.692  -0.79628   3.60661   6.85103   1.41496   0.00000   2.866E-02   0.000E+00   9.713E-01
 321  7.41561786   0.692  -0.79626   3.60675   6.85159   1.41748   0.00000   2.904E-02   0.000E+00   9.710E-01
 322  7.41711011   0.692  -0.79624   3.60690   6.85216   1.42000   0.00000   2.942E-02   0.000E+00   9.706E-01
 323  7.41859725   0.692  -0.79622   3.60705   6.85272   1.42252   0.00000   2.981E-02   0.000E+00   9.702E-01
 324  7.42007931   0.692  -0.79615   3.60720   6.85329   1.42501   0.00000   3.019E-02   0.000E+00   9.698E-01
 325  7.42155634   0.692  -0.79603   3.60736   6.85385   1.42747   0.00000   3.056E-02   0.000E+00   9.694E-01
 326  7.42302835   0.692  -0.79590   3.60752   6.85442   1.42992   0.00000   3.093E-02   0.000E+00   9.691E-01
 327  7.42449540   0.692  -0.79578   3.60768   6.85498   1.43238   0.00000   3.131E-02   0.000E+00   9.687E-01
 328  7.42595750   0.692  -0.79565   3.60783   6.85555   1.43484   0.00000   3.168E-02   0.000E+00   9.683E-01
 329  7.42741470   0.692  -0.79553   3.60799   6.85611   1.43730   0.00000   3.206E-02   0.000E+00   9.679E-01
 330  7.42886703   0.692  -0.79541   3.60815   6.85668   1.43976   0.00000   3.243E-02   0.000E+00   9.676E-01
 331  7.43031452   0.692  -0.79528   3.60831   6.85724   1.44221   0.00000   3.281E-02   0.000E+00   9.672E-01
 332  7.43175719   0.692  -0.79516   3.60847   6.85781   1.44467   0.00000   3.318E-02   0.000E+00   9.668E-01
 333  7.43319510   0.692  -0.79504   3.60863   6.85837   1.44713   0.00000   3.356E-02   0.000E+00   9.664E-01
 334  7.43462825   0.692  -0.79491   3.60879   6.85894   1.44959   0.00000   3.393E-02   0.000E+00   9.661E-01
 335  7.43605669   0.692  -0.79479   3.60895   6.85950   1.45204   0.00000   3.431E-02   0.000E+00   9.657E-01
 336  7.43748045   0.692  -0.79467   3.60910   6.86007   1.45450   0.00000   3.468E-02   0.000E+00   9.653E-01
 337  7.43889956   0.692  -0.79453   3.60927   6.86063   1.45695   0.00000   3.505E-02   0.000E+00   9.649E-01
 338  7.44031405   0.692  -0.79430   3.60944   6.86120   1.45935   0.00000   3.542E-02   0.000E+00   9.646E-01
 339  7.44172394   0.692  -0.79408   3.60961   6.86176   1.46174   0.00000   3.579E-02   0.000E+00   9.642E-01
 340  7.44312927   0.692  -0.79385   3.60978   6.86233   1.46414   0.00000   3.616E-02   0.000E+00   9.638E-01
 341  7.44453007   0.692  -0.79363   3.60996   6.86289   1.46654   0.00000   3.653E-02   0.000E+00   9.635E-01
 342  7.44592636   0.692  -0.79340   3.61013   6.86346   1.46893   0.00000   3.691E-02   0.000E+00   9.631E-01
 343  7.44731818   0.692  -0.79318   3.61030   6.86402   1.47133   0.00000   3.728E-02   0.000E+00   9.627E-01
 344  7.44870556   0.692  -0.79295   3.61047   6.86459   1.47373   0.00000   3.765E-02   0.000E+00   9.624E-01
 345  7.45008851   0.692  -0.79273   3.61065   6.86515   1.47612   0.00000   3.802E-02   0.000E+00   9.620E-01
 346  7.45146708   0.692  -0.79250   3.61082   6.86572   1.47852   0.00000   3.839E-02   0.000E+00   9.616E-01
 347  7.45284128   0.692  -0.79228   3.61099   6.86628   1.48092   0.00000   3.876E-02   0.000E+00   9.612E-01
 348  7.45421115   0.692  -0.79205   3.61116   6.86685   1.48331   0.00000   3.913E-02   0.000E+00   9.609E-01
 349  7.45557671   0.692  -0.79183   3.61134   6.86741   1.48571   0.00000   3.950E-02   0.000E+00   9.605E-01
 350  7.45693799   0.692  -0.79160   3.61151   6.86798   1.48811   0.00000   3.987E-02   0.000E+00   9.601E-01
 351  7.45829502   0.692  -0.79132   3.61169   6.86854   1.49047   0.00000   4.033E-02   0.000E+00   9.597E-01
 352  7.45964782   0.692  -0.79101   3.61187   6.86911   1.49280   0.00000   4.085E-02   0.000E+00   9.592E-01
 353  7.46099642   0.692  -0.79070   3.61205   6.86967   1.49514   0.00000   4.136E-02   0.000E+00   9.586E-01
 354  7.46234085   0.692  -0.79039   3.61224   6.87024   1.49748   0.00000   4.188E-02   0.000E+00   9.581E-01
 355  7.46368112   0.692  -0.79008   3.61242   6.87080   1.49982   0.00000   4.239E-02   0.000E+00   9.576E-01
 356  7.46501727   0.692  -0.78977   3.61260   6.87137   1.50216   0.00000   4.291E-02   0.000E+00   9.571E-01
 357  7.46634933   0.692  -0.78945   3.61279   6.87193   1.50450   0.00000   4.343E-02   0.000E+00   9.566E-01
 358  7.46767731   0.692  -0.78914   3.61297   6.87250   1.50684   0.00000   4.394E-02   0.000E+00   9.561E-01
 359  7.46900124   0.692  -0.78883   3.61316   6.87306   1.50917   0.00000   4.446E-02   0.000E+00   9.555E-01
 360  7.47032115   0.692  -0.78852   3.61334   6.87363   1.51151   0.00000   4.497E-02   0.000E+00   9.550E-01
 361  7.47163706   0.692  -0.78821   3.61352   6.87419   1.51385   0.00000   4.549E-02   0.000E+00   9.545E-01
 362  7.47294900   0.692  -0.78790   3.61371   6.87476   1.51619   0.00000   4.601E-02   0.000E+00   9.540E-01
 363  7.47425698   0.692  -0.78759   3.61389   6.87533   1.51853   0.00000   4.652E-02   0.000E+00   9.535E-01
 364  7.47556104   0.692  -0.78727   3.61407   6.87589   1.52086   0.00000   4.704E-02   0.000E+00   9.530E-01
 365  7.47686119   0.692  -0.78688   3.61427   6.87646   1.52314   0.00000   4.755E-02   0.000E+00   9.524E-01
 366  7.47815746   0.692  -0.78649   3.61446   6.87702   1.52542   0.00000   4.807E-02   0.000E+00   9.519E-01
 367  7.47944987   0.692  -0.78611   3.61465   6.87759   1.52771   0.00000   4.859E-02   0.000E+00   9.514E-01
 368  7.48073845   0.692  -0.78572   3.61485   6.87815   1.52999   0.00000   4.911E-02   0.000E+00   9.509E-01
 369  7.48202322   0.692  -0.78533   3.61504   6.87872   1.53227   0.00000   4.963E-02   0.000E+00   9.504E-01
 370  7.48330420   0.692  -0.78494   3.61523   6.87929   1.53455   0.00000   5.014E-02   0.000E+00   9.499E-01
 371  7.48458141   0.692  -0.78455   3.61543   6.87985   1.53683   0.00000   5.066E-02   0.000E+00   9.493E-01
 372  7.48585487   0.692  -0.78416   3.61562   6.88042   1.53911   0.00000   5.118E-02   0.000E+00   9.488E-01
 373  7.48712462   0.692  -0.78377   3.61581   6.88098   1.54139   0.00000   5.170E-02   0.000E+00   9.483E-01
 374  7.48839066   0.692  -0.78338   3.61600   6.88155   1.54367   0.00000   5.221E-02   0.000E+00   9.478E-01
 375  7.48965302   0.692  -0.78299   3.61620   6.88211   1.54595   0.00000   5.273E-02   0.000E+00   9.473E-01
 376  7.49091172   0.692  -0.78260   3.61639   6.88268   1.54823   0.00000   5.325E-02   0.000E+00   9.468E-01
 377  7.49216678   0.692  -0.78221   3.61658   6.88325   1.55051   0.00000   5.377E-02   0.000E+00   9.462E-01
 378  7.49341823   0.692  -0.78178   3.61678   6.88381   1.55277   0.00000   5.432E-02   0.000E+00   9.457E-01
 379  7.49466608   0.692  -0.78132   3.61698   6.88438   1.55499   0.00000   5.492E-02   0.000E+00   9.451E-01
 380  7.49591036   0.692  -0.78086   3.61719   6.88495   1.55722   0.00000   5.551E-02   0.000E+00   9.445E-01
 381  7.49715108   0.692  -0.78039   3.61739   6.88552   1.55944   0.00000   5.610E-02   0.000E+00   9.439E-01
 382  7.49838827   0.692  -0.77993   3.61759   6.88609   1.56167   0.00000   5.669E-02   0.000E+00   9.433E-01
 383  7.49962194   0.692  -0.77947   3.61780   6.88665   1.56390   0.00000   5.728E-02   0.000E+00   9.427E-01
 384  7.50085212   0.692  -0.77900   3.61800   6.88722   1.56612   0.00000   5.787E-02   0.000E+00   9.421E-01
 385  7.50207883   0.692  -0.77854   3.61820   6.88779   1.56835   0.00000   5.846E-02   0.000E+00   9.415E-01
 386  7.50330208   0.692  -0.77808   3.61841   6.88836   1.57058   0.00000   5.905E-02   0.000E+00   9.410E-01
 387  7.50452189   0.692  -0.77761   3.61861   6.88893   1.57280   0.00000   5.964E-02   0.000E+00   9.404E-01
 388  7.50573828   0.692  -0.77715   3.61881   6.88950   1.57503   0.00000   6.023E-02   0.000E+00   9.398E-01
 389  7.50695128   0.692  -0.77669   3.61901   6.89006   1.57726   0.00000   6.082E-02   0.000E+00   9.392E-01
 390  7.50816090   0.692  -0.77622   3.61922   6.89063   1.57948   0.00000   6.141E-02   0.000E+00   9.386E-01
 391  7.50936717   0.692  -0.77576   3.61942   6.89120   1.58171   0.00000   6.200E-02   0.000E+00   9.380E-01
 392  7.51592798   0.692  -0.77286   3.62058   6.89434   1.59363   0.00000   6.604E-02   0.000E+00   9.340E-01
 393  7.52239115   0.692  -0.76996   3.62173   6.89747   1.60555   0.00000   7.008E-02   0.000E+00   9.299E-01
 394  7.52875955   0.692  -0.76687   3.62291   6.90062   1.61731   0.00000   7.412E-02   0.000E+00   9.259E-01
 395  7.53503591   0.692  -0.76361   3.62412   6.90377   1.62892   0.00000   7.814E-02   0.000E+00   9.219E-01
 396  7.54122285   0.692  -0.76034   3.62532   6.90692   1.64050   0.00000   8.214E-02   0.000E+00   9.179E-01
 397  7.54732289   0.692  -0.75675   3.62653   6.90990   1.65131   0.00000   8.626E-02   0.000E+00   9.137E-01
 398  7.55333844   0.692  -0.75299   3.62776   6.91288   1.66201   0.00000   9.019E-02   0.000E+00   9.098E-01
 399  7.55927180   0.692  -0.74914   3.62901   6.91588   1.67258   0.00000   9.500E-02   0.000E+00   9.050E-01
 400  7.56512519   0.692  -0.74519   3.63028   6.91888   1.68303   0.00000   9.934E-02   0.000E+00   9.007E-01
 401  7.57090074   0.692  -0.74112   3.63157   6.92189   1.69338   0.00000   1.044E-01   0.000E+00   8.956E-01
 402  7.57660048   0.692  -0.73696   3.63287   6.92491   1.70361   0.00000   1.090E-01   0.000E+00   8.910E-01
 403  7.58222639   0.692  -0.73270   3.63420   6.92795   1.71371   0.00000   1.142E-01   0.000E+00   8.858E-01
 404  7.58778035   0.692  -0.72839   3.63555   6.93098   1.72370   0.00000   1.195E-01   0.000E+00   8.805E-01
 405  7.59326419   0.692  -0.72397   3.63692   6.93403   1.73357   0.00000   1.258E-01   0.000E+00   8.742E-01
 406  7.59867964   0.692  -0.71946   3.63831   6.93709   1.74331   0.00000   1.314E-01   0.000E+00   8.686E-01
 407  7.60402839   0.692  -0.71490   3.63971   6.94017   1.75290   0.00000   1.373E-01   0.000E+00   8.627E-01
 408  7.60931207   0.692  -0.71020   3.64115   6.94326   1.76238   0.00000   1.433E-01   0.000E+00   8.567E-01
 409  7.61453223   0.692  -0.70551   3.64260   6.94635   1.77172   0.00000   1.502E-01   0.000E+00   8.498E-01
 410  7.61969040   0.692  -0.70082   3.64405   6.94945   1.78092   0.00000   1.564E-01   0.000E+00   8.436E-01
 411  7.62478802   0.692  -0.69608   3.64552   6.95257   1.78996   0.00000   1.635E-01   0.000E+00   8.365E-01
 412  7.62982650   0.692  -0.69141   3.64699   6.95570   1.79885   0.00000   1.707E-01   0.000E+00   8.293E-01
 413  7.63480720   0.692  -0.68685   3.64843   6.95884   1.80756   0.00000   1.784E-01   0.000E+00   8.216E-01
 414  7.63973142   0.692  -0.68233   3.64986   6.96199   1.81611   0.00000   1.862E-01   0.000E+00   8.130E-01
 415  7.64460043   0.692  -0.67798   3.65127   6.96515   1.82446   0.00000   1.949E-01   0.000E+00   8.051E-01
 416  7.64941546   0.692  -0.67370   3.65265   6.96832   1.83263   0.00000   2.035E-01   0.000E+00   7.964E-01
 417  7.65417770   0.692  -0.66969   3.65397   6.97152   1.84060   0.00000   2.130E-01   0.000E+00   7.870E-01
 418  7.65888827   0.692  -0.66573   3.65528   6.97472   1.84836   0.00000   2.229E-01   0.000E+00   7.771E-01
 419  7.66354830   0.692  -0.66202   3.65653   6.97795   1.85588   0.00000   2.327E-01   0.000E+00   7.673E-01
 420  7.66815886   0.692  -0.65824   3.65779   6.98121   1.86315   0.00000   2.438E-01   0.000E+00   7.562E-01
 421  7.67272099   0.692  -0.65470   3.65900   6.98449   1.87014   0.00000   2.547E-01   0.000E+00   7.445E-01
 422  7.67723569   0.692  -0.65108   3.66023   6.98782   1.87685   0.00000   2.665E-01   0.000E+00   7.329E-01
 423  7.68170394   0.692  -0.64763   3.66143   6.99119   1.88323   0.00000   2.789E-01   1.000E-03   7.201E-01
 424  7.68612669   0.692  -0.64416   3.66264   6.99461   1.88927   0.00000   2.926E-01   1.000E-03   7.074E-01
 425  7.69050485   0.692  -0.64085   3.66382   6.99811   1.89491   0.00000   3.064E-01   1.000E-03   6.928E-01
 426  7.69483931   0.692  -0.63762   3.66499   7.00168   1.90009   0.00000   3.218E-01   1.000E-03   6.778E-01
 427  7.69913094   0.692  -0.63445   3.66614   7.00535   1.90483   0.00000   3.375E-01   1.000E-03   6.615E-01
 428  7.70338058   0.692  -0.63160   3.66724   7.00912   1.90901   0.00000   3.552E-01   1.000E-03   6.438E-01
 429  7.70758903   0.692  -0.62880   3.66833   7.01299   1.91268   0.00012   3.735E-01   1.000E-03   6.255E-01
 430  7.71175710   0.692  -0.62629   3.66937   7.01682   1.91585   0.00242   3.935E-01   1.341E-03   6.045E-01
 431  7.71588554   0.692  -0.62407   3.67034   7.02055   1.91860   0.00479   4.152E-01   2.000E-03   5.828E-01
 432  7.71997511   0.692  -0.62204   3.67129   7.02402   1.92086   0.00859   4.385E-01   2.000E-03   5.595E-01
 433  7.72402653   0.692  -0.62032   3.67216   7.02737   1.92279   0.01258   4.628E-01   2.000E-03   5.345E-01
 434  7.72804050   0.692  -0.61905   3.67294   7.03058   1.92429   0.01662   4.895E-01   2.530E-03   5.075E-01
 435  7.73201771   0.692  -0.61812   3.67366   7.03361   1.92534   0.02110   5.173E-01   3.226E-03   4.795E-01
 436  7.73595883   0.692  -0.61747   3.67432   7.03646   1.92596   0.02543   5.451E-01   3.782E-03   4.511E-01
 437  7.73986450   0.692  -0.61749   3.67484   7.03900   1.92605   0.03000   5.732E-01   4.226E-03   4.226E-01
 438  7.74373536   0.692  -0.61794   3.67528   7.04136   1.92579   0.03474   6.014E-01   4.597E-03   3.940E-01
 439  7.74757203   0.692  -0.61840   3.67571   7.04372   1.92552   0.03947   6.296E-01   4.968E-03   3.655E-01
 440  7.75137510   0.692  -0.62006   3.67589   7.04543   1.92441   0.04330   6.557E-01   5.452E-03   3.388E-01
 441  7.75514516   0.692  -0.62182   3.67603   7.04709   1.92322   0.04705   6.817E-01   5.946E-03   3.124E-01
 442  7.75888277   0.692  -0.62359   3.67618   7.04875   1.92203   0.05080   7.077E-01   6.441E-03   2.859E-01
 443  7.76258848   0.692  -0.62536   3.67633   7.05040   1.92084   0.05455   7.336E-01   6.936E-03   2.594E-01
 444  7.76626285   0.692  -0.62741   3.67640   7.05186   1.91949   0.05811   7.593E-01   7.769E-03   2.329E-01
 445  7.76990639   0.692  -0.62974   3.67641   7.05317   1.91806   0.05903   7.822E-01   8.000E-03   2.098E-01
 446  7.77351961   0.692  -0.63237   3.67635   7.05435   1.91659   0.06205   8.031E-01   8.947E-03   1.880E-01
 447  7.77710302   0.692  -0.63519   3.67625   7.05538   1.91503   0.06317   8.229E-01   9.000E-03   1.681E-01
 448  7.78065711   0.692  -0.63825   3.67608   7.05630   1.91345   0.06541   8.415E-01   9.732E-03   1.495E-01
 449  7.78418235   0.692  -0.64158   3.67586   7.05711   1.91185   0.06639   8.578E-01   1.000E-02   1.322E-01
 450  7.78767920   0.692  -0.64514   3.67559   7.05780   1.91023   0.06860   8.752E-01   1.002E-02   1.148E-01
 451  7.79114812   0.692  -0.64893   3.67525   7.05836   1.90857   0.06860   8.890E-01   1.100E-02   1.006E-01
 452  7.79458955   0.692  -0.65288   3.67487   7.05887   1.90702   0.06860   9.007E-01   1.100E-02   8.789E-02
 453  7.79800393   0.692  -0.65698   3.67444   7.05930   1.90554   0.06860   9.120E-01   1.181E-02   7.644E-02
 454  7.80139167   0.692  -0.66119   3.67399   7.05965   1.90413   0.06860   9.224E-01   1.200E-02   6.587E-02
 455  7.80475319   0.692  -0.66545   3.67350   7.05994   1.90279   0.06860   9.320E-01   1.200E-02   5.618E-02
 456  7.80808889   0.692  -0.66975   3.67298   7.06016   1.90152   0.06860   9.406E-01   1.200E-02   4.721E-02
 457  7.81139917   0.692  -0.67406   3.67245   7.06034   1.90035   0.06762   9.482E-01   1.231E-02   3.897E-02
 458  7.81468440   0.691  -0.67834   3.67191   7.06046   1.89927   0.06541   9.554E-01   1.300E-02   3.179E-02
 459  7.81794497   0.691  -0.68257   3.67136   7.06055   1.89829   0.06541   9.617E-01   1.300E-02   2.541E-02
 460  7.82118125   0.691  -0.68670   3.67081   7.06059   1.89740   0.06327   9.680E-01   1.300E-02   1.935E-02
 461  7.82439358   0.691  -0.69072   3.67026   7.06061   1.89660   0.06222   9.724E-01   1.300E-02   1.440E-02
 462  7.82758233   0.691  -0.69459   3.66972   7.06059   1.89589   0.06222   9.774E-01   1.300E-02   9.703E-03
 463  7.83074784   0.691  -0.69831   3.66919   7.06055   1.89526   0.06035   9.818E-01   1.300E-02   5.211E-03
 464  7.83389044   0.691  -0.70186   3.66868   7.06048   1.89471   0.05903   9.848E-01   1.300E-02   1.609E-03
 465  7.83701046   0.691  -0.70520   3.66819   7.06040   1.89423   0.05865   9.883E-01   1.300E-02  -1.730E-03
 466  7.84010823   0.691  -0.70836   3.66772   7.06031   1.89383   0.05624   9.915E-01   1.300E-02  -4.651E-03
 467  7.84318406   0.691  -0.71130   3.66728   7.06020   1.89349   0.05549   9.936E-01   1.300E-02  -7.182E-03
 468  7.84623826   0.691  -0.71404   3.66685   7.06008   1.89321   0.05384   9.958E-01   1.300E-02  -9.313E-03
 469  7.84927113   0.691  -0.71656   3.66646   7.05995   1.89299   0.05362   9.981E-01   1.300E-02  -1.114E-02
 470  7.85228296   0.691  -0.71886   3.66610   7.05982   1.89281   0.05145   9.993E-01   1.300E-02  -1.282E-02
 471  7.85527405   0.691  -0.72095   3.66577   7.05968   1.89268   0.05035   1.000E+00   1.300E-02  -1.401E-02
 472  7.85824469   0.691  -0.72284   3.66546   7.05954   1.89260   0.04906   1.001E+00   1.300E-02  -1.495E-02
 473  7.86119514   0.691  -0.72453   3.66518   7.05940   1.89254   0.04906   1.002E+00   1.300E-02  -1.566E-02
 474  7.86412568   0.691  -0.72603   3.66493   7.05927   1.89252   0.04822   1.003E+00   1.300E-02  -1.643E-02
 475  7.86703658   0.691  -0.72736   3.66471   7.05912   1.89251   0.04626   1.004E+00   1.300E-02  -1.720E-02
 476  7.86992810   0.691  -0.72848   3.66451   7.05899   1.89254   0.04626   1.004E+00   1.300E-02  -1.720E-02
 477  7.87280050   0.691  -0.72942   3.66434   7.05886   1.89258   0.04539   1.004E+00   1.300E-02  -1.734E-02
 478  7.87565402   0.691  -0.73026   3.66419   7.05873   1.89263   0.04405   1.005E+00   1.300E-02  -1.757E-02
 479  7.87848891   0.691  -0.73085   3.66407   7.05861   1.89270   0.04330   1.005E+00   1.300E-02  -1.756E-02
 480  7.88130542   0.691  -0.73141   3.66396   7.05849   1.89277   0.04264   1.005E+00   1.300E-02  -1.752E-02
 481  7.88410378   0.691  -0.73184   3.66387   7.05837   1.89284   0.04187   1.005E+00   1.300E-02  -1.746E-02
 482  7.88688423   0.691  -0.73211   3.66381   7.05826   1.89291   0.04098   1.005E+00   1.300E-02  -1.738E-02
 483  7.88964699   0.691  -0.73239   3.66374   7.05816   1.89298   0.04008   1.005E+00   1.300E-02  -1.729E-02
 484  7.89239228   0.691  -0.73267   3.66368   7.05805   1.89305   0.03919   1.005E+00   1.300E-02  -1.721E-02
 485  7.89512033   0.691  -0.73273   3.66365   7.05796   1.89313   0.03856   1.005E+00   1.283E-02  -1.693E-02
 486  7.89783135   0.691  -0.73277   3.66362   7.05786   1.89320   0.03796   1.004E+00   1.265E-02  -1.664E-02
 487  7.90052555   0.691  -0.73281   3.66359   7.05777   1.89328   0.03736   1.004E+00   1.246E-02  -1.634E-02
 488  7.90320315   0.691  -0.73285   3.66357   7.05768   1.89335   0.03677   1.004E+00   1.227E-02  -1.604E-02
 489  7.90586433   0.691  -0.73288   3.66354   7.05758   1.89343   0.03617   1.003E+00   1.209E-02  -1.574E-02
 490  7.90850930   0.691  -0.73286   3.66353   7.05750   1.89346   0.03557   1.003E+00   1.200E-02  -1.568E-02
 491  7.91113827   0.691  -0.73279   3.66352   7.05742   1.89347   0.03498   1.003E+00   1.200E-02  -1.583E-02
 492  7.91375142   0.691  -0.73272   3.66351   7.05734   1.89348   0.03438   1.004E+00   1.200E-02  -1.598E-02
 493  7.91634893   0.691  -0.73265   3.66351   7.05726   1.89349   0.03379   1.004E+00   1.200E-02  -1.613E-02
 494  7.91893101   0.691  -0.73258   3.66350   7.05718   1.89349   0.03319   1.004E+00   1.200E-02  -1.628E-02
 495  7.92149782   0.691  -0.73251   3.66350   7.05710   1.89350   0.03260   1.004E+00   1.200E-02  -1.643E-02
 496  7.92404955   0.691  -0.73244   3.66349   7.05702   1.89351   0.03200   1.005E+00   1.200E-02  -1.658E-02
 497  7.92658638   0.691  -0.73237   3.66348   7.05694   1.89352   0.03141   1.005E+00   1.200E-02  -1.673E-02
 498  7.92910847   0.691  -0.73232   3.66348   7.05686   1.89349   0.03091   1.005E+00   1.196E-02  -1.689E-02
 499  7.93161600   0.691  -0.73227   3.66347   7.05678   1.89344   0.03051   1.005E+00   1.188E-02  -1.706E-02
 500  7.93410914   0.691  -0.73222   3.66346   7.05670   1.89339   0.03012   1.006E+00   1.179E-02  -1.724E-02
 501  7.93658804   0.691  -0.73218   3.66345   7.05662   1.89334   0.02972   1.006E+00   1.171E-02  -1.741E-02
 502  7.93905288   0.691  -0.73213   3.66344   7.05655   1.89328   0.02932   1.006E+00   1.163E-02  -1.758E-02
 503  7.94150381   0.691  -0.73208   3.66343   7.05647   1.89323   0.02892   1.006E+00   1.154E-02  -1.776E-02
 504  7.94394098   0.691  -0.73204   3.66342   7.05639   1.89318   0.02853   1.007E+00   1.146E-02  -1.793E-02
 505  7.94636455   0.691  -0.73199   3.66341   7.05631   1.89313   0.02813   1.007E+00   1.138E-02  -1.811E-02
 506  7.94877468   0.691  -0.73194   3.66340   7.05623   1.89308   0.02773   1.007E+00   1.129E-02  -1.828E-02
 507  7.95117150   0.691  -0.73190   3.66339   7.05615   1.89302   0.02733   1.007E+00   1.121E-02  -1.846E-02
 508  7.95355516   0.691  -0.73185   3.66338   7.05607   1.89297   0.02693   1.008E+00   1.113E-02  -1.863E-02
 509  7.95592582   0.691  -0.73181   3.66337   7.05599   1.89292   0.02654   1.008E+00   1.105E-02  -1.880E-02
 510  7.95828360   0.691  -0.73178   3.66335   7.05591   1.89285   0.02616   1.008E+00   1.097E-02  -1.893E-02
 511  7.96062865   0.691  -0.73179   3.66334   7.05584   1.89277   0.02582   1.008E+00   1.092E-02  -1.899E-02
 512  7.96296111   0.691  -0.73179   3.66332   7.05576   1.89268   0.02547   1.008E+00   1.086E-02  -1.905E-02
 513  7.96528111   0.691  -0.73180   3.66330   7.05568   1.89260   0.02512   1.008E+00   1.081E-02  -1.911E-02
 514  7.96758878   0.691  -0.73181   3.66328   7.05561   1.89251   0.02477   1.008E+00   1.075E-02  -1.917E-02
 515  7.96988425   0.691  -0.73181   3.66327   7.05553   1.89243   0.02443   1.009E+00   1.070E-02  -1.923E-02
 516  7.97216766   0.691  -0.73182   3.66325   7.05545   1.89234   0.02408   1.009E+00   1.064E-02  -1.929E-02
 517  7.97443912   0.691  -0.73183   3.66323   7.05537   1.89226   0.02373   1.009E+00   1.059E-02  -1.935E-02
 518  7.97669876   0.691  -0.73183   3.66322   7.05530   1.89217   0.02338   1.009E+00   1.053E-02  -1.941E-02
 519  7.97894671   0.691  -0.73184   3.66320   7.05522   1.89209   0.02304   1.009E+00   1.048E-02  -1.948E-02
 520  7.98118308   0.691  -0.73184   3.66318   7.05514   1.89201   0.02269   1.009E+00   1.042E-02  -1.954E-02
 521  7.98340799   0.691  -0.73185   3.66316   7.05506   1.89192   0.02234   1.009E+00   1.037E-02  -1.960E-02
 522  7.98562157   0.691  -0.73186   3.66315   7.05499   1.89184   0.02199   1.009E+00   1.031E-02  -1.966E-02
 523  7.98782392   0.691  -0.73186   3.66313   7.05491   1.89175   0.02165   1.009E+00   1.026E-02  -1.972E-02
 524  7.99001515   0.691  -0.73187   3.66311   7.05483   1.89167   0.02130   1.010E+00   1.020E-02  -1.978E-02
 525  7.99219539   0.691  -0.73187   3.66309   7.05475   1.89158   0.02095   1.010E+00   1.014E-02  -1.984E-02
 526  7.99436473   0.691  -0.73188   3.66308   7.05468   1.89150   0.02060   1.010E+00   1.009E-02  -1.990E-02
 527  7.99652330   0.691  -0.73189   3.66306   7.05460   1.89141   0.02026   1.010E+00   1.003E-02  -1.996E-02
 528  7.99867118   0.691  -0.73189   3.66304   7.05453   1.89134   0.01995   1.010E+00   1.000E-02  -1.994E-02
 529  8.00080850   0.691  -0.73190   3.66303   7.05446   1.89129   0.01973   1.010E+00   1.000E-02  -1.979E-02
 530  8.00293535   0.691  -0.73190   3.66302   7.05439   1.89125   0.01951   1.010E+00   1.000E-02  -1.963E-02
 531  8.00505184   0.691  -0.73190   3.66300   7.05433   1.89120   0.01928   1.010E+00   1.000E-02  -1.948E-02
 532  8.00715806   0.691  -0.73191   3.66299   7.05426   1.89115   0.01906   1.009E+00   1.000E-02  -1.932E-02
 533  8.00925411   0.691  -0.73191   3.66297   7.05420   1.89111   0.01883   1.009E+00   1.000E-02  -1.917E-02
 534  8.01134010   0.691  -0.73191   3.66296   7.05413   1.89106   0.01861   1.009E+00   1.000E-02  -1.901E-02
 535  8.01341612   0.691  -0.73192   3.66294   7.05407   1.89101   0.01838   1.009E+00   1.000E-02  -1.886E-02
 536  8.01548226   0.691  -0.73192   3.66293   7.05400   1.89096   0.01816   1.009E+00   1.000E-02  -1.870E-02
 537  8.01753861   0.691  -0.73192   3.66292   7.05393   1.89092   0.01794   1.009E+00   1.000E-02  -1.855E-02
 538  8.01958528   0.691  -0.73193   3.66290   7.05387   1.89087   0.01771   1.008E+00   1.000E-02  -1.839E-02
 539  8.02162234   0.690  -0.73193   3.66289   7.05380   1.89082   0.01749   1.008E+00   1.000E-02  -1.824E-02
 540  8.02364990   0.690  -0.73194   3.66287   7.05374   1.89078   0.01726   1.008E+00   1.000E-02  -1.808E-02
 541  8.02566803   0.690  -0.73194   3.66286   7.05367   1.89073   0.01704   1.008E+00   1.000E-02  -1.793E-02
 542  8.02767683   0.690  -0.73194   3.66284   7.05361   1.89068   0.01682   1.008E+00   1.000E-02  -1.777E-02
 543  8.02967638   0.690  -0.73195   3.66283   7.05354   1.89063   0.01659   1.008E+00   1.000E-02  -1.762E-02
 544  8.03166677   0.690  -0.73195   3.66281   7.05347   1.89059   0.01637   1.008E+00   1.000E-02  -1.746E-02
 545  8.03364807   0.690  -0.73195   3.66280   7.05341   1.89054   0.01614   1.007E+00   1.000E-02  -1.731E-02
 546  8.03562038   0.690  -0.73196   3.66279   7.05334   1.89049   0.01592   1.007E+00   1.000E-02  -1.715E-02
 547  8.03758377   0.690  -0.73196   3.66277   7.05328   1.89044   0.01569   1.007E+00   1.000E-02  -1.700E-02
 548  8.03953833   0.690  -0.73197   3.66276   7.05321   1.89040   0.01547   1.007E+00   1.000E-02  -1.684E-02
 549  8.04148412   0.690  -0.73197   3.66274   7.05315   1.89035   0.01525   1.007E+00   1.000E-02  -1.669E-02
 550  8.04342124   0.690  -0.73197   3.66273   7.05308   1.89030   0.01502   1.007E+00   1.000E-02  -1.653E-02
 551  8.04534976   0.690  -0.73198   3.66271   7.05301   1.89026   0.01480   1.007E+00   1.000E-02  -1.638E-02
 552  8.04726975   0.690  -0.73198   3.66270   7.05295   1.89021   0.01457   1.006E+00   1.000E-02  -1.622E-02
 553  8.04918129   0.690  -0.73198   3.66268   7.05288   1.89016   0.01435   1.006E+00   1.000E-02  -1.607E-02
 554  8.05108445   0.690  -0.73199   3.66267   7.05282   1.89011   0.01412   1.006E+00   1.000E-02  -1.591E-02
 555  8.05297931   0.690  -0.73199   3.66266   7.05276   1.89007   0.01393   1.006E+00   9.993E-03  -1.576E-02
 556  8.05486594   0.690  -0.73198   3.66265   7.05271   1.89005   0.01382   1.006E+00   9.969E-03  -1.563E-02
 557  8.05674441   0.690  -0.73197   3.66264   7.05267   1.89003   0.01371   1.006E+00   9.944E-03  -1.550E-02
 558  8.05861479   0.690  -0.73196   3.66263   7.05262   1.89001   0.01360   1.006E+00   9.920E-03  -1.537E-02
 559  8.06047714   0.690  -0.73195   3.66263   7.05257   1.88999   0.01349   1.006E+00   9.895E-03  -1.524E-02
 560  8.06233155   0.690  -0.73194   3.66262   7.05253   1.88996   0.01338   1.005E+00   9.870E-03  -1.511E-02
 561  8.06417807   0.690  -0.73193   3.66261   7.05248   1.88994   0.01328   1.005E+00   9.846E-03  -1.498E-02
 562  8.06601677   0.690  -0.73192   3.66260   7.05244   1.88992   0.01317   1.005E+00   9.821E-03  -1.485E-02
 563  8.06784772   0.690  -0.73191   3.66259   7.05239   1.88990   0.01306   1.005E+00   9.797E-03  -1.472E-02
 564  8.06967099   0.690  -0.73190   3.66258   7.05234   1.88987   0.01295   1.005E+00   9.772E-03  -1.459E-02
 565  8.07148663   0.690  -0.73189   3.66258   7.05230   1.88985   0.01284   1.005E+00   9.747E-03  -1.446E-02
 566  8.07329471   0.690  -0.73188   3.66257   7.05225   1.88983   0.01273   1.005E+00   9.723E-03  -1.433E-02
 567  8.07509530   0.690  -0.73187   3.66256   7.05221   1.88981   0.01262   1.005E+00   9.698E-03  -1.420E-02
 568  8.07688845   0.690  -0.73186   3.66255   7.05216   1.88979   0.01251   1.005E+00   9.674E-03  -1.407E-02
 569  8.07867423   0.690  -0.73185   3.66254   7.05211   1.88976   0.01240   1.005E+00   9.649E-03  -1.394E-02
 570  8.08045269   0.690  -0.73184   3.66254   7.05207   1.88974   0.01229   1.004E+00   9.624E-03  -1.381E-02
 571  8.08222390   0.690  -0.73183   3.66253   7.05202   1.88972   0.01218   1.004E+00   9.600E-03  -1.368E-02
 572  8.08398792   0.690  -0.73182   3.66252   7.05198   1.88970   0.01207   1.004E+00   9.575E-03  -1.355E-02
 573  8.08574480   0.690  -0.73181   3.66251   7.05193   1.88968   0.01197   1.004E+00   9.551E-03  -1.342E-02
 574  8.08749461   0.690  -0.73180   3.66250   7.05188   1.88965   0.01186   1.004E+00   9.526E-03  -1.329E-02
 575  8.08923739   0.690  -0.73179   3.66250   7.05184   1.88963   0.01175   1.004E+00   9.502E-03  -1.316E-02
 576  8.09097321   0.690  -0.73178   3.66249   7.05179   1.88961   0.01164   1.004E+00   9.477E-03  -1.303E-02
 577  8.09270211   0.690  -0.73177   3.66248   7.05175   1.88959   0.01153   1.004E+00   9.452E-03  -1.290E-02
 578  8.09442416   0.690  -0.73176   3.66247   7.05170   1.88956   0.01142   1.004E+00   9.428E-03  -1.277E-02
 579  8.09613941   0.690  -0.73175   3.66246   7.05165   1.88954   0.01131   1.004E+00   9.403E-03  -1.264E-02
 580  8.09784791   0.690  -0.73174   3.66245   7.05161   1.88952   0.01120   1.004E+00   9.379E-03  -1.251E-02
 581  8.09954972   0.690  -0.73173   3.66245   7.05156   1.88950   0.01109   1.003E+00   9.354E-03  -1.238E-02
 582  8.10124488   0.690  -0.73172   3.66244   7.05152   1.88948   0.01098   1.003E+00   9.329E-03  -1.225E-02
 583  8.10293345   0.690  -0.73171   3.66243   7.05147   1.88945   0.01087   1.003E+00   9.305E-03  -1.212E-02
 584  8.10461549   0.690  -0.73170   3.66242   7.05142   1.88943   0.01076   1.003E+00   9.280E-03  -1.199E-02
 585  8.10629103   0.690  -0.73169   3.66241   7.05138   1.88941   0.01066   1.003E+00   9.256E-03  -1.185E-02
 586  8.10796013   0.690  -0.73168   3.66241   7.05133   1.88939   0.01055   1.003E+00   9.231E-03  -1.172E-02
 587  8.10962285   0.690  -0.73167   3.66240   7.05129   1.88937   0.01044   1.003E+00   9.206E-03  -1.159E-02
 588  8.11127922   0.690  -0.73166   3.66239   7.05124   1.88934   0.01033   1.003E+00   9.182E-03  -1.146E-02
 589  8.11292930   0.690  -0.73165   3.66238   7.05119   1.88932   0.01022   1.003E+00   9.157E-03  -1.133E-02
 590  8.11457313   0.690  -0.73164   3.66237   7.05115   1.88930   0.01011   1.003E+00   9.133E-03  -1.120E-02
 591  8.11621077   0.690  -0.73163   3.66237   7.05110   1.88928   0.01000   1.002E+00   9.108E-03  -1.107E-02
 592  8.11784225   0.690  -0.73162   3.66236   7.05106   1.88926   0.00989   1.002E+00   9.083E-03  -1.094E-02
 593  8.11946763   0.690  -0.73161   3.66235   7.05101   1.88923   0.00978   1.002E+00   9.059E-03  -1.081E-02
 594  8.12108694   0.690  -0.73160   3.66234   7.05096   1.88921   0.00967   1.002E+00   9.034E-03  -1.068E-02
 595  8.12270024   0.690  -0.73159   3.66233   7.05092   1.88919   0.00956   1.002E+00   9.010E-03  -1.055E-02
 596  8.12430757   0.690  -0.73158   3.66233   7.05088   1.88917   0.00948   1.002E+00   8.990E-03  -1.046E-02
 597  8.12590898   0.690  -0.73157   3.66232   7.05085   1.88916   0.00943   1.002E+00   8.974E-03  -1.040E-02
 598  8.12750450   0.690  -0.73156   3.66232   7.05082   1.88915   0.00937   1.002E+00   8.957E-03  -1.034E-02
 599  8.12909418   0.690  -0.73155   3.66231   7.05080   1.88914   0.00931   1.002E+00   8.941E-03  -1.028E-02
 600  8.13067806   0.690  -0.73154   3.66231   7.05077   1.88913   0.00925   1.002E+00   8.925E-03  -1.022E-02
 601  8.13225619   0.690  -0.73153   3.66230   7.05074   1.88912   0.00919   1.002E+00   8.908E-03  -1.016E-02
 602  8.13382860   0.690  -0.73152   3.66230   7.05071   1.88911   0.00914   1.002E+00   8.892E-03  -1.010E-02
 603  8.13539534   0.690  -0.73151   3.66229   7.05068   1.88910   0.00908   1.002E+00   8.875E-03  -1.004E-02
 604  8.13695645   0.690  -0.73150   3.66229   7.05065   1.88909   0.00902   1.002E+00   8.859E-03  -9.978E-03
 605  8.13851197   0.690  -0.73149   3.66228   7.05062   1.88908   0.00896   1.002E+00   8.843E-03  -9.917E-03
 606  8.14006193   0.690  -0.73148   3.66228   7.05059   1.88907   0.00890   1.001E+00   8.826E-03  -9.857E-03
 607  8.14160639   0.690  -0.73147   3.66227   7.05057   1.88905   0.00885   1.001E+00   8.810E-03  -9.796E-03
 608  8.14314537   0.690  -0.73146   3.66227   7.05054   1.88904   0.00879   1.001E+00   8.793E-03  -9.735E-03
 609  8.14467891   0.690  -0.73145   3.66227   7.05051   1.88903   0.00873   1.001E+00   8.777E-03  -9.675E-03
 610  8.14620706   0.690  -0.73144   3.66226   7.05048   1.88902   0.00867   1.001E+00   8.761E-03  -9.614E-03
 611  8.14772985   0.690  -0.73143   3.66226   7.05045   1.88901   0.00861   1.001E+00   8.744E-03  -9.553E-03
 612  8.14924733   0.689  -0.73142   3.66225   7.05042   1.88900   0.00856   1.001E+00   8.728E-03  -9.493E-03
 613  8.15075951   0.689  -0.73141   3.66225   7.05039   1.88899   0.00850   1.001E+00   8.711E-03  -9.432E-03
 614  8.15226645   0.689  -0.73140   3.66224   7.05036   1.88898   0.00844   1.001E+00   8.695E-03  -9.371E-03
 615  8.15376818   0.689  -0.73139   3.66224   7.05033   1.88897   0.00838   1.001E+00   8.679E-03  -9.311E-03
 616  8.15526474   0.689  -0.73138   3.66223   7.05031   1.88896   0.00832   1.001E+00   8.662E-03  -9.250E-03
 617  8.15675615   0.689  -0.73137   3.66223   7.05028   1.88895   0.00827   1.001E+00   8.646E-03  -9.189E-03
 618  8.15824246   0.689  -0.73136   3.66222   7.05025   1.88894   0.00821   1.001E+00   8.629E-03  -9.129E-03
 619  8.15972371   0.689  -0.73135   3.66222   7.05022   1.88892   0.00815   1.001E+00   8.613E-03  -9.068E-03
 620  8.16119991   0.689  -0.73134   3.66221   7.05019   1.88891   0.00809   1.001E+00   8.597E-03  -9.008E-03
 621  8.16267112   0.689  -0.73133   3.66221   7.05016   1.88890   0.00803   1.001E+00   8.580E-03  -8.947E-03
 622  8.16413736   0.689  -0.73132   3.66220   7.05013   1.88889   0.00798   1.001E+00   8.564E-03  -8.886E-03
 623  8.16559866   0.689  -0.73131   3.66220   7.05010   1.88888   0.00792   1.001E+00   8.547E-03  -8.826E-03
 624  8.16705507   0.689  -0.73130   3.66219   7.05007   1.88887   0.00786   1.001E+00   8.531E-03  -8.765E-03
 625  8.16850661   0.689  -0.73129   3.66219   7.05005   1.88886   0.00780   1.001E+00   8.515E-03  -8.704E-03
 626  8.16995331   0.689  -0.73128   3.66218   7.05002   1.88885   0.00774   1.000E+00   8.498E-03  -8.644E-03
 627  8.17139521   0.689  -0.73127   3.66218   7.04999   1.88884   0.00769   1.000E+00   8.482E-03  -8.583E-03
 628  8.17283233   0.689  -0.73126   3.66217   7.04996   1.88883   0.00763   1.000E+00   8.465E-03  -8.522E-03
 629  8.17426472   0.689  -0.73125   3.66217   7.04993   1.88882   0.00757   1.000E+00   8.449E-03  -8.462E-03
 630  8.17569240   0.689  -0.73124   3.66217   7.04990   1.88881   0.00751   1.000E+00   8.433E-03  -8.401E-03
 631  8.17711540   0.689  -0.73123   3.66216   7.04987   1.88879   0.00745   1.000E+00   8.416E-03  -8.340E-03
 632  8.17853375   0.689  -0.73122   3.66216   7.04984   1.88878   0.00740   1.000E+00   8.400E-03  -8.280E-03
 633  8.17994749   0.689  -0.73121   3.66215   7.04981   1.88877   0.00734   1.000E+00   8.384E-03  -8.219E-03
 634  8.18135664   0.689  -0.73120   3.66215   7.04979   1.88876   0.00728   1.000E+00   8.367E-03  -8.158E-03
 635  8.18276123   0.689  -0.73119   3.66214   7.04976   1.88875   0.00722   1.000E+00   8.351E-03  -8.098E-03
 636  8.18416130   0.689  -0.73118   3.66214   7.04973   1.88874   0.00716   1.000E+00   8.334E-03  -8.037E-03
 637  8.18555686   0.689  -0.73117   3.66213   7.04970   1.88873   0.00711   1.000E+00   8.318E-03  -7.976E-03
 638  8.18694795   0.689  -0.73116   3.66213   7.04967   1.88872   0.00705   9.999E-01   8.302E-03  -7.916E-03
 639  8.18833461   0.689  -0.73115   3.66212   7.04964   1.88871   0.00699   9.999E-01   8.285E-03  -7.855E-03
 640  8.18971685   0.689  -0.73114   3.66212   7.04961   1.88870   0.00693   9.998E-01   8.269E-03  -7.794E-03
 641  8.19109470   0.689  -0.73113   3.66211   7.04958   1.88869   0.00687   9.998E-01   8.252E-03  -7.734E-03
 642  8.19246820   0.689  -0.73112   3.66211   7.04956   1.88868   0.00682   9.997E-01   8.236E-03  -7.673E-03
 643  8.19383736   0.689  -0.73111   3.66210   7.04953   1.88866   0.00676   9.997E-01   8.220E-03  -7.612E-03
 644  8.19520223   0.689  -0.73110   3.66210   7.04950   1.88865   0.00670   9.996E-01   8.203E-03  -7.552E-03
 645  8.19656282   0.689  -0.73109   3.66209   7.04947   1.88864   0.00664   9.996E-01   8.187E-03  -7.491E-03
 646  8.19791915   0.689  -0.73108   3.66209   7.04944   1.88863   0.00658   9.995E-01   8.170E-03  -7.430E-03
 647  8.19927127   0.689  -0.73107   3.66208   7.04941   1.88862   0.00653   9.995E-01   8.154E-03  -7.370E-03
 648  8.20061919   0.689  -0.73106   3.66208   7.04938   1.88861   0.00647   9.994E-01   8.138E-03  -7.309E-03
 649  8.20196294   0.689  -0.73105   3.66208   7.04935   1.88860   0.00641   9.994E-01   8.121E-03  -7.248E-03
 650  8.20330254   0.689  -0.73103   3.66207   7.04932   1.88859   0.00635   9.993E-01   8.105E-03  -7.188E-03
 651  8.20463803   0.689  -0.73102   3.66207   7.04930   1.88858   0.00629   9.993E-01   8.088E-03  -7.127E-03
 652  8.20596942   0.689  -0.73101   3.66206   7.04927   1.88857   0.00623   9.992E-01   8.072E-03  -7.066E-03
 653  8.20729674   0.689  -0.73100   3.66206   7.04924   1.88856   0.00618   9.992E-01   8.056E-03  -7.006E-03
 654  8.20862001   0.689  -0.73099   3.66205   7.04921   1.88855   0.00612   9.991E-01   8.039E-03  -6.945E-03
 655  8.20993927   0.689  -0.73098   3.66205   7.04918   1.88854   0.00606   9.991E-01   8.023E-03  -6.884E-03
 656  8.21125453   0.689  -0.73097   3.66204   7.04915   1.88852   0.00600   9.990E-01   8.006E-03  -6.824E-03
 657  8.21256582   0.689  -0.73097   3.66204   7.04913   1.88852   0.00596   9.990E-01   7.993E-03  -6.783E-03
 658  8.21387317   0.689  -0.73096   3.66204   7.04911   1.88851   0.00592   9.990E-01   7.982E-03  -6.756E-03
 659  8.21517659   0.689  -0.73095   3.66203   7.04909   1.88851   0.00589   9.989E-01   7.972E-03  -6.728E-03
 660  8.21647611   0.689  -0.73094   3.66203   7.04908   1.88851   0.00585   9.989E-01   7.961E-03  -6.701E-03
 661  8.21777175   0.689  -0.73093   3.66203   7.04906   1.88850   0.00582   9.989E-01   7.950E-03  -6.673E-03
 662  8.21906354   0.689  -0.73093   3.66202   7.04904   1.88850   0.00578   9.989E-01   7.939E-03  -6.646E-03
 663  8.22035149   0.689  -0.73092   3.66202   7.04902   1.88849   0.00575   9.989E-01   7.928E-03  -6.618E-03
 664  8.22163564   0.689  -0.73091   3.66202   7.04901   1.88849   0.00571   9.988E-01   7.917E-03  -6.590E-03
 665  8.22291601   0.689  -0.73090   3.66202   7.04899   1.88849   0.00568   9.988E-01   7.906E-03  -6.563E-03
 666  8.22419261   0.689  -0.73089   3.66201   7.04897   1.88848   0.00565   9.988E-01   7.895E-03  -6.535E-03
 667  8.22546546   0.689  -0.73089   3.66201   7.04895   1.88848   0.00561   9.988E-01   7.884E-03  -6.508E-03
 668  8.22673460   0.689  -0.73088   3.66201   7.04893   1.88847   0.00558   9.987E-01   7.873E-03  -6.480E-03
 669  8.22800004   0.689  -0.73087   3.66200   7.04892   1.88847   0.00554   9.987E-01   7.862E-03  -6.453E-03
 670  8.22926181   0.689  -0.73086   3.66200   7.04890   1.88847   0.00551   9.987E-01   7.851E-03  -6.425E-03
 671  8.23051992   0.689  -0.73086   3.66200   7.04888   1.88846   0.00547   9.987E-01   7.840E-03  -6.398E-03
 672  8.23177439   0.689  -0.73085   3.66200   7.04886   1.88846   0.00544   9.987E-01   7.829E-03  -6.370E-03
 673  8.23302525   0.689  -0.73084   3.66199   7.04885   1.88845   0.00540   9.986E-01   7.818E-03  -6.343E-03
 674  8.23427252   0.689  -0.73083   3.66199   7.04883   1.88845   0.00537   9.986E-01   7.808E-03  -6.315E-03
 675  8.23551622   0.689  -0.73082   3.66199   7.04881   1.88845   0.00533   9.986E-01   7.797E-03  -6.288E-03
 676  8.23675637   0.689  -0.73082   3.66198   7.04879   1.88844   0.00530   9.986E-01   7.786E-03  -6.260E-03
 677  8.23799298   0.689  -0.73081   3.66198   7.04878   1.88844   0.00526   9.985E-01   7.775E-03  -6.232E-03
 678  8.23922608   0.689  -0.73080   3.66198   7.04876   1.88843   0.00523   9.985E-01   7.764E-03  -6.205E-03
 679  8.24045570   0.689  -0.73079   3.66198   7.04874   1.88843   0.00519   9.985E-01   7.753E-03  -6.177E-03
 680  8.24168184   0.689  -0.73078   3.66197   7.04872   1.88843   0.00516   9.985E-01   7.742E-03  -6.150E-03
 681  8.24290453   0.689  -0.73078   3.66197   7.04870   1.88842   0.00512   9.985E-01   7.731E-03  -6.122E-03
 682  8.24412378   0.689  -0.73077   3.66197   7.04869   1.88842   0.00509   9.984E-01   7.720E-03  -6.095E-03
 683  8.24533962   0.688  -0.73076   3.66196   7.04867   1.88842   0.00505   9.984E-01   7.709E-03  -6.067E-03
 684  8.24655207   0.688  -0.73075   3.66196   7.04865   1.88841   0.00502   9.984E-01   7.698E-03  -6.040E-03
 685  8.24776115   0.688  -0.73074   3.66196   7.04863   1.88841   0.00498   9.984E-01   7.687E-03  -6.012E-03
 686  8.24896686   0.688  -0.73074   3.66196   7.04862   1.88840   0.00495   9.984E-01   7.676E-03  -5.985E-03
 687  8.25016924   0.688  -0.73073   3.66195   7.04860   1.88840   0.00491   9.983E-01   7.665E-03  -5.957E-03
 688  8.25136830   0.688  -0.73072   3.66195   7.04858   1.88840   0.00488   9.983E-01   7.655E-03  -5.929E-03
 689  8.25256406   0.688  -0.73071   3.66195   7.04856   1.88839   0.00484   9.983E-01   7.644E-03  -5.902E-03
 690  8.25375653   0.688  -0.73071   3.66194   7.04854   1.88839   0.00481   9.983E-01   7.633E-03  -5.874E-03
 691  8.25494574   0.688  -0.73070   3.66194   7.04853   1.88838   0.00477   9.982E-01   7.622E-03  -5.847E-03
 692  8.25613170   0.688  -0.73069   3.66194   7.04851   1.88838   0.00474   9.982E-01   7.611E-03  -5.819E-03
 693  8.25731443   0.688  -0.73068   3.66194   7.04849   1.88838   0.00470   9.982E-01   7.600E-03  -5.792E-03
 694  8.25849395   0.688  -0.73067   3.66193   7.04847   1.88837   0.00467   9.982E-01   7.589E-03  -5.764E-03
 695  8.25967027   0.688  -0.73067   3.66193   7.04846   1.88837   0.00463   9.982E-01   7.578E-03  -5.737E-03
 696  8.26084342   0.688  -0.73066   3.66193   7.04844   1.88836   0.00460   9.981E-01   7.567E-03  -5.709E-03
 697  8.26201341   0.688  -0.73065   3.66192   7.04842   1.88836   0.00456   9.981E-01   7.556E-03  -5.682E-03
 698  8.26318025   0.688  -0.73064   3.66192   7.04840   1.88836   0.00453   9.981E-01   7.545E-03  -5.654E-03
 699  8.26434396   0.688  -0.73063   3.66192   7.04839   1.88835   0.00449   9.981E-01   7.534E-03  -5.627E-03
 700  8.26550457   0.688  -0.73063   3.66192   7.04837   1.88835   0.00446   9.980E-01   7.523E-03  -5.599E-03
 701  8.26666208   0.688  -0.73062   3.66191   7.04835   1.88834   0.00442   9.980E-01   7.512E-03  -5.571E-03
 702  8.26781652   0.688  -0.73061   3.66191   7.04833   1.88834   0.00439   9.980E-01   7.502E-03  -5.544E-03
 703  8.26896789   0.688  -0.73060   3.66191   7.04831   1.88834   0.00436   9.980E-01   7.491E-03  -5.516E-03
 704  8.27011623   0.688  -0.73060   3.66190   7.04830   1.88833   0.00432   9.980E-01   7.480E-03  -5.489E-03
 705  8.27126153   0.688  -0.73059   3.66190   7.04828   1.88833   0.00429   9.979E-01   7.469E-03  -5.461E-03
 706  8.27240382   0.688  -0.73058   3.66190   7.04826   1.88832   0.00425   9.979E-01   7.458E-03  -5.434E-03
 707  8.27354311   0.688  -0.73057   3.66190   7.04824   1.88832   0.00422   9.979E-01   7.447E-03  -5.406E-03
 708  8.27467942   0.688  -0.73056   3.66189   7.04823   1.88832   0.00418   9.979E-01   7.436E-03  -5.379E-03
 709  8.27581277   0.688  -0.73056   3.66189   7.04821   1.88831   0.00415   9.979E-01   7.425E-03  -5.351E-03
 710  8.27694317   0.688  -0.73055   3.66189   7.04819   1.88831   0.00411   9.978E-01   7.414E-03  -5.324E-03
 711  8.27807063   0.688  -0.73054   3.66188   7.04817   1.88831   0.00408   9.978E-01   7.403E-03  -5.296E-03
 712  8.27919518   0.688  -0.73053   3.66188   7.04816   1.88830   0.00404   9.978E-01   7.392E-03  -5.268E-03
 713  8.28031681   0.688  -0.73052   3.66188   7.04814   1.88830   0.00401   9.978E-01   7.381E-03  -5.241E-03
 714  8.28143556   0.688  -0.73052   3.66188   7.04812   1.88829   0.00397   9.977E-01   7.370E-03  -5.213E-03
 715  8.28255144   0.688  -0.73051   3.66187   7.04810   1.88829   0.00394   9.977E-01   7.359E-03  -5.186E-03
 716  8.28366445   0.688  -0.73050   3.66187   7.04808   1.88829   0.00390   9.977E-01   7.349E-03  -5.158E-03
 717  8.28477463   0.688  -0.73049   3.66187   7.04807   1.88828   0.00387   9.977E-01   7.338E-03  -5.131E-03
 718  8.28588196   0.688  -0.73049   3.66186   7.04805   1.88828   0.00383   9.977E-01   7.327E-03  -5.103E-03
 719  8.28698649   0.688  -0.73048   3.66186   7.04803   1.88827   0.00380   9.976E-01   7.316E-03  -5.076E-03
 720  8.28808821   0.688  -0.73047   3.66186   7.04801   1.88827   0.00376   9.976E-01   7.305E-03  -5.048E-03
 721  8.28918714   0.688  -0.73046   3.66186   7.04800   1.88827   0.00373   9.976E-01   7.294E-03  -5.021E-03
 722  8.29028330   0.688  -0.73045   3.66185   7.04798   1.88826   0.00369   9.976E-01   7.283E-03  -4.993E-03
 723  8.29137670   0.688  -0.73045   3.66185   7.04796   1.88826   0.00366   9.975E-01   7.272E-03  -4.965E-03
 724  8.29246736   0.688  -0.73044   3.66185   7.04794   1.88825   0.00362   9.975E-01   7.261E-03  -4.938E-03
 725  8.29355528   0.688  -0.73043   3.66185   7.04793   1.88825   0.00359   9.975E-01   7.250E-03  -4.910E-03
 726  8.29464048   0.688  -0.73042   3.66184   7.04791   1.88825   0.00355   9.975E-01   7.239E-03  -4.883E-03
 727  8.29572298   0.688  -0.73041   3.66184   7.04789   1.88824   0.00352   9.975E-01   7.228E-03  -4.855E-03
 728  8.29680279   0.688  -0.73041   3.66184   7.04787   1.88824   0.00348   9.974E-01   7.217E-03  -4.828E-03
 729  8.29787992   0.688  -0.73040   3.66183   7.04785   1.88823   0.00345   9.974E-01   7.206E-03  -4.800E-03
 730  8.29895438   0.688  -0.73039   3.66183   7.04784   1.88823   0.00341   9.974E-01   7.196E-03  -4.773E-03
 731  8.30002620   0.688  -0.73038   3.66183   7.04782   1.88823   0.00338   9.974E-01   7.185E-03  -4.745E-03
 732  8.30109537   0.688  -0.73038   3.66183   7.04780   1.88822   0.00334   9.973E-01   7.174E-03  -4.718E-03
 733  8.30216192   0.688  -0.73037   3.66182   7.04778   1.88822   0.00331   9.973E-01   7.163E-03  -4.690E-03
 734  8.30322585   0.688  -0.73036   3.66182   7.04777   1.88821   0.00327   9.973E-01   7.152E-03  -4.663E-03
 735  8.30428719   0.688  -0.73035   3.66182   7.04775   1.88821   0.00324   9.973E-01   7.141E-03  -4.635E-03
 736  8.30534594   0.688  -0.73034   3.66181   7.04773   1.88821   0.00320   9.973E-01   7.130E-03  -4.607E-03
 737  8.30640211   0.688  -0.73034   3.66181   7.04771   1.88820   0.00317   9.972E-01   7.119E-03  -4.580E-03
 738  8.30745572   0.688  -0.73033   3.66181   7.04770   1.88820   0.00313   9.972E-01   7.108E-03  -4.552E-03
 739  8.30850678   0.688  -0.73032   3.66181   7.04768   1.88819   0.00310   9.972E-01   7.097E-03  -4.525E-03
 740  8.30955530   0.688  -0.73031   3.66180   7.04766   1.88819   0.00307   9.972E-01   7.086E-03  -4.497E-03
 741  8.31060130   0.688  -0.73030   3.66180   7.04764   1.88819   0.00303   9.972E-01   7.075E-03  -4.470E-03
 742  8.31164479   0.688  -0.73030   3.66180   7.04762   1.88818   0.00300   9.971E-01   7.064E-03  -4.442E-03
 743  8.31268577   0.688  -0.73029   3.66179   7.04761   1.88818   0.00296   9.971E-01   7.053E-03  -4.415E-03
 744  8.31372426   0.688  -0.73028   3.66179   7.04759   1.88818   0.00293   9.971E-01   7.043E-03  -4.387E-03
 745  8.31476028   0.688  -0.73027   3.66179   7.04757   1.88817   0.00289   9.971E-01   7.032E-03  -4.360E-03
 746  8.31579383   0.688  -0.73026   3.66179   7.04755   1.88817   0.00286   9.970E-01   7.021E-03  -4.332E-03
 747  8.31682493   0.688  -0.73026   3.66178   7.04754   1.88816   0.00282   9.970E-01   7.010E-03  -4.304E-03
 748  8.31785359   0.688  -0.73025   3.66178   7.04752   1.88816   0.00279   9.970E-01   6.999E-03  -4.279E-03
 749  8.31887981   0.688  -0.73024   3.66178   7.04751   1.88816   0.00277   9.970E-01   6.992E-03  -4.267E-03
 750  8.31990362   0.688  -0.73024   3.66178   7.04750   1.88816   0.00276   9.970E-01   6.985E-03  -4.254E-03
 751  8.32092501   0.688  -0.73023   3.66178   7.04749   1.88816   0.00274   9.970E-01   6.977E-03  -4.242E-03
 752  8.32194401   0.687  -0.73022   3.66177   7.04748   1.88816   0.00272   9.970E-01   6.970E-03  -4.230E-03
 753  8.32296063   0.687  -0.73021   3.66177   7.04747   1.88816   0.00271   9.970E-01   6.963E-03  -4.218E-03
 754  8.32397487   0.687  -0.73021   3.66177   7.04746   1.88816   0.00269   9.970E-01   6.955E-03  -4.206E-03
 755  8.32498675   0.687  -0.73020   3.66177   7.04745   1.88816   0.00268   9.969E-01   6.948E-03  -4.194E-03
 756  8.32599628   0.687  -0.73019   3.66177   7.04744   1.88816   0.00266   9.969E-01   6.941E-03  -4.182E-03
 757  8.32700346   0.687  -0.73019   3.66177   7.04743   1.88817   0.00264   9.969E-01   6.934E-03  -4.170E-03
 758  8.32800832   0.687  -0.73018   3.66176   7.04742   1.88817   0.00263   9.969E-01   6.926E-03  -4.158E-03
 759  8.32901085   0.687  -0.73017   3.66176   7.04741   1.88817   0.00261   9.969E-01   6.919E-03  -4.146E-03
 760  8.33001108   0.687  -0.73017   3.66176   7.04739   1.88817   0.00260   9.969E-01   6.912E-03  -4.134E-03
 761  8.33100901   0.687  -0.73016   3.66176   7.04738   1.88817   0.00258   9.969E-01   6.904E-03  -4.121E-03
 762  8.33200465   0.687  -0.73015   3.66176   7.04737   1.88817   0.00256   9.969E-01   6.897E-03  -4.109E-03
 763  8.33299801   0.687  -0.73014   3.66176   7.04736   1.88817   0.00255   9.969E-01   6.890E-03  -4.097E-03
 764  8.33398910   0.687  -0.73014   3.66176   7.04735   1.88817   0.00253   9.969E-01   6.883E-03  -4.085E-03
 765  8.33497794   0.687  -0.73013   3.66175   7.04734   1.88817   0.00252   9.969E-01   6.875E-03  -4.073E-03
 766  8.33596454   0.687  -0.73012   3.66175   7.04733   1.88817   0.00250   9.969E-01   6.868E-03  -4.061E-03
 767  8.33694889   0.687  -0.73012   3.66175   7.04732   1.88817   0.00249   9.969E-01   6.861E-03  -4.049E-03
 768  8.33793102   0.687  -0.73011   3.66175   7.04731   1.88817   0.00247   9.969E-01   6.853E-03  -4.037E-03
 769  8.33891094   0.687  -0.73010   3.66175   7.04730   1.88817   0.00245   9.968E-01   6.846E-03  -4.025E-03
 770  8.33988865   0.687  -0.73010   3.66175   7.04729   1.88817   0.00244   9.968E-01   6.839E-03  -4.013E-03
 771  8.34086416   0.687  -0.73009   3.66174   7.04728   1.88817   0.00242   9.968E-01   6.832E-03  -4.000E-03
 772  8.34183748   0.687  -0.73008   3.66174   7.04727   1.88817   0.00241   9.968E-01   6.824E-03  -3.988E-03
 773  8.34280863   0.687  -0.73007   3.66174   7.04726   1.88817   0.00239   9.968E-01   6.817E-03  -3.976E-03
 774  8.34377762   0.687  -0.73007   3.66174   7.04725   1.88818   0.00237   9.968E-01   6.810E-03  -3.964E-03
 775  8.34474444   0.687  -0.73006   3.66174   7.04724   1.88818   0.00236   9.968E-01   6.802E-03  -3.952E-03
 776  8.34570912   0.687  -0.73005   3.66174   7.04723   1.88818   0.00234   9.968E-01   6.795E-03  -3.940E-03
 777  8.34667166   0.687  -0.73005   3.66174   7.04722   1.88818   0.00233   9.968E-01   6.788E-03  -3.928E-03
 778  8.34763207   0.687  -0.73004   3.66173   7.04721   1.88818   0.00231   9.968E-01   6.781E-03  -3.916E-03
 779  8.34859036   0.687  -0.73003   3.66173   7.04720   1.88818   0.00229   9.968E-01   6.773E-03  -3.904E-03
 780  8.34954655   0.687  -0.73003   3.66173   7.04719   1.88818   0.00228   9.968E-01   6.766E-03  -3.892E-03
 781  8.35050063   0.687  -0.73002   3.66173   7.04718   1.88818   0.00226   9.968E-01   6.759E-03  -3.880E-03
 782  8.35145262   0.687  -0.73001   3.66173   7.04717   1.88818   0.00225   9.968E-01   6.751E-03  -3.867E-03
 783  8.35240253   0.687  -0.73000   3.66173   7.04716   1.88818   0.00223   9.967E-01   6.744E-03  -3.855E-03
 784  8.35335036   0.687  -0.73000   3.66172   7.04715   1.88818   0.00221   9.967E-01   6.737E-03  -3.843E-03
 785  8.35429613   0.687  -0.72999   3.66172   7.04714   1.88818   0.00220   9.967E-01   6.730E-03  -3.831E-03
 786  8.35523985   0.687  -0.72998   3.66172   7.04713   1.88818   0.00218   9.967E-01   6.722E-03  -3.819E-03
 787  8.35618152   0.687  -0.72998   3.66172   7.04712   1.88818   0.00217   9.967E-01   6.715E-03  -3.807E-03
 788  8.35712115   0.687  -0.72997   3.66172   7.04710   1.88818   0.00215   9.967E-01   6.708E-03  -3.795E-03
 789  8.35805875   0.687  -0.72996   3.66172   7.04709   1.88818   0.00213   9.967E-01   6.700E-03  -3.783E-03
 790  8.35899434   0.687  -0.72996   3.66172   7.04708   1.88818   0.00212   9.967E-01   6.693E-03  -3.771E-03
 791  8.35992791   0.687  -0.72995   3.66171   7.04707   1.88819   0.00210   9.967E-01   6.686E-03  -3.759E-03
 792  8.36085948   0.687  -0.72994   3.66171   7.04706   1.88819   0.00209   9.967E-01   6.679E-03  -3.746E-03
 793  8.36178905   0.687  -0.72993   3.66171   7.04705   1.88819   0.00207   9.967E-01   6.671E-03  -3.734E-03
 794  8.36271664   0.687  -0.72993   3.66171   7.04704   1.88819   0.00205   9.967E-01   6.664E-03  -3.722E-03
 795  8.36364226   0.687  -0.72992   3.66171   7.04703   1.88819   0.00204   9.967E-01   6.657E-03  -3.710E-03
 796  8.36456590   0.687  -0.72991   3.66171   7.04702   1.88819   0.00202   9.966E-01   6.649E-03  -3.698E-03
 797  8.36548759   0.687  -0.72991   3.66170   7.04701   1.88819   0.00201   9.966E-01   6.642E-03  -3.686E-03
 798  8.36640732   0.687  -0.72990   3.66170   7.04700   1.88819   0.00199   9.966E-01   6.635E-03  -3.674E-03
 799  8.36732511   0.687  -0.72989   3.66170   7.04699   1.88819   0.00197   9.966E-01   6.628E-03  -3.662E-03
 800  8.36824096   0.687  -0.72989   3.66170   7.04698   1.88819   0.00196   9.966E-01   6.620E-03  -3.650E-03
 801  8.36915489   0.687  -0.72988   3.66170   7.04697   1.88819   0.00194   9.966E-01   6.613E-03  -3.638E-03
 802  8.37006690   0.687  -0.72987   3.66170   7.04696   1.88819   0.00193   9.966E-01   6.606E-03  -3.626E-03
 803  8.37097699   0.687  -0.72986   3.66170   7.04695   1.88819   0.00191   9.966E-01   6.598E-03  -3.613E-03
 804  8.37188519   0.687  -0.72986   3.66169   7.04694   1.88819   0.00189   9.966E-01   6.591E-03  -3.601E-03
 805  8.37279148   0.687  -0.72985   3.66169   7.04693   1.88819   0.00188   9.966E-01   6.584E-03  -3.589E-03
 806  8.37369589   0.687  -0.72984   3.66169   7.04692   1.88819   0.00186   9.966E-01   6.577E-03  -3.577E-03
 807  8.37459842   0.687  -0.72984   3.66169   7.04691   1.88819   0.00185   9.966E-01   6.569E-03  -3.565E-03
 808  8.37549908   0.687  -0.72983   3.66169   7.04690   1.88820   0.00183   9.966E-01   6.562E-03  -3.553E-03
 809  8.37639788   0.687  -0.72982   3.66169   7.04689   1.88820   0.00181   9.966E-01   6.555E-03  -3.541E-03
 810  8.37729482   0.687  -0.72982   3.66168   7.04688   1.88820   0.00180   9.965E-01   6.547E-03  -3.529E-03
 811  8.37818991   0.687  -0.72981   3.66168   7.04687   1.88820   0.00178   9.965E-01   6.540E-03  -3.517E-03
 812  8.37908316   0.687  -0.72980   3.66168   7.04686   1.88820   0.00177   9.965E-01   6.533E-03  -3.505E-03
 813  8.37997457   0.687  -0.72979   3.66168   7.04685   1.88820   0.00175   9.965E-01   6.526E-03  -3.492E-03
 814  8.38086416   0.687  -0.72979   3.66168   7.04684   1.88820   0.00174   9.965E-01   6.518E-03  -3.480E-03
 815  8.38175193   0.687  -0.72978   3.66168   7.04683   1.88820   0.00172   9.965E-01   6.511E-03  -3.468E-03
 816  8.38263789   0.687  -0.72977   3.66168   7.04682   1.88820   0.00170   9.965E-01   6.504E-03  -3.456E-03
 817  8.38352205   0.687  -0.72977   3.66167   7.04680   1.88820   0.00169   9.965E-01   6.496E-03  -3.444E-03
 818  8.38440441   0.687  -0.72976   3.66167   7.04679   1.88820   0.00167   9.965E-01   6.489E-03  -3.432E-03
 819  8.38528498   0.687  -0.72975   3.66167   7.04678   1.88820   0.00166   9.965E-01   6.482E-03  -3.420E-03
 820  8.38616377   0.686  -0.72975   3.66167   7.04677   1.88820   0.00164   9.965E-01   6.475E-03  -3.408E-03
 821  8.38704079   0.686  -0.72974   3.66167   7.04676   1.88820   0.00162   9.965E-01   6.467E-03  -3.396E-03
 822  8.38791603   0.686  -0.72973   3.66167   7.04675   1.88820   0.00161   9.965E-01   6.460E-03  -3.384E-03
 823  8.38878952   0.686  -0.72972   3.66167   7.04674   1.88820   0.00159   9.965E-01   6.453E-03  -3.372E-03
 824  8.38966125   0.686  -0.72972   3.66166   7.04673   1.88820   0.00158   9.964E-01   6.445E-03  -3.359E-03
 825  8.39053124   0.686  -0.72971   3.66166   7.04672   1.88820   0.00156   9.964E-01   6.438E-03  -3.347E-03
 826  8.39139949   0.686  -0.72970   3.66166   7.04671   1.88821   0.00154   9.964E-01   6.431E-03  -3.335E-03
 827  8.39226601   0.686  -0.72970   3.66166   7.04670   1.88821   0.00153   9.964E-01   6.424E-03  -3.323E-03
 828  8.39313080   0.686  -0.72969   3.66166   7.04669   1.88821   0.00151   9.964E-01   6.416E-03  -3.311E-03
 829  8.39399387   0.686  -0.72968   3.66166   7.04668   1.88821   0.00150   9.964E-01   6.409E-03  -3.299E-03
 830  8.39485523   0.686  -0.72968   3.66165   7.04667   1.88821   0.00148   9.964E-01   6.402E-03  -3.287E-03
 831  8.39571488   0.686  -0.72967   3.66165   7.04666   1.88821   0.00146   9.964E-01   6.394E-03  -3.275E-03
 832  8.39657284   0.686  -0.72966   3.66165   7.04665   1.88821   0.00145   9.964E-01   6.387E-03  -3.263E-03
 833  8.39742910   0.686  -0.72965   3.66165   7.04664   1.88821   0.00143   9.964E-01   6.380E-03  -3.251E-03
 834  8.39828368   0.686  -0.72965   3.66165   7.04663   1.88821   0.00142   9.964E-01   6.373E-03  -3.238E-03
 835  8.39913659   0.686  -0.72964   3.66165   7.04662   1.88821   0.00140   9.964E-01   6.365E-03  -3.226E-03
 836  8.39998782   0.686  -0.72963   3.66165   7.04661   1.88821   0.00138   9.964E-01   6.358E-03  -3.214E-03
 837  8.40083738   0.686  -0.72963   3.66164   7.04660   1.88821   0.00137   9.964E-01   6.351E-03  -3.202E-03
 838  8.40168529   0.686  -0.72962   3.66164   7.04659   1.88821   0.00135   9.963E-01   6.343E-03  -3.190E-03
 839  8.40253154   0.686  -0.72961   3.66164   7.04658   1.88821   0.00134   9.963E-01   6.336E-03  -3.178E-03
 840  8.40337615   0.686  -0.72961   3.66164   7.04657   1.88821   0.00132   9.963E-01   6.329E-03  -3.166E-03
 841  8.40421912   0.686  -0.72960   3.66164   7.04656   1.88821   0.00130   9.963E-01   6.322E-03  -3.154E-03
 842  8.40506045   0.686  -0.72959   3.66164   7.04655   1.88821   0.00129   9.963E-01   6.314E-03  -3.142E-03
 843  8.40590016   0.686  -0.72958   3.66163   7.04654   1.88822   0.00127   9.963E-01   6.307E-03  -3.130E-03
 844  8.40673825   0.686  -0.72958   3.66163   7.04653   1.88822   0.00126   9.963E-01   6.300E-03  -3.118E-03
 845  8.40757473   0.686  -0.72957   3.66163   7.04652   1.88822   0.00124   9.963E-01   6.292E-03  -3.105E-03
 846  8.40840959   0.686  -0.72956   3.66163   7.04650   1.88822   0.00122   9.963E-01   6.285E-03  -3.093E-03
 847  8.40924286   0.686  -0.72956   3.66163   7.04649   1.88822   0.00121   9.963E-01   6.278E-03  -3.081E-03
 848  8.41007453   0.686  -0.72955   3.66163   7.04648   1.88822   0.00119   9.963E-01   6.271E-03  -3.069E-03
 849  8.41090461   0.686  -0.72954   3.66163   7.04647   1.88822   0.00118   9.963E-01   6.263E-03  -3.057E-03
 850  8.41173310   0.686  -0.72954   3.66162   7.04646   1.88822   0.00116   9.963E-01   6.256E-03  -3.045E-03
 851  8.41256002   0.686  -0.72953   3.66162   7.04645   1.88822   0.00114   9.962E-01   6.249E-03  -3.033E-03
 852  8.41338537   0.686  -0.72952   3.66162   7.04644   1.88822   0.00113   9.962E-01   6.241E-03  -3.021E-03
 853  8.41420915   0.686  -0.72951   3.66162   7.04643   1.88822   0.00111   9.962E-01   6.234E-03  -3.009E-03
 854  8.41503137   0.686  -0.72951   3.66162   7.04642   1.88822   0.00110   9.962E-01   6.227E-03  -2.997E-03
 855  8.41585204   0.686  -0.72950   3.66162   7.04641   1.88822   0.00108   9.962E-01   6.220E-03  -2.984E-03
 856  8.41667116   0.686  -0.72949   3.66161   7.04640   1.88822   0.00106   9.962E-01   6.212E-03  -2.972E-03
 857  8.41748874   0.686  -0.72949   3.66161   7.04639   1.88822   0.00105   9.962E-01   6.205E-03  -2.960E-03
 858  8.41830478   0.686  -0.72948   3.66161   7.04638   1.88822   0.00103   9.962E-01   6.198E-03  -2.948E-03
 859  8.41911929   0.686  -0.72947   3.66161   7.04637   1.88822   0.00102   9.962E-01   6.190E-03  -2.936E-03
 860  8.41993228   0.686  -0.72947   3.66161   7.04636   1.88823   0.00100   9.962E-01   6.183E-03  -2.924E-03
 861  8.42074374   0.686  -0.72946   3.66161   7.04635   1.88823   0.00099   9.962E-01   6.176E-03  -2.912E-03
 862  8.42155370   0.686  -0.72945   3.66161   7.04634   1.88823   0.00097   9.962E-01   6.169E-03  -2.900E-03
 863  8.42236214   0.686  -0.72944   3.66160   7.04633   1.88823   0.00095   9.962E-01   6.161E-03  -2.888E-03
 864  8.42316909   0.686  -0.72944   3.66160   7.04632   1.88823   0.00094   9.962E-01   6.154E-03  -2.876E-03
 865  8.42397454   0.686  -0.72943   3.66160   7.04631   1.88823   0.00092   9.961E-01   6.147E-03  -2.864E-03
 866  8.42477849   0.686  -0.72942   3.66160   7.04630   1.88823   0.00091   9.961E-01   6.139E-03  -2.851E-03
 867  8.42558096   0.686  -0.72942   3.66160   7.04629   1.88823   0.00089   9.961E-01   6.132E-03  -2.839E-03
 868  8.42638195   0.686  -0.72941   3.66160   7.04628   1.88823   0.00087   9.961E-01   6.125E-03  -2.827E-03
 869  8.42718147   0.686  -0.72940   3.66159   7.04627   1.88823   0.00086   9.961E-01   6.118E-03  -2.815E-03
 870  8.42797952   0.686  -0.72940   3.66159   7.04626   1.88823   0.00084   9.961E-01   6.110E-03  -2.803E-03
 871  8.42877610   0.686  -0.72939   3.66159   7.04625   1.88823   0.00083   9.961E-01   6.103E-03  -2.791E-03
 872  8.42957123   0.686  -0.72938   3.66159   7.04624   1.88823   0.00081   9.961E-01   6.096E-03  -2.779E-03
 873  8.43036490   0.686  -0.72937   3.66159   7.04623   1.88823   0.00079   9.961E-01   6.088E-03  -2.767E-03
 874  8.43115712   0.686  -0.72937   3.66159   7.04622   1.88823   0.00078   9.961E-01   6.081E-03  -2.755E-03
 875  8.43194791   0.686  -0.72936   3.66159   7.04620   1.88823   0.00076   9.961E-01   6.074E-03  -2.743E-03
 876  8.43273725   0.686  -0.72935   3.66158   7.04619   1.88823   0.00075   9.961E-01   6.067E-03  -2.730E-03
 877  8.43352516   0.686  -0.72935   3.66158   7.04618   1.88824   0.00073   9.961E-01   6.059E-03  -2.718E-03
 878  8.43431165   0.686  -0.72934   3.66158   7.04617   1.88824   0.00071   9.961E-01   6.052E-03  -2.706E-03
 879  8.43509671   0.686  -0.72933   3.66158   7.04616   1.88824   0.00070   9.960E-01   6.045E-03  -2.694E-03
 880  8.43588036   0.686  -0.72933   3.66158   7.04615   1.88824   0.00068   9.960E-01   6.037E-03  -2.682E-03
 881  8.43666260   0.686  -0.72932   3.66158   7.04614   1.88824   0.00067   9.960E-01   6.030E-03  -2.670E-03
 882  8.43744342   0.686  -0.72931   3.66157   7.04613   1.88824   0.00065   9.960E-01   6.023E-03  -2.658E-03
 883  8.43822285   0.686  -0.72930   3.66157   7.04612   1.88824   0.00063   9.960E-01   6.016E-03  -2.646E-03
 884  8.43900088   0.686  -0.72930   3.66157   7.04611   1.88824   0.00062   9.960E-01   6.008E-03  -2.634E-03
 885  8.43977753   0.686  -0.72929   3.66157   7.04610   1.88824   0.00060   9.960E-01   6.001E-03  -2.622E-03
 886  8.44055278   0.686  -0.72928   3.66157   7.04610   1.88824   0.00060   9.960E-01   6.000E-03  -2.615E-03
 887  8.44132665   0.686  -0.72928   3.66157   7.04609   1.88825   0.00059   9.960E-01   6.000E-03  -2.610E-03
 888  8.44209915   0.685  -0.72927   3.66157   7.04609   1.88825   0.00059   9.960E-01   6.000E-03  -2.605E-03
 889  8.44287027   0.685  -0.72927   3.66157   7.04608   1.88825   0.00059   9.960E-01   6.000E-03  -2.600E-03
 890  8.44364003   0.685  -0.72926   3.66157   7.04607   1.88826   0.00059   9.960E-01   6.000E-03  -2.595E-03
 891  8.44440843   0.685  -0.72925   3.66157   7.04607   1.88826   0.00058   9.960E-01   6.000E-03  -2.590E-03
 892  8.44517546   0.685  -0.72925   3.66157   7.04606   1.88826   0.00058   9.960E-01   6.000E-03  -2.584E-03
 893  8.44594115   0.685  -0.72924   3.66156   7.04606   1.88827   0.00058   9.960E-01   6.000E-03  -2.579E-03
 894  8.44670549   0.685  -0.72923   3.66156   7.04605   1.88827   0.00057   9.960E-01   6.000E-03  -2.574E-03
 895  8.44746849   0.685  -0.72923   3.66156   7.04605   1.88827   0.00057   9.960E-01   6.000E-03  -2.569E-03
 896  8.44823014   0.685  -0.72922   3.66156   7.04604   1.88828   0.00057   9.960E-01   6.000E-03  -2.564E-03
 897  8.44899047   0.685  -0.72921   3.66156   7.04604   1.88828   0.00057   9.960E-01   6.000E-03  -2.558E-03
 898  8.44974946   0.685  -0.72921   3.66156   7.04603   1.88828   0.00056   9.960E-01   6.000E-03  -2.553E-03
 899  8.45050713   0.685  -0.72920   3.66156   7.04603   1.88829   0.00056   9.960E-01   6.000E-03  -2.548E-03
 900  8.45126349   0.685  -0.72919   3.66156   7.04602   1.88829   0.00056   9.960E-01   6.000E-03  -2.543E-03
 901  8.45201852   0.685  -0.72919   3.66156   7.04602   1.88829   0.00055   9.960E-01   6.000E-03  -2.538E-03
 902  8.45277225   0.685  -0.72918   3.66156   7.04601   1.88830   0.00055   9.960E-01   6.000E-03  -2.532E-03
 903  8.45352467   0.685  -0.72918   3.66156   7.04601   1.88830   0.00055   9.960E-01   6.000E-03  -2.527E-03
 904  8.45427579   0.685  -0.72917   3.66156   7.04600   1.88830   0.00055   9.960E-01   6.000E-03  -2.522E-03
 905  8.45502561   0.685  -0.72916   3.66156   7.04600   1.88831   0.00054   9.960E-01   6.000E-03  -2.517E-03
 906  8.45577414   0.685  -0.72916   3.66156   7.04599   1.88831   0.00054   9.960E-01   6.000E-03  -2.512E-03
 907  8.45652138   0.685  -0.72915   3.66156   7.04599   1.88831   0.00054   9.960E-01   6.000E-03  -2.506E-03
 908  8.45726734   0.685  -0.72914   3.66155   7.04598   1.88832   0.00053   9.960E-01   6.000E-03  -2.501E-03
 909  8.45801202   0.685  -0.72914   3.66155   7.04598   1.88832   0.00053   9.960E-01   6.000E-03  -2.496E-03
 910  8.45875543   0.685  -0.72913   3.66155   7.04597   1.88832   0.00053   9.960E-01   6.000E-03  -2.491E-03
 911  8.45949756   0.685  -0.72912   3.66155   7.04597   1.88833   0.00052   9.960E-01   6.000E-03  -2.486E-03
 912  8.46023843   0.685  -0.72912   3.66155   7.04596   1.88833   0.00052   9.960E-01   6.000E-03  -2.480E-03
 913  8.46097804   0.685  -0.72911   3.66155   7.04596   1.88833   0.00052   9.960E-01   6.000E-03  -2.475E-03
 914  8.46171639   0.685  -0.72910   3.66155   7.04595   1.88834   0.00052   9.960E-01   6.000E-03  -2.470E-03
 915  8.46245348   0.685  -0.72910   3.66155   7.04595   1.88834   0.00051   9.960E-01   6.000E-03  -2.465E-03
 916  8.46318933   0.685  -0.72909   3.66155   7.04594   1.88834   0.00051   9.960E-01   6.000E-03  -2.460E-03
 917  8.46392393   0.685  -0.72909   3.66155   7.04594   1.88835   0.00051   9.960E-01   6.000E-03  -2.454E-03
 918  8.46465730   0.685  -0.72908   3.66155   7.04593   1.88835   0.00050   9.960E-01   6.000E-03  -2.449E-03
 919  8.46538942   0.685  -0.72907   3.66155   7.04593   1.88836   0.00050   9.960E-01   6.000E-03  -2.444E-03
 920  8.46612032   0.685  -0.72907   3.66155   7.04592   1.88836   0.00050   9.960E-01   6.000E-03  -2.439E-03
 921  8.46684998   0.685  -0.72906   3.66155   7.04592   1.88836   0.00050   9.960E-01   6.000E-03  -2.434E-03
 922  8.46757842   0.685  -0.72905   3.66154   7.04591   1.88837   0.00049   9.960E-01   6.000E-03  -2.428E-03
 923  8.46830565   0.685  -0.72905   3.66154   7.04591   1.88837   0.00049   9.960E-01   6.000E-03  -2.423E-03
 924  8.46903165   0.685  -0.72904   3.66154   7.04590   1.88837   0.00049   9.960E-01   6.000E-03  -2.418E-03
 925  8.46975645   0.685  -0.72903   3.66154   7.04589   1.88838   0.00048   9.960E-01   6.000E-03  -2.413E-03
 926  8.47048004   0.685  -0.72903   3.66154   7.04589   1.88838   0.00048   9.960E-01   6.000E-03  -2.408E-03
 927  8.47120242   0.685  -0.72902   3.66154   7.04588   1.88838   0.00048   9.960E-01   6.000E-03  -2.402E-03
 928  8.47192360   0.685  -0.72902   3.66154   7.04588   1.88839   0.00048   9.960E-01   6.000E-03  -2.397E-03
 929  8.47264359   0.685  -0.72901   3.66154   7.04587   1.88839   0.00047   9.960E-01   6.000E-03  -2.392E-03
 930  8.47336239   0.685  -0.72900   3.66154   7.04587   1.88839   0.00047   9.960E-01   6.000E-03  -2.387E-03
 931  8.47408000   0.685  -0.72900   3.66154   7.04586   1.88840   0.00047   9.960E-01   6.000E-03  -2.382E-03
 932  8.47479642   0.685  -0.72899   3.66154   7.04586   1.88840   0.00046   9.960E-01   6.000E-03  -2.376E-03
 933  8.47551167   0.685  -0.72898   3.66154   7.04585   1.88840   0.00046   9.960E-01   6.000E-03  -2.371E-03
 934  8.47622574   0.685  -0.72898   3.66154   7.04585   1.88841   0.00046   9.960E-01   6.000E-03  -2.366E-03
 935  8.47693864   0.685  -0.72897   3.66154   7.04584   1.88841   0.00045   9.960E-01   6.000E-03  -2.361E-03
 936  8.47765036   0.685  -0.72896   3.66154   7.04584   1.88841   0.00045   9.960E-01   6.000E-03  -2.356E-03
 937  8.47836093   0.685  -0.72896   3.66153   7.04583   1.88842   0.00045   9.960E-01   6.000E-03  -2.350E-03
 938  8.47907033   0.685  -0.72895   3.66153   7.04583   1.88842   0.00045   9.960E-01   6.000E-03  -2.345E-03
 939  8.47977858   0.685  -0.72894   3.66153   7.04582   1.88842   0.00044   9.960E-01   6.000E-03  -2.340E-03
 940  8.48048567   0.685  -0.72894   3.66153   7.04582   1.88843   0.00044   9.960E-01   6.000E-03  -2.335E-03
 941  8.48119162   0.685  -0.72893   3.66153   7.04581   1.88843   0.00044   9.960E-01   6.000E-03  -2.330E-03
 942  8.48189642   0.685  -0.72893   3.66153   7.04581   1.88843   0.00043   9.960E-01   6.000E-03  -2.324E-03
 943  8.48260007   0.685  -0.72892   3.66153   7.04580   1.88844   0.00043   9.960E-01   6.000E-03  -2.319E-03
 944  8.48330259   0.685  -0.72891   3.66153   7.04580   1.88844   0.00043   9.960E-01   6.000E-03  -2.314E-03
 945  8.48400398   0.685  -0.72891   3.66153   7.04579   1.88844   0.00043   9.960E-01   6.000E-03  -2.309E-03
 946  8.48470423   0.685  -0.72890   3.66153   7.04579   1.88845   0.00042   9.960E-01   6.000E-03  -2.304E-03
 947  8.48540336   0.685  -0.72889   3.66153   7.04578   1.88845   0.00042   9.960E-01   6.000E-03  -2.298E-03
 948  8.48610136   0.685  -0.72889   3.66153   7.04578   1.88845   0.00042   9.960E-01   6.000E-03  -2.293E-03
 949  8.48679824   0.685  -0.72888   3.66153   7.04577   1.88846   0.00041   9.960E-01   6.000E-03  -2.288E-03
 950  8.48749401   0.685  -0.72887   3.66153   7.04577   1.88846   0.00041   9.960E-01   6.000E-03  -2.283E-03
 951  8.48818866   0.685  -0.72887   3.66153   7.04576   1.88846   0.00041   9.960E-01   6.000E-03  -2.278E-03
 952  8.48888220   0.685  -0.72886   3.66152   7.04576   1.88847   0.00041   9.960E-01   6.000E-03  -2.272E-03
 953  8.48957464   0.685  -0.72885   3.66152   7.04575   1.88847   0.00040   9.960E-01   6.000E-03  -2.267E-03
 954  8.49026598   0.684  -0.72885   3.66152   7.04575   1.88847   0.00040   9.960E-01   6.000E-03  -2.262E-03
 955  8.49095621   0.684  -0.72884   3.66152   7.04574   1.88848   0.00040   9.960E-01   6.000E-03  -2.257E-03
 956  8.49164535   0.684  -0.72884   3.66152   7.04574   1.88848   0.00039   9.960E-01   6.000E-03  -2.252E-03
 957  8.49233340   0.684  -0.72883   3.66152   7.04573   1.88848   0.00039   9.960E-01   6.000E-03  -2.246E-03
 958  8.49302037   0.684  -0.72882   3.66152   7.04572   1.88849   0.00039   9.960E-01   6.000E-03  -2.241E-03
 959  8.49370624   0.684  -0.72882   3.66152   7.04572   1.88849   0.00038   9.960E-01   6.000E-03  -2.236E-03
 960  8.49439104   0.684  -0.72881   3.66152   7.04571   1.88849   0.00038   9.960E-01   6.000E-03  -2.231E-03
 961  8.49507475   0.684  -0.72880   3.66152   7.04571   1.88850   0.00038   9.960E-01   6.000E-03  -2.226E-03
 962  8.49575740   0.684  -0.72880   3.66152   7.04570   1.88850   0.00038   9.960E-01   6.000E-03  -2.220E-03
 963  8.49643897   0.684  -0.72879   3.66152   7.04570   1.88850   0.00037   9.960E-01   6.000E-03  -2.215E-03
 964  8.49711947   0.684  -0.72878   3.66152   7.04569   1.88851   0.00037   9.960E-01   6.000E-03  -2.210E-03
 965  8.49779891   0.684  -0.72878   3.66152   7.04569   1.88851   0.00037   9.960E-01   6.000E-03  -2.205E-03
 966  8.49847729   0.684  -0.72877   3.66152   7.04568   1.88851   0.00036   9.960E-01   6.000E-03  -2.200E-03
 967  8.49915460   0.684  -0.72877   3.66151   7.04568   1.88852   0.00036   9.960E-01   6.000E-03  -2.194E-03
 968  8.49983087   0.684  -0.72876   3.66151   7.04567   1.88852   0.00036   9.960E-01   6.000E-03  -2.189E-03
 969  8.50050608   0.684  -0.72875   3.66151   7.04567   1.88853   0.00036   9.960E-01   6.000E-03  -2.184E-03
 970  8.50118025   0.684  -0.72875   3.66151   7.04566   1.88853   0.00035   9.960E-01   6.000E-03  -2.179E-03
 971  8.50185337   0.684  -0.72874   3.66151   7.04566   1.88853   0.00035   9.960E-01   6.000E-03  -2.174E-03
 972  8.50252544   0.684  -0.72873   3.66151   7.04565   1.88854   0.00035   9.960E-01   6.000E-03  -2.169E-03
 973  8.50319648   0.684  -0.72873   3.66151   7.04565   1.88854   0.00034   9.960E-01   6.000E-03  -2.163E-03
 974  8.50386649   0.684  -0.72872   3.66151   7.04564   1.88854   0.00034   9.960E-01   6.000E-03  -2.158E-03
 975  8.50453546   0.684  -0.72871   3.66151   7.04564   1.88855   0.00034   9.960E-01   6.000E-03  -2.153E-03
 976  8.50520340   0.684  -0.72871   3.66151   7.04563   1.88855   0.00034   9.960E-01   6.000E-03  -2.148E-03
 977  8.50587032   0.684  -0.72870   3.66151   7.04563   1.88855   0.00033   9.960E-01   6.000E-03  -2.143E-03
 978  8.50653622   0.684  -0.72869   3.66151   7.04562   1.88856   0.00033   9.960E-01   6.000E-03  -2.137E-03
 979  8.50720109   0.684  -0.72869   3.66151   7.04562   1.88856   0.00033   9.960E-01   6.000E-03  -2.132E-03
 980  8.50786495   0.684  -0.72868   3.66151   7.04561   1.88856   0.00032   9.960E-01   6.000E-03  -2.127E-03
 981  8.50852780   0.684  -0.72868   3.66150   7.04561   1.88857   0.00032   9.960E-01   6.000E-03  -2.122E-03
 982  8.50918964   0.684  -0.72867   3.66150   7.04560   1.88857   0.00032   9.960E-01   6.000E-03  -2.117E-03
 983  8.50985046   0.684  -0.72866   3.66150   7.04560   1.88857   0.00031   9.960E-01   6.000E-03  -2.111E-03
 984  8.51051029   0.684  -0.72866   3.66150   7.04559   1.88858   0.00031   9.960E-01   6.000E-03  -2.106E-03
 985  8.51116911   0.684  -0.72865   3.66150   7.04559   1.88858   0.00031   9.960E-01   6.000E-03  -2.101E-03
 986  8.51182694   0.684  -0.72864   3.66150   7.04558   1.88858   0.00031   9.960E-01   6.000E-03  -2.096E-03
 987  8.51248377   0.684  -0.72864   3.66150   7.04558   1.88859   0.00030   9.960E-01   6.000E-03  -2.091E-03
 988  8.51313961   0.684  -0.72863   3.66150   7.04557   1.88859   0.00030   9.960E-01   6.000E-03  -2.085E-03
 989  8.51379446   0.684  -0.72862   3.66150   7.04557   1.88859   0.00030   9.960E-01   6.000E-03  -2.080E-03
 990  8.51444833   0.684  -0.72862   3.66150   7.04556   1.88860   0.00029   9.960E-01   6.000E-03  -2.075E-03
 991  8.51510121   0.684  -0.72861   3.66150   7.04555   1.88860   0.00029   9.960E-01   6.000E-03  -2.070E-03
 992  8.51575311   0.684  -0.72860   3.66150   7.04555   1.88860   0.00029   9.960E-01   6.000E-03  -2.065E-03
 993  8.51640403   0.684  -0.72860   3.66150   7.04554   1.88861   0.00029   9.960E-01   6.000E-03  -2.059E-03
 994  8.51705398   0.684  -0.72859   3.66150   7.04554   1.88861   0.00028   9.960E-01   6.000E-03  -2.054E-03
 995  8.51770296   0.684  -0.72859   3.66150   7.04553   1.88861   0.00028   9.960E-01   6.000E-03  -2.049E-03
 996  8.51835097   0.684  -0.72858   3.66149   7.04553   1.88862   0.00028   9.960E-01   6.000E-03  -2.044E-03
 997  8.51899802   0.684  -0.72857   3.66149   7.04552   1.88862   0.00027   9.960E-01   6.000E-03  -2.039E-03
 998  8.51964410   0.684  -0.72857   3.66149   7.04552   1.88862   0.00027   9.960E-01   6.000E-03  -2.033E-03
 999  8.52028922   0.684  -0.72856   3.66149   7.04551   1.88863   0.00027   9.960E-01   6.000E-03  -2.028E-03
1000  8.52093339   0.684  -0.72855   3.66149   7.04551   1.88863   0.00027   9.960E-01   6.000E-03  -2.023E-03
1001  8.52157660   0.684  -0.72855   3.66149   7.04550   1.88863   0.00026   9.960E-01   6.000E-03  -2.018E-03
1002  8.52221886   0.684  -0.72854   3.66149   7.04550   1.88864   0.00026   9.960E-01   6.000E-03  -2.013E-03
1003  8.52286018   0.684  -0.72853   3.66149   7.04549   1.88864   0.00026   9.960E-01   6.000E-03  -2.007E-03
1004  8.52350054   0.684  -0.72853   3.66149   7.04549   1.88864   0.00025   9.960E-01   6.000E-03  -2.002E-03
1005  8.52413997   0.684  -0.72852   3.66149   7.04548   1.88865   0.00025   9.960E-01   6.000E-03  -1.997E-03
1006  8.52477845   0.684  -0.72852   3.66149   7.04548   1.88865   0.00025   9.960E-01   6.000E-03  -1.992E-03
1007  8.52541600   0.684  -0.72851   3.66149   7.04547   1.88865   0.00024   9.960E-01   6.000E-03  -1.987E-03
1008  8.52605261   0.684  -0.72850   3.66149   7.04547   1.88866   0.00024   9.960E-01   6.000E-03  -1.981E-03
1009  8.52668829   0.684  -0.72850   3.66149   7.04546   1.88866   0.00024   9.960E-01   6.000E-03  -1.976E-03
1010  8.52732304   0.684  -0.72849   3.66149   7.04546   1.88866   0.00024   9.960E-01   6.000E-03  -1.971E-03
1011  8.52795687   0.684  -0.72848   3.66148   7.04545   1.88867   0.00023   9.960E-01   6.000E-03  -1.966E-03
1012  8.52858977   0.684  -0.72848   3.66148   7.04545   1.88867   0.00023   9.960E-01   6.000E-03  -1.961E-03
1013  8.52922175   0.684  -0.72847   3.66148   7.04544   1.88867   0.00023   9.960E-01   6.000E-03  -1.955E-03
1014  8.52985281   0.684  -0.72846   3.66148   7.04544   1.88868   0.00022   9.960E-01   6.000E-03  -1.950E-03
1015  8.53048296   0.684  -0.72846   3.66148   7.04543   1.88868   0.00022   9.960E-01   6.000E-03  -1.945E-03
1016  8.53111219   0.684  -0.72845   3.66148   7.04543   1.88868   0.00022   9.960E-01   6.000E-03  -1.940E-03
1017  8.53174051   0.684  -0.72844   3.66148   7.04542   1.88869   0.00022   9.960E-01   6.000E-03  -1.935E-03
1018  8.53236793   0.684  -0.72844   3.66148   7.04542   1.88869   0.00021   9.960E-01   6.000E-03  -1.929E-03
1019  8.53299444   0.684  -0.72843   3.66148   7.04541   1.88870   0.00021   9.960E-01   6.000E-03  -1.924E-03
1020  8.53362004   0.683  -0.72843   3.66148   7.04541   1.88870   0.00021   9.960E-01   6.000E-03  -1.919E-03
1021  8.53424475   0.683  -0.72842   3.66148   7.04540   1.88870   0.00020   9.960E-01   6.000E-03  -1.914E-03
1022  8.53486856   0.683  -0.72841   3.66148   7.04540   1.88871   0.00020   9.960E-01   6.000E-03  -1.909E-03
1023  8.53549148   0.683  -0.72841   3.66148   7.04539   1.88871   0.00020   9.960E-01   6.000E-03  -1.903E-03
1024  8.53611350   0.683  -0.72840   3.66148   7.04538   1.88871   0.00020   9.960E-01   6.000E-03  -1.898E-03
1025  8.53673464   0.683  -0.72839   3.66147   7.04538   1.88872   0.00019   9.960E-01   6.000E-03  -1.893E-03
1026  8.53735488   0.683  -0.72839   3.66147   7.04537   1.88872   0.00019   9.960E-01   6.000E-03  -1.888E-03
1027  8.53797424   0.683  -0.72838   3.66147   7.04537   1.88872   0.00019   9.960E-01   6.000E-03  -1.883E-03
1028  8.53859272   0.683  -0.72837   3.66147   7.04536   1.88873   0.00018   9.960E-01   6.000E-03  -1.877E-03
1029  8.53921032   0.683  -0.72837   3.66147   7.04536   1.88873   0.00018   9.960E-01   6.000E-03  -1.872E-03
1030  8.53982705   0.683  -0.72836   3.66147   7.04535   1.88873   0.00018   9.960E-01   6.000E-03  -1.867E-03
1031  8.54044290   0.683  -0.72835   3.66147   7.04535   1.88874   0.00017   9.960E-01   6.000E-03  -1.862E-03
1032  8.54105787   0.683  -0.72835   3.66147   7.04534   1.88874   0.00017   9.960E-01   6.000E-03  -1.857E-03
1033  8.54167198   0.683  -0.72834   3.66147   7.04534   1.88874   0.00017   9.960E-01   6.000E-03  -1.851E-03
1034  8.54228522   0.683  -0.72834   3.66147   7.04533   1.88875   0.00017   9.960E-01   6.000E-03  -1.846E-03
1035  8.54289760   0.683  -0.72833   3.66147   7.04533   1.88875   0.00016   9.960E-01   6.000E-03  -1.841E-03
1036  8.54350911   0.683  -0.72832   3.66147   7.04532   1.88875   0.00016   9.960E-01   6.000E-03  -1.836E-03
1037  8.54411976   0.683  -0.72832   3.66147   7.04532   1.88876   0.00016   9.960E-01   6.000E-03  -1.831E-03
1038  8.54472956   0.683  -0.72831   3.66147   7.04531   1.88876   0.00015   9.960E-01   6.000E-03  -1.825E-03
1039  8.54533850   0.683  -0.72830   3.66147   7.04531   1.88876   0.00015   9.960E-01   6.000E-03  -1.820E-03
1040  8.54594659   0.683  -0.72830   3.66146   7.04530   1.88877   0.00015   9.960E-01   6.000E-03  -1.815E-03
1041  8.54655383   0.683  -0.72829   3.66146   7.04530   1.88877   0.00015   9.960E-01   6.000E-03  -1.810E-03
1042  8.54716022   0.683  -0.72828   3.66146   7.04529   1.88877   0.00014   9.960E-01   6.000E-03  -1.805E-03
1043  8.54776576   0.683  -0.72828   3.66146   7.04529   1.88878   0.00014   9.960E-01   6.000E-03  -1.799E-03
1044  8.54837046   0.683  -0.72827   3.66146   7.04528   1.88878   0.00014   9.960E-01   6.000E-03  -1.794E-03
1045  8.54897432   0.683  -0.72826   3.66146   7.04528   1.88878   0.00013   9.960E-01   6.000E-03  -1.789E-03
1046  8.54957735   0.683  -0.72826   3.66146   7.04527   1.88879   0.00013   9.960E-01   6.000E-03  -1.784E-03
1047  8.55017953   0.683  -0.72825   3.66146   7.04527   1.88879   0.00013   9.960E-01   6.000E-03  -1.779E-03
1048  8.55078089   0.683  -0.72825   3.66146   7.04526   1.88879   0.00013   9.960E-01   6.000E-03  -1.773E-03
1049  8.55138141   0.683  -0.72824   3.66146   7.04526   1.88880   0.00012   9.960E-01   6.000E-03  -1.768E-03
1050  8.55198110   0.683  -0.72823   3.66146   7.04525   1.88880   0.00012   9.960E-01   6.000E-03  -1.763E-03
1051  8.55257996   0.683  -0.72823   3.66146   7.04525   1.88880   0.00012   9.960E-01   6.000E-03  -1.758E-03
1052  8.55317800   0.683  -0.72822   3.66146   7.04524   1.88881   0.00011   9.960E-01   6.000E-03  -1.753E-03
1053  8.55377522   0.683  -0.72821   3.66146   7.04524   1.88881   0.00011   9.960E-01   6.000E-03  -1.748E-03
1054  8.55437162   0.683  -0.72821   3.66146   7.04523   1.88881   0.00011   9.960E-01   6.000E-03  -1.742E-03
1055  8.55496720   0.683  -0.72820   3.66145   7.04523   1.88882   0.00010   9.960E-01   6.000E-03  -1.737E-03
1056  8.55556196   0.683  -0.72819   3.66145   7.04522   1.88882   0.00010   9.960E-01   6.000E-03  -1.732E-03
1057  8.55615591   0.683  -0.72819   3.66145   7.04522   1.88882   0.00010   9.960E-01   6.000E-03  -1.727E-03
1058  8.55674905   0.683  -0.72818   3.66145   7.04521   1.88883   0.00010   9.960E-01   6.000E-03  -1.722E-03
1059  8.55734138   0.683  -0.72818   3.66145   7.04520   1.88883   0.00009   9.960E-01   6.000E-03  -1.716E-03
1060  8.55793290   0.683  -0.72817   3.66145   7.04520   1.88883   0.00009   9.960E-01   6.000E-03  -1.711E-03
1061  8.55852362   0.683  -0.72816   3.66145   7.04519   1.88884   0.00009   9.960E-01   6.000E-03  -1.706E-03
1062  8.55911354   0.683  -0.72816   3.66145   7.04519   1.88884   0.00008   9.960E-01   6.000E-03  -1.701E-03
1063  8.55970266   0.683  -0.72815   3.66145   7.04518   1.88884   0.00008   9.960E-01   6.000E-03  -1.696E-03
1064  8.56029098   0.683  -0.72814   3.66145   7.04518   1.88885   0.00008   9.960E-01   6.000E-03  -1.690E-03
1065  8.56087850   0.683  -0.72814   3.66145   7.04517   1.88885   0.00008   9.960E-01   6.000E-03  -1.685E-03
1066  8.56146523   0.683  -0.72813   3.66145   7.04517   1.88885   0.00007   9.960E-01   6.000E-03  -1.680E-03
1067  8.56205116   0.683  -0.72812   3.66145   7.04516   1.88886   0.00007   9.960E-01   6.000E-03  -1.675E-03
1068  8.56263631   0.683  -0.72812   3.66145   7.04516   1.88886   0.00007   9.960E-01   6.000E-03  -1.670E-03
1069  8.56322067   0.683  -0.72811   3.66144   7.04515   1.88887   0.00006   9.960E-01   6.000E-03  -1.664E-03
1070  8.56380425   0.683  -0.72810   3.66144   7.04515   1.88887   0.00006   9.960E-01   6.000E-03  -1.659E-03
1071  8.56438704   0.683  -0.72810   3.66144   7.04514   1.88887   0.00006   9.960E-01   6.000E-03  -1.654E-03
1072  8.56496905   0.683  -0.72809   3.66144   7.04514   1.88888   0.00006   9.960E-01   6.000E-03  -1.649E-03
1073  8.56555028   0.683  -0.72809   3.66144   7.04513   1.88888   0.00005   9.960E-01   6.000E-03  -1.644E-03
1074  8.56613074   0.683  -0.72808   3.66144   7.04513   1.88888   0.00005   9.960E-01   6.000E-03  -1.638E-03
1075  8.56671042   0.683  -0.72807   3.66144   7.04512   1.88889   0.00005   9.960E-01   6.000E-03  -1.633E-03
1076  8.56728932   0.683  -0.72807   3.66144   7.04512   1.88889   0.00004   9.960E-01   6.000E-03  -1.628E-03
1077  8.56786746   0.683  -0.72806   3.66144   7.04511   1.88889   0.00004   9.960E-01   6.000E-03  -1.623E-03
1078  8.56844483   0.683  -0.72805   3.66144   7.04511   1.88890   0.00004   9.960E-01   6.000E-03  -1.618E-03
1079  8.56902143   0.683  -0.72805   3.66144   7.04510   1.88890   0.00003   9.960E-01   6.000E-03  -1.612E-03
1080  8.56959727   0.683  -0.72804   3.66144   7.04510   1.88890   0.00003   9.960E-01   6.000E-03  -1.607E-03
1081  8.57017234   0.683  -0.72803   3.66144   7.04509   1.88891   0.00003   9.960E-01   6.000E-03  -1.602E-03
1082  8.57074666   0.683  -0.72803   3.66144   7.04509   1.88891   0.00003   9.960E-01   6.000E-03  -1.597E-03
1083  8.57132021   0.683  -0.72802   3.66144   7.04508   1.88891   0.00002   9.960E-01   6.000E-03  -1.592E-03
1084  8.57189301   0.683  -0.72801   3.66143   7.04508   1.88892   0.00002   9.960E-01   6.000E-03  -1.586E-03
1085  8.57246506   0.683  -0.72801   3.66143   7.04507   1.88892   0.00002   9.960E-01   6.000E-03  -1.581E-03
1086  8.57303635   0.682  -0.72800   3.66143   7.04507   1.88892   0.00001   9.960E-01   6.000E-03  -1.576E-03
1087  8.57360689   0.682  -0.72800   3.66143   7.04506   1.88893   0.00001   9.960E-01   6.000E-03  -1.571E-03
1088  8.57417669   0.682  -0.72799   3.66143   7.04506   1.88893   0.00001   9.960E-01   6.000E-03  -1.566E-03
1089  8.57474573   0.682  -0.72798   3.66143   7.04505   1.88893   0.00001   9.960E-01   6.000E-03  -1.560E-03
1090  8.57531404   0.682  -0.72798   3.66143   7.04505   1.88894   0.00000   9.960E-01   6.000E-03  -1.555E-03
1091  8.57588160   0.682  -0.72797   3.66143   7.04504   1.88894   0.00000   9.960E-01   6.000E-03  -1.550E-03
1092  8.77664226   0.676  -0.72531   3.66138   7.04440   1.89124   0.00000   9.960E-01   4.572E-03  -7.411E-04
1093  8.91340936   0.670  -0.72280   3.66146   7.04440   1.89403   0.00000   9.960E-01   4.000E-03  -3.838E-04
1094  9.01726479   0.663  -0.72026   3.66162   7.04474   1.89727   0.00000   9.960E-01   4.000E-03  -1.594E-04
1095  9.10101535   0.657  -0.71768   3.66185   7.04530   1.90087   0.00000   9.970E-01   3.000E-03  -2.601E-05
1096  9.17119676   0.651  -0.71509   3.66211   7.04599   1.90465   0.00000   9.970E-01   3.000E-03   5.921E-05
1097  9.23159896   0.644  -0.71249   3.66239   7.04675   1.90859   0.00000   9.970E-01   3.000E-03   1.211E-04
1098  9.28461692   0.638  -0.70990   3.66267   7.04757   1.91257   0.00000   9.970E-01   3.000E-03   1.577E-04
1099  9.33186101   0.631  -0.70733   3.66298   7.04842   1.91662   0.00000   9.970E-01   3.000E-03   1.869E-04
1100  9.37446623   0.625  -0.70476   3.66328   7.04930   1.92067   0.00000   9.970E-01   3.000E-03   2.079E-04
1101  9.41326265   0.619  -0.70220   3.66358   7.05021   1.92475   0.00000   9.970E-01   2.000E-03   2.272E-04
1102  9.44887575   0.612  -0.69963   3.66390   7.05113   1.92885   0.00000   9.970E-01   2.000E-03   2.448E-04
1103  9.48178852   0.606  -0.69707   3.66421   7.05206   1.93298   0.00000   9.976E-01   2.000E-03   2.609E-04
1104  9.51238178   0.600  -0.69451   3.66453   7.05301   1.93725   0.00000   9.980E-01   2.000E-03   2.754E-04
1105  9.54096102   0.593  -0.69194   3.66485   7.05403   1.94210   0.00000   9.980E-01   2.000E-03   2.836E-04
1106  9.56777514   0.587  -0.68938   3.66517   7.05510   1.94702   0.00000   9.980E-01   2.000E-03   2.891E-04
1107  9.59302954   0.581  -0.68680   3.66549   7.05620   1.95195   0.00000   9.980E-01   2.000E-03   2.955E-04
1108  9.61689574   0.574  -0.68421   3.66581   7.05733   1.95688   0.00000   9.980E-01   2.000E-03   3.029E-04
1109  9.63951844   0.568  -0.68160   3.66613   7.05848   1.96182   0.00000   9.980E-01   2.000E-03   3.114E-04
1110  9.66102082   0.562  -0.67897   3.66645   7.05965   1.96678   0.00000   9.980E-01   2.000E-03   3.186E-04
1111  9.68150863   0.555  -0.67633   3.66677   7.06084   1.97174   0.00000   9.980E-01   2.000E-03   3.274E-04
1112  9.70107332   0.549  -0.67366   3.66710   7.06204   1.97673   0.00000   9.980E-01   2.000E-03   3.367E-04
1113  9.71979449   0.543  -0.67097   3.66742   7.06325   1.98174   0.00000   9.980E-01   2.000E-03   3.466E-04
1114  9.73774189   0.536  -0.66824   3.66776   7.06447   1.98676   0.00000   9.980E-01   2.000E-03   3.593E-04
1115  9.75497694   0.530  -0.66549   3.66809   7.06571   1.99181   0.00000   9.980E-01   2.000E-03   3.690E-04
1116  9.77155405   0.523  -0.66273   3.66843   7.06695   1.99688   0.00000   9.980E-01   2.000E-03   3.793E-04
1117  9.78752160   0.517  -0.65993   3.66876   7.06821   2.00197   0.00000   9.980E-01   2.000E-03   3.904E-04
1118  9.80292284   0.511  -0.65712   3.66910   7.06947   2.00709   0.00000   9.980E-01   2.000E-03   4.016E-04
1119  9.81779656   0.504  -0.65428   3.66945   7.07074   2.01224   0.00000   9.980E-01   2.000E-03   4.138E-04
1120  9.83217771   0.498  -0.65141   3.66979   7.07202   2.01742   0.00000   9.980E-01   2.000E-03   4.263E-04
1121  9.84609787   0.491  -0.64852   3.67014   7.07330   2.02264   0.00000   9.980E-01   2.000E-03   4.385E-04
1122  9.85958567   0.485  -0.64561   3.67049   7.07459   2.02789   0.00000   9.980E-01   2.000E-03   4.514E-04
1123  9.87266718   0.478  -0.64267   3.67085   7.07589   2.03316   0.00000   9.980E-01   2.000E-03   4.643E-04
1124  9.88536615   0.472  -0.63971   3.67121   7.07719   2.03847   0.00000   9.980E-01   2.000E-03   4.789E-04
1125  9.89770432   0.465  -0.63672   3.67156   7.07851   2.04382   0.00000   9.980E-01   2.000E-03   4.919E-04
1126  9.90970163   0.459  -0.63371   3.67193   7.07983   2.04919   0.00000   9.980E-01   2.000E-03   5.066E-04
1127  9.92137640   0.452  -0.63067   3.67229   7.08115   2.05460   0.00000   9.980E-01   2.000E-03   5.196E-04
1128  9.93274553   0.446  -0.62761   3.67266   7.08249   2.06004   0.00000   9.980E-01   2.000E-03   5.340E-04
1129  9.94382461   0.439  -0.62453   3.67303   7.08382   2.06553   0.00000   9.980E-01   2.000E-03   5.483E-04
1130  9.95462807   0.433  -0.62141   3.67341   7.08517   2.07106   0.00000   9.980E-01   2.000E-03   5.611E-04
1131  9.96516930   0.426  -0.61828   3.67378   7.08653   2.07661   0.00000   9.980E-01   2.000E-03   5.759E-04
1132  9.97546072   0.420  -0.61511   3.67417   7.08789   2.08221   0.00000   9.980E-01   2.000E-03   5.898E-04
1133  9.98551391   0.413  -0.61193   3.67455   7.08926   2.08786   0.00000   9.980E-01   2.000E-03   6.035E-04
1134  9.99533963   0.406  -0.60871   3.67494   7.09064   2.09354   0.00000   9.980E-01   2.000E-03   6.182E-04
1135 10.00494796   0.400  -0.60547   3.67532   7.09203   2.09935   0.00000   9.980E-01   2.000E-03   6.321E-04
1136 10.01434831   0.393  -0.60221   3.67571   7.09345   2.10623   0.00000   9.980E-01   2.000E-03   6.443E-04
1137 10.02354949   0.387  -0.59892   3.67611   7.09492   2.11322   0.00000   9.980E-01   2.000E-03   6.552E-04
1138 10.03255977   0.380  -0.59561   3.67650   7.09644   2.12023   0.00000   9.980E-01   2.000E-03   6.663E-04
1139 10.04138690   0.373  -0.59227   3.67689   7.09800   2.12728   0.00000   9.980E-01   2.000E-03   6.783E-04
1140 10.05003819   0.367  -0.58891   3.67729   7.09958   2.13438   0.00000   9.980E-01   2.000E-03   6.937E-04
1141 10.05852051   0.360  -0.58552   3.67768   7.10119   2.14150   0.00000   9.980E-01   2.000E-03   7.035E-04
1142 10.06684032   0.353  -0.58211   3.67808   7.10283   2.14864   0.00000   9.980E-01   2.000E-03   7.154E-04
1143 10.07500374   0.346  -0.57865   3.67847   7.10450   2.15582   0.00000   9.980E-01   2.000E-03   7.263E-04
1144 10.08301654   0.340  -0.57517   3.67887   7.10620   2.16302   0.00000   9.980E-01   2.000E-03   7.409E-04
1145 10.09088417   0.333  -0.57167   3.67927   7.10791   2.17024   0.00000   9.980E-01   2.000E-03   7.557E-04
1146 10.09861181   0.326  -0.56813   3.67967   7.10965   2.17749   0.00000   9.980E-01   2.000E-03   7.682E-04
1147 10.10620435   0.320  -0.56455   3.68006   7.11140   2.18475   0.00000   9.980E-01   2.000E-03   7.810E-04
1148 10.11366643   0.313  -0.56095   3.68046   7.11318   2.19205   0.00000   9.970E-01   2.000E-03   7.933E-04
1149 10.12100246   0.307  -0.55731   3.68087   7.11498   2.19938   0.00000   9.970E-01   2.000E-03   8.095E-04
1150 10.12821662   0.300  -0.55364   3.68127   7.11679   2.20672   0.00000   9.970E-01   2.000E-03   8.223E-04
1151 10.13531291   0.294  -0.54993   3.68168   7.11863   2.21412   0.00000   9.970E-01   2.000E-03   8.358E-04
1152 10.14229510   0.288  -0.54620   3.68208   7.12048   2.22133   0.00000   9.970E-01   2.000E-03   8.485E-04
1153 10.14916681   0.282  -0.54242   3.68248   7.12234   2.22859   0.00000   9.970E-01   2.000E-03   8.651E-04
1154 10.15593149   0.276  -0.53860   3.68289   7.12423   2.23598   0.00000   9.970E-01   2.000E-03   8.797E-04
1155 10.16259241   0.270  -0.53475   3.68330   7.12613   2.24346   0.00000   9.970E-01   2.000E-03   8.939E-04
1156 10.16915272   0.263  -0.53086   3.68371   7.12805   2.25102   0.00000   9.970E-01   2.000E-03   9.106E-04
1157 10.17561539   0.257  -0.52692   3.68413   7.12997   2.25865   0.00000   9.970E-01   2.000E-03   9.247E-04
1158 10.18198331   0.251  -0.52295   3.68454   7.13192   2.26633   0.00000   9.970E-01   2.000E-03   9.410E-04
1159 10.18825920   0.244  -0.51893   3.68496   7.13389   2.27404   0.00000   9.970E-01   2.000E-03   9.567E-04
1160 10.19444569   0.238  -0.51487   3.68537   7.13585   2.28177   0.00000   9.970E-01   2.000E-03   9.711E-04
1161 10.20054530   0.232  -0.51077   3.68580   7.13785   2.28955   0.00000   9.970E-01   2.000E-03   9.882E-04
1162 10.20656042   0.226  -0.50663   3.68622   7.13985   2.29738   0.00000   9.960E-01   3.000E-03   1.003E-03
1163 10.21249336   0.220  -0.50243   3.68665   7.14186   2.30528   0.00000   9.960E-01   3.000E-03   1.024E-03
1164 10.21834635   0.214  -0.49820   3.68708   7.14389   2.31323   0.00000   9.960E-01   3.000E-03   1.035E-03
1165 10.22412150   0.208  -0.49391   3.68751   7.14594   2.32127   0.00000   9.960E-01   3.000E-03   1.056E-03
1166 10.22982086   0.202  -0.48957   3.68794   7.14799   2.32936   0.00000   9.960E-01   3.000E-03   1.070E-03
1167 10.23544640   0.196  -0.48518   3.68837   7.15006   2.33854   0.00000   9.960E-01   3.000E-03   1.090E-03
1168 10.24100000   0.191  -0.48076   3.68881   7.15219   2.34840   0.00000   9.958E-01   3.000E-03   1.110E-03
1169 10.24648347   0.185  -0.47628   3.68925   7.15441   2.35839   0.00000   9.950E-01   4.000E-03   1.124E-03
1170 10.25189857   0.179  -0.47176   3.68967   7.15669   2.36845   0.00000   9.950E-01   4.000E-03   1.137E-03
1171 10.25724699   0.173  -0.46719   3.69011   7.15905   2.37864   0.00000   9.950E-01   4.000E-03   1.159E-03
1172 10.26253034   0.168  -0.46254   3.69055   7.16142   2.38897   0.00000   9.948E-01   4.000E-03   1.180E-03
1173 10.26775018   0.162  -0.45786   3.69098   7.16384   2.39942   0.00000   9.940E-01   5.000E-03   1.206E-03
1174 10.27290804   0.156  -0.45311   3.69142   7.16630   2.41001   0.00000   9.940E-01   5.000E-03   1.219E-03
1175 10.27800535   0.151  -0.44831   3.69185   7.16881   2.42070   0.00000   9.937E-01   5.000E-03   1.233E-03
1176 10.28304353   0.145  -0.44341   3.69231   7.17136   2.43157   0.00000   9.930E-01   6.000E-03   1.273E-03
1177 10.28802393   0.140  -0.43848   3.69274   7.17393   2.44259   0.00000   9.928E-01   6.000E-03   1.280E-03
1178 10.29294787   0.134  -0.43346   3.69318   7.17654   2.45379   0.00000   9.920E-01   7.000E-03   1.314E-03
1179 10.29781660   0.129  -0.42837   3.69361   7.17916   2.46515   0.00000   9.910E-01   7.228E-03   1.332E-03
1180 10.30263136   0.124  -0.42322   3.69405   7.18181   2.47667   0.00000   9.910E-01   8.000E-03   1.360E-03
1181 10.30739332   0.118  -0.41798   3.69448   7.18449   2.48840   0.00000   9.900E-01   9.000E-03   1.378E-03
1182 10.31210364   0.113  -0.41265   3.69492   7.18718   2.50033   0.00000   9.890E-01   1.000E-02   1.410E-03
1183 10.31676341   0.108  -0.40723   3.69537   7.18992   2.51244   0.00000   9.880E-01   1.074E-02   1.445E-03
1184 10.32137372   0.103  -0.40173   3.69580   7.19268   2.52479   0.00000   9.870E-01   1.200E-02   1.465E-03
1185 10.32593560   0.098  -0.39613   3.69624   7.19547   2.53736   0.00000   9.857E-01   1.300E-02   1.500E-03
1186 10.33045006   0.093  -0.39043   3.69668   7.19831   2.55016   0.00000   9.840E-01   1.409E-02   1.522E-03
1187 10.33491808   0.088  -0.38463   3.69712   7.20120   2.56317   0.00000   9.820E-01   1.600E-02   1.550E-03
1188 10.33934059   0.083  -0.37873   3.69756   7.20414   2.57641   0.00000   9.801E-01   1.790E-02   1.588E-03
1189 10.34371853   0.078  -0.37273   3.69799   7.20717   2.58989   0.00000   9.781E-01   1.988E-02   1.599E-03
1190 10.34805277   0.073  -0.36664   3.69843   7.21029   2.60355   0.00000   9.761E-01   2.292E-02   1.630E-03
1191 10.35234419   0.069  -0.36043   3.69885   7.21353   2.61740   0.00000   9.730E-01   2.500E-02   1.660E-03
1192 10.35335565   0.067  -0.35894   3.69895   7.21432   2.62072   0.00000   9.723E-01   2.574E-02   1.667E-03
1193 10.35436477   0.066  -0.35746   3.69905   7.21511   2.62404   0.00000   9.715E-01   2.648E-02   1.670E-03
1194 10.35537154   0.065  -0.35597   3.69915   7.21591   2.62737   0.00000   9.708E-01   2.722E-02   1.672E-03
1195 10.35637599   0.064  -0.35447   3.69926   7.21673   2.63071   0.00000   9.700E-01   2.797E-02   1.680E-03
1196 10.35737812   0.063  -0.35297   3.69935   7.21755   2.63407   0.00000   9.693E-01   2.872E-02   1.680E-03
1197 10.35837794   0.062  -0.35146   3.69945   7.21838   2.63742   0.00000   9.685E-01   2.994E-02   1.685E-03
1198 10.35937547   0.061  -0.34994   3.69955   7.21922   2.64078   0.00000   9.676E-01   3.122E-02   1.692E-03
1199 10.36037071   0.059  -0.34842   3.69965   7.22007   2.64415   0.00000   9.660E-01   3.198E-02   1.700E-03
1200 10.36136367   0.058  -0.34689   3.69975   7.22093   2.64751   0.00000   9.653E-01   3.274E-02   1.707E-03
1201 10.36235437   0.057  -0.34537   3.69984   7.22180   2.65088   0.00000   9.645E-01   3.350E-02   1.710E-03
1202 10.36334281   0.056  -0.34383   3.69993   7.22268   2.65426   0.00000   9.635E-01   3.453E-02   1.710E-03
1203 10.36432901   0.055  -0.34229   3.70003   7.22358   2.65764   0.00000   9.620E-01   3.603E-02   1.710E-03
1204 10.36531298   0.054  -0.34075   3.70013   7.22448   2.66102   0.00000   9.612E-01   3.680E-02   1.718E-03
1205 10.36629472   0.053  -0.33920   3.70022   7.22540   2.66441   0.00000   9.599E-01   3.814E-02   1.726E-03
1206 10.36727425   0.051  -0.33765   3.70031   7.22633   2.66780   0.00000   9.587E-01   3.934E-02   1.730E-03
1207 10.36825157   0.050  -0.33610   3.70040   7.22728   2.67120   0.00000   9.578E-01   4.024E-02   1.730E-03
1208 10.36922670   0.049  -0.33454   3.70050   7.22823   2.67459   0.00000   9.562E-01   4.179E-02   1.730E-03
1209 10.37019964   0.048  -0.33298   3.70059   7.22921   2.67798   0.00000   9.553E-01   4.334E-02   1.730E-03
1210 10.37117041   0.047  -0.33142   3.70068   7.23019   2.68138   0.00000   9.541E-01   4.490E-02   1.730E-03
1211 10.37213901   0.046  -0.32985   3.70077   7.23119   2.68477   0.00000   9.525E-01   4.623E-02   1.732E-03
1212 10.37310546   0.044  -0.32828   3.70085   7.23220   2.68817   0.00000   9.510E-01   4.703E-02   1.740E-03
1213 10.37406976   0.043  -0.32671   3.70094   7.23324   2.69154   0.00000   9.494E-01   4.860E-02   1.740E-03
1214 10.37503193   0.042  -0.32513   3.70102   7.23428   2.69492   0.00000   9.478E-01   5.018E-02   1.740E-03
1215 10.37599197   0.041  -0.32355   3.70111   7.23534   2.69829   0.00000   9.462E-01   5.213E-02   1.740E-03
1216 10.37694989   0.040  -0.32197   3.70120   7.23641   2.70167   0.00000   9.445E-01   5.433E-02   1.738E-03
1217 10.37790570   0.038  -0.32039   3.70129   7.23749   2.70504   0.00000   9.421E-01   5.591E-02   1.730E-03
1218 10.37885941   0.037  -0.31880   3.70136   7.23859   2.70842   0.00000   9.405E-01   5.749E-02   1.737E-03
1219 10.37981104   0.036  -0.31721   3.70144   7.23969   2.71180   0.00000   9.389E-01   5.962E-02   1.740E-03
1220 10.38076058   0.035  -0.31562   3.70152   7.24081   2.71518   0.00000   9.370E-01   6.167E-02   1.740E-03
1221 10.38170805   0.033  -0.31403   3.70160   7.24194   2.71856   0.00000   9.347E-01   6.338E-02   1.739E-03
1222 10.38265346   0.032  -0.31244   3.70168   7.24307   2.72195   0.00000   9.332E-01   6.577E-02   1.731E-03
1223 10.38359682   0.031  -0.31085   3.70176   7.24421   2.72533   0.00000   9.308E-01   6.744E-02   1.723E-03
1224 10.38453813   0.030  -0.30921   3.70186   7.24534   2.72871   0.00000   9.284E-01   6.955E-02   1.730E-03
1225 10.38547741   0.028  -0.30758   3.70195   7.24649   2.73211   0.00000   9.260E-01   7.199E-02   1.766E-03
1226 10.38641465   0.027  -0.30595   3.70204   7.24766   2.73553   0.00000   9.235E-01   7.452E-02   1.841E-03
1227 10.38734988   0.026  -0.30430   3.70212   7.24884   2.73900   0.00000   9.208E-01   7.718E-02   1.947E-03
1228 10.38828310   0.025  -0.30266   3.70220   7.25000   2.74249   0.00000   9.180E-01   8.000E-02   2.050E-03
1229 10.38921432   0.023  -0.30099   3.70228   7.25116   2.74604   0.00000   9.160E-01   8.200E-02   2.170E-03
1230 10.39014355   0.022  -0.29933   3.70235   7.25228   2.74966   0.00000   9.128E-01   8.511E-02   2.296E-03
1231 10.39107079   0.021  -0.29765   3.70243   7.25338   2.75336   0.00000   9.097E-01   8.752E-02   2.419E-03
1232 10.39199606   0.019  -0.29597   3.70251   7.25443   2.75714   0.00000   9.069E-01   9.072E-02   2.549E-03
1233 10.39291936   0.018  -0.29428   3.70259   7.25543   2.76102   0.00000   9.038E-01   9.321E-02   2.687E-03
1234 10.39384070   0.017  -0.29257   3.70266   7.25637   2.76501   0.00000   9.012E-01   9.583E-02   2.831E-03
1235 10.39476009   0.016  -0.29086   3.70273   7.25726   2.76911   0.00000   8.984E-01   9.860E-02   2.967E-03
1236 10.39567754   0.015  -0.28912   3.70280   7.25808   2.77333   0.00000   8.955E-01   1.015E-01   3.098E-03
1237 10.39659306   0.014  -0.28738   3.70287   7.25885   2.77767   0.00000   8.925E-01   1.045E-01   3.237E-03
1238 10.39750665   0.013  -0.28562   3.70293   7.25955   2.78212   0.00000   8.893E-01   1.069E-01   3.387E-03
1239 10.39841832   0.012  -0.28384   3.70301   7.26020   2.78671   0.00000   8.870E-01   1.095E-01   3.521E-03
1240 10.39932808   0.011  -0.28205   3.70307   7.26078   2.79140   0.00000   8.838E-01   1.124E-01   3.648E-03
1241 10.40023594   0.010  -0.28023   3.70314   7.26132   2.79621   0.00000   8.810E-01   1.150E-01   3.790E-03
1242 10.40058859   0.009  -0.27951   3.70317   7.26152   2.79811   0.00000   8.803E-01   1.157E-01   3.840E-03
1243 10.40094096   0.009  -0.27880   3.70320   7.26171   2.80003   0.00000   8.791E-01   1.169E-01   3.890E-03
1244 10.40129304   0.009  -0.27808   3.70323   7.26189   2.80198   0.00000   8.778E-01   1.182E-01   3.941E-03
1245 10.40164484   0.008  -0.27736   3.70326   7.26206   2.80393   0.00000   8.771E-01   1.189E-01   3.992E-03
1246 10.40199635   0.008  -0.27664   3.70328   7.26223   2.80591   0.00000   8.757E-01   1.203E-01   4.038E-03
1247 10.40234757   0.008  -0.27591   3.70331   7.26239   2.80789   0.00000   8.746E-01   1.214E-01   4.079E-03
1248 10.40269852   0.007  -0.27518   3.70333   7.26255   2.80989   0.00000   8.737E-01   1.221E-01   4.119E-03
1249 10.40304918   0.007  -0.27445   3.70336   7.26269   2.81191   0.00000   8.722E-01   1.229E-01   4.165E-03
1250 10.40339955   0.007  -0.27372   3.70338   7.26284   2.81395   0.00000   8.713E-01   1.244E-01   4.212E-03
1251 10.40374965   0.007  -0.27298   3.70341   7.26298   2.81601   0.00000   8.705E-01   1.255E-01   4.254E-03
1252 10.40409946   0.006  -0.27224   3.70344   7.26311   2.81807   0.00000   8.694E-01   1.263E-01   4.294E-03
1253 10.40444899   0.006  -0.27150   3.70346   7.26324   2.82015   0.00000   8.679E-01   1.271E-01   4.335E-03
1254 10.40479824   0.006  -0.27077   3.70349   7.26336   2.82224   0.00000   8.671E-01   1.279E-01   4.384E-03
1255 10.40514721   0.006  -0.27002   3.70351   7.26349   2.82434   0.00000   8.663E-01   1.294E-01   4.426E-03
1256 10.40549590   0.005  -0.26927   3.70354   7.26360   2.82646   0.00000   8.655E-01   1.305E-01   4.473E-03
1257 10.40584431   0.005  -0.26852   3.70356   7.26371   2.82858   0.00000   8.642E-01   1.314E-01   4.523E-03
1258 10.40619244   0.005  -0.26777   3.70359   7.26382   2.83072   0.00000   8.628E-01   1.322E-01   4.571E-03
1259 10.40654029   0.005  -0.26701   3.70361   7.26392   2.83287   0.00000   8.619E-01   1.332E-01   4.614E-03
1260 10.40688786   0.005  -0.26625   3.70364   7.26402   2.83504   0.00000   8.611E-01   1.349E-01   4.657E-03
1261 10.40723516   0.004  -0.26549   3.70366   7.26412   2.83721   0.00000   8.602E-01   1.358E-01   4.693E-03
1262 10.40758217   0.004  -0.26473   3.70368   7.26422   2.83940   0.00000   8.586E-01   1.367E-01   4.735E-03
1263 10.40792891   0.004  -0.26396   3.70371   7.26431   2.84161   0.00000   8.574E-01   1.376E-01   4.773E-03
1264 10.40827538   0.004  -0.26320   3.70373   7.26439   2.84382   0.00000   8.565E-01   1.385E-01   4.809E-03
1265 10.40862157   0.004  -0.26243   3.70376   7.26448   2.84605   0.00000   8.556E-01   1.394E-01   4.845E-03
1266 10.40896748   0.003  -0.26165   3.70378   7.26456   2.84830   0.00000   8.547E-01   1.403E-01   4.881E-03
1267 10.40931311   0.003  -0.26088   3.70380   7.26464   2.85054   0.00000   8.536E-01   1.414E-01   4.920E-03
1268 10.40965847   0.003  -0.26010   3.70382   7.26472   2.85280   0.00000   8.519E-01   1.431E-01   4.966E-03
1269 10.41000356   0.003  -0.25933   3.70385   7.26480   2.85508   0.00000   8.509E-01   1.441E-01   5.013E-03
1270 10.41034837   0.003  -0.25854   3.70387   7.26487   2.85737   0.00000   8.500E-01   1.450E-01   5.060E-03
1271 10.41069291   0.003  -0.25775   3.70389   7.26495   2.85967   0.00000   8.490E-01   1.460E-01   5.108E-03
1272 10.41103718   0.003  -0.25697   3.70391   7.26502   2.86199   0.00000   8.481E-01   1.469E-01   5.156E-03
1273 10.41138117   0.003  -0.25618   3.70394   7.26509   2.86431   0.00000   8.471E-01   1.479E-01   5.204E-03
1274 10.41172490   0.002  -0.25539   3.70396   7.26516   2.86665   0.00000   8.461E-01   1.489E-01   5.253E-03
1275 10.41206835   0.002  -0.25454   3.70402   7.26523   2.86900   0.00000   8.443E-01   1.499E-01   5.311E-03
1276 10.41241152   0.002  -0.25374   3.70405   7.26530   2.87135   0.00000   8.432E-01   1.508E-01   5.345E-03
1277 10.41275443   0.002  -0.25295   3.70407   7.26537   2.87371   0.00000   8.421E-01   1.519E-01   5.376E-03
1278 10.41309707   0.002  -0.25215   3.70409   7.26544   2.87608   0.00000   8.411E-01   1.529E-01   5.415E-03
1279 10.41343943   0.002  -0.25135   3.70411   7.26550   2.87847   0.00000   8.401E-01   1.548E-01   5.455E-03
1280 10.41378153   0.002  -0.25054   3.70413   7.26557   2.88086   0.00000   8.391E-01   1.559E-01   5.497E-03
1281 10.41412336   0.002  -0.24974   3.70415   7.26564   2.88328   0.00000   8.380E-01   1.570E-01   5.538E-03
1282 10.41446492   0.002  -0.24893   3.70416   7.26570   2.88569   0.00000   8.370E-01   1.580E-01   5.581E-03
1283 10.41480621   0.002  -0.24812   3.70418   7.26576   2.88812   0.00000   8.359E-01   1.591E-01   5.684E-03
1284 10.41514723   0.001  -0.24731   3.70419   7.26583   2.89057   0.00000   8.347E-01   1.602E-01   5.738E-03
1285 10.41548799   0.001  -0.24649   3.70421   7.26589   2.89303   0.00000   8.328E-01   1.612E-01   5.792E-03
1286 10.41582847   0.001  -0.24567   3.70423   7.26596   2.89551   0.00000   8.317E-01   1.623E-01   5.847E-03
1287 10.41616869   0.001  -0.24484   3.70425   7.26602   2.89800   0.00000   8.305E-01   1.635E-01   5.903E-03
1288 10.41650865   0.001  -0.24402   3.70427   7.26608   2.90050   0.00000   8.294E-01   1.646E-01   5.953E-03
1289 10.41684834   0.001  -0.24319   3.70428   7.26615   2.90301   0.00000   8.283E-01   1.657E-01   6.005E-03
1290 10.41718776   0.001  -0.24236   3.70430   7.26621   2.90554   0.00000   8.272E-01   1.668E-01   6.054E-03
1291 10.41752692   0.001  -0.24155   3.70431   7.26624   2.90815   0.00000   8.260E-01   1.680E-01   6.080E-03
1292 10.41852312   0.001  -0.23911   3.70435   7.26640   2.91572   0.00000   8.238E-01   1.712E-01   5.417E-03
1293 10.41951705   0.001  -0.23668   3.70439   7.26655   2.92340   0.00000   8.210E-01   1.740E-01   4.664E-03
1294 10.42050870   0.001  -0.23424   3.70442   7.26667   2.93124   0.00000   8.186E-01   1.774E-01   4.038E-03
1295 10.42149810   0.000  -0.23176   3.70445   7.26680   2.93918   0.00000   8.165E-01   1.805E-01   3.476E-03
1296 10.42248524   0.000  -0.22926   3.70448   7.26691   2.94727   0.00000   8.134E-01   1.836E-01   2.977E-03
1297 10.42347015   0.000  -0.22674   3.70450   7.26704   2.95546   0.00000   8.111E-01   1.868E-01   2.554E-03
1298 10.42445283   0.000  -0.22423   3.70450   7.26708   2.96395   0.00000   8.086E-01   1.894E-01   2.183E-03
1299 10.42543329   0.000  -0.22163   3.70453   7.26725   2.97231   0.00000   8.055E-01   1.925E-01   2.064E-03
1300 10.42641154   0.000  -0.21898   3.70458   7.26754   2.98055   0.00000   8.016E-01   1.964E-01   2.182E-03
1301 10.42738760   0.000  -0.21638   3.70459   7.26789   2.98977   0.00000   7.977E-01   2.003E-01   2.114E-03
1302 10.42836146   0.000  -0.21374   3.70459   7.26816   2.99861   0.00000   7.938E-01   2.042E-01   2.082E-03
1303 10.42933315   0.000  -0.21107   3.70459   7.26841   3.00756   0.00000   7.898E-01   2.075E-01   2.115E-03
1304 10.43030266   0.000  -0.20837   3.70459   7.26868   3.01660   0.00000   7.867E-01   2.112E-01   2.110E-03
1305 10.43127002   0.000  -0.20567   3.70458   7.26899   3.02596   0.00000   7.821E-01   2.153E-01   2.101E-03
1306 10.43223523   0.000  -0.20294   3.70455   7.26929   3.03563   0.00000   7.787E-01   2.193E-01   2.067E-03
1307 10.43319830   0.000  -0.20012   3.70455   7.26963   3.04537   0.00000   7.735E-01   2.245E-01   2.115E-03
1308 10.43415923   0.000  -0.19726   3.70454   7.27013   3.05602   0.00000   7.693E-01   2.287E-01   2.169E-03
1309 10.43511805   0.000  -0.19440   3.70451   7.27040   3.06627   0.00000   7.650E-01   2.330E-01   2.120E-03
1310 10.43607475   0.000  -0.19153   3.70448   7.27075   3.07666   0.00000   7.607E-01   2.373E-01   2.116E-03
1311 10.43702935   0.000  -0.18863   3.70443   7.27109   3.08742   0.00000   7.564E-01   2.416E-01   2.093E-03
1312 10.43798185   0.000  -0.18568   3.70437   7.27144   3.09835   0.00000   7.510E-01   2.470E-01   2.103E-03
1313 10.43893228   0.000  -0.18268   3.70433   7.27183   3.10939   0.00000   7.465E-01   2.515E-01   2.155E-03
1314 10.43988062   0.000  -0.17969   3.70425   7.27236   3.12114   0.00000   7.410E-01   2.570E-01   2.081E-03
1315 10.44082690   0.000  -0.17661   3.70417   7.27277   3.13302   0.00000   7.365E-01   2.615E-01   2.106E-03
1316 10.44177112   0.000  -0.17350   3.70406   7.27320   3.14509   0.00000   7.309E-01   2.671E-01   2.141E-03
1317 10.44271330   0.000  -0.17040   3.70396   7.27373   3.15756   0.00000   7.253E-01   2.727E-01   2.055E-03
1318 10.44365343   0.000  -0.16719   3.70386   7.27421   3.17032   0.00000   7.200E-01   2.780E-01   2.094E-03
1319 10.44459153   0.000  -0.16395   3.70373   7.27470   3.18346   0.00000   7.146E-01   2.834E-01   2.117E-03
1320 10.44552762   0.000  -0.16069   3.70360   7.27527   3.19692   0.00000   7.088E-01   2.892E-01   2.083E-03
1321 10.44646168   0.000  -0.15739   3.70344   7.27584   3.21078   0.00000   7.029E-01   2.951E-01   2.069E-03
1322 10.44739375   0.000  -0.15408   3.70324   7.27637   3.22514   0.00000   6.970E-01   3.010E-01   1.920E-03
1323 10.44832381   0.000  -0.15065   3.70307   7.27703   3.23976   0.00000   6.902E-01   3.078E-01   2.038E-03
1324 10.44925189   0.000  -0.14721   3.70288   7.27770   3.25486   0.00000   6.834E-01   3.146E-01   2.015E-03
1325 10.45017800   0.000  -0.14372   3.70266   7.27839   3.27053   0.00000   6.773E-01   3.215E-01   1.951E-03
1326 10.45110213   0.000  -0.14026   3.70238   7.27912   3.28669   0.00000   6.695E-01   3.285E-01   1.847E-03
1327 10.45202429   0.000  -0.13663   3.70212   7.27988   3.30334   0.00000   6.624E-01   3.356E-01   1.986E-03
1328 10.45294451   0.000  -0.13299   3.70184   7.28073   3.32054   0.00000   6.542E-01   3.438E-01   1.896E-03
1329 10.45386278   0.000  -0.12938   3.70149   7.28160   3.33842   0.00000   6.459E-01   3.524E-01   1.825E-03
1330 10.45477911   0.000  -0.12562   3.70114   7.28246   3.35702   0.00000   6.375E-01   3.605E-01   1.859E-03
1331 10.45569351   0.000  -0.12178   3.70078   7.28346   3.37615   0.00000   6.280E-01   3.700E-01   1.810E-03
1332 10.45660599   0.000  -0.11802   3.70033   7.28449   3.39635   0.00000   6.186E-01   3.794E-01   1.640E-03
1333 10.45751656   0.000  -0.11404   3.69988   7.28560   3.41719   0.00000   6.088E-01   3.902E-01   1.752E-03
1334 10.45842522   0.000  -0.11012   3.69936   7.28680   3.43918   0.00000   5.980E-01   4.000E-01   1.568E-03
1335 10.45933198   0.000  -0.10598   3.69882   7.28806   3.46198   0.00000   5.861E-01   4.119E-01   1.634E-03
1336 10.46023686   0.000  -0.10196   3.69819   7.28942   3.48602   0.00000   5.749E-01   4.232E-01   1.358E-03
1337 10.46113985   0.000  -0.09775   3.69752   7.29089   3.51108   0.00000   5.623E-01   4.367E-01   1.469E-03
1338 10.46204097   0.000  -0.09341   3.69678   7.29244   3.53730   0.00000   5.488E-01   4.501E-01   1.291E-03
1339 10.46294023   0.000  -0.08913   3.69595   7.29420   3.56485   0.00000   5.347E-01   4.643E-01   1.055E-03
1340 10.46383762   0.000  -0.08428   3.69489   7.29710   3.59970   0.00000   5.235E-01   4.765E-01   8.445E-04
1341 10.46473317   0.975  -0.07907   3.69359   7.29963   3.64141   0.00000   5.080E-01   4.910E-01   4.710E-04
