 # M = 0.65 Mo, Y = 0.2880, Z = 2.00000E-02, alpha = 1.68, X_D = 2.0E-05
 # Solar Mixture: Asplund et al. (2005)         
 # ------------------------------------------------------------------------------------------------------------
 # NMD   LOG AGE    Xc      LOG L     LOG TE    LOG Tc   LOG RHOc    M-CC       L-PP       L-CNO       L-GRA
 #        (yr)              (Lo)        (K)       (K)   (gr/cm^3)    (Mo)        (L)         (L)         (L)
 # ------------------------------------------------------------------------------------------------------------
   1  4.94518617   0.692   0.64615   3.61160   6.09942  -1.08359   0.00000   8.730E-01   0.000E+00   1.270E-01
   2  5.05417814   0.692   0.63842   3.61170   6.10335  -1.07178   0.00000   8.811E-01   0.000E+00   1.189E-01
   3  5.14123124   0.692   0.63107   3.61180   6.10709  -1.06056   0.00000   8.887E-01   0.000E+00   1.112E-01
   4  5.21371469   0.692   0.62468   3.61187   6.11032  -1.05085   0.00000   8.949E-01   0.000E+00   1.049E-01
   5  5.27581330   0.692   0.61829   3.61195   6.11355  -1.04114   0.00000   9.011E-01   0.000E+00   9.850E-02
   6  5.33013326   0.692   0.61231   3.61202   6.11658  -1.03205   0.00000   9.039E-01   0.000E+00   9.570E-02
   7  5.37840817   0.692   0.60650   3.61208   6.11952  -1.02324   0.00000   9.052E-01   0.000E+00   9.443E-02
   8  5.42184976   0.692   0.60069   3.61215   6.12245  -1.01442   0.00000   9.065E-01   0.000E+00   9.315E-02
   9  5.46133839   0.692   0.59489   3.61221   6.12538  -1.00564   0.00000   9.062E-01   0.000E+00   9.343E-02
  10  5.49753384   0.692   0.58910   3.61228   6.12829  -0.99688   0.00000   9.047E-01   0.000E+00   9.488E-02
  11  5.53094335   0.692   0.58330   3.61234   6.13120  -0.98813   0.00000   9.033E-01   0.000E+00   9.634E-02
  12  5.56196530   0.692   0.57746   3.61240   6.13414  -0.97930   0.00000   9.015E-01   0.000E+00   9.810E-02
  13  5.59091830   0.692   0.57128   3.61246   6.13725  -0.96996   0.00000   8.978E-01   0.000E+00   1.020E-01
  14  5.61806114   0.692   0.56509   3.61251   6.14035  -0.96062   0.00000   8.940E-01   0.000E+00   1.059E-01
  15  5.64360692   0.692   0.55891   3.61257   6.14346  -0.95128   0.00000   8.902E-01   0.000E+00   1.097E-01
  16  5.66773317   0.692   0.55218   3.61263   6.14683  -0.94115   0.00000   8.840E-01   0.000E+00   1.160E-01
  17  5.69058939   0.692   0.54518   3.61269   6.15033  -0.93064   0.00000   8.766E-01   0.000E+00   1.234E-01
  18  5.71230262   0.692   0.53818   3.61275   6.15383  -0.92013   0.00000   8.691E-01   0.000E+00   1.309E-01
  19  5.73298177   0.692   0.53062   3.61280   6.15759  -0.90883   0.00000   8.596E-01   0.000E+00   1.404E-01
  20  5.75272085   0.692   0.52234   3.61284   6.16168  -0.89654   0.00000   8.473E-01   0.000E+00   1.527E-01
  21  5.77160165   0.692   0.51407   3.61288   6.16578  -0.88425   0.00000   8.351E-01   0.000E+00   1.649E-01
  22  5.78969570   0.692   0.50484   3.61293   6.17034  -0.87053   0.00000   8.177E-01   0.000E+00   1.823E-01
  23  5.80706594   0.692   0.49494   3.61299   6.17525  -0.85579   0.00000   7.966E-01   0.000E+00   2.034E-01
  24  5.82376808   0.692   0.48469   3.61304   6.18032  -0.84056   0.00000   7.735E-01   0.000E+00   2.265E-01
  25  5.83985160   0.692   0.47271   3.61307   6.18621  -0.82288   0.00000   7.409E-01   0.000E+00   2.591E-01
  26  5.85536070   0.692   0.46040   3.61310   6.19226  -0.80472   0.00000   7.057E-01   0.000E+00   2.943E-01
  27  5.87033499   0.692   0.44612   3.61311   6.19921  -0.78382   0.00000   6.560E-01   0.000E+00   3.440E-01
  28  5.88481014   0.692   0.43076   3.61312   6.20667  -0.76140   0.00000   5.980E-01   0.000E+00   4.020E-01
  29  5.89881835   0.692   0.41404   3.61311   6.21476  -0.73708   0.00000   5.297E-01   0.000E+00   4.703E-01
  30  5.91238881   0.692   0.39537   3.61305   6.22373  -0.71015   0.00000   4.478E-01   0.000E+00   5.522E-01
  31  5.92554805   0.692   0.37529   3.61297   6.23335  -0.68129   0.00000   3.592E-01   0.000E+00   6.408E-01
  32  5.93832026   0.692   0.35407   3.61284   6.24349  -0.65095   0.00000   2.706E-01   0.000E+00   7.294E-01
  33  5.95072755   0.692   0.33213   3.61265   6.25385  -0.61986   0.00000   1.905E-01   0.000E+00   8.095E-01
  34  5.96279021   0.692   0.30998   3.61243   6.26420  -0.58875   0.00000   1.257E-01   0.000E+00   8.743E-01
  35  5.97452685   0.692   0.28822   3.61217   6.27443  -0.55820   0.00000   7.863E-02   0.000E+00   9.214E-01
  36  5.98595465   0.692   0.26708   3.61186   6.28419  -0.52895   0.00000   4.677E-02   0.000E+00   9.532E-01
  37  5.99708943   0.692   0.24683   3.61154   6.29345  -0.50117   0.00000   2.719E-02   0.000E+00   9.728E-01
  38  6.00794586   0.692   0.22750   3.61120   6.30220  -0.47488   0.00000   1.540E-02   0.000E+00   9.846E-01
  39  6.01853750   0.692   0.20912   3.61083   6.31046  -0.45004   0.00000   9.217E-03   0.000E+00   9.908E-01
  40  6.02887697   0.692   0.19161   3.61046   6.31828  -0.42653   0.00000   5.645E-03   0.000E+00   9.944E-01
  41  6.03897599   0.692   0.17492   3.61009   6.32569  -0.40425   0.00000   3.000E-03   0.000E+00   9.970E-01
  42  6.07668760   0.692   0.11624   3.60857   6.35139  -0.32705   0.00000   0.000E+00   0.000E+00   1.000E+00
  43  6.11138459   0.692   0.06642   3.60709   6.37284  -0.26255   0.00000   0.000E+00   0.000E+00   1.000E+00
  44  6.14351345   0.692   0.02313   3.60570   6.39130  -0.20709   0.00000   0.000E+00   0.000E+00   1.000E+00
  45  6.17342829   0.692  -0.01488   3.60442   6.40740  -0.15868   0.00000   0.000E+00   0.000E+00   1.000E+00
  46  6.20141467   0.692  -0.04875   3.60324   6.42168  -0.11572   0.00000   0.000E+00   0.000E+00   1.000E+00
  47  6.22770624   0.692  -0.07924   3.60217   6.43453  -0.07713   0.00000   0.000E+00   0.000E+00   1.000E+00
  48  6.25249661   0.692  -0.10713   3.60120   6.44627  -0.04180   0.00000   0.000E+00   0.000E+00   1.000E+00
  49  6.27594799   0.692  -0.13257   3.60029   6.45695  -0.00970   0.00000   0.000E+00   0.000E+00   1.000E+00
  50  6.29819763   0.692  -0.15606   3.59945   6.46683   0.02001   0.00000   0.000E+00   0.000E+00   1.000E+00
  51  6.31936272   0.692  -0.17795   3.59866   6.47602   0.04765   0.00000   0.000E+00   0.000E+00   1.000E+00
  52  6.33954410   0.692  -0.19837   3.59793   6.48460   0.07345   0.00000   0.000E+00   0.000E+00   1.000E+00
  53  6.35882917   0.692  -0.21748   3.59724   6.49263   0.09762   0.00000   0.000E+00   0.000E+00   1.000E+00
  54  6.37729415   0.692  -0.23545   3.59660   6.50018   0.12034   0.00000   0.000E+00   0.000E+00   1.000E+00
  55  6.39500597   0.692  -0.25238   3.59600   6.50731   0.14177   0.00000   0.000E+00   0.000E+00   1.000E+00
  56  6.41202367   0.692  -0.26844   3.59542   6.51405   0.16208   0.00000   0.000E+00   0.000E+00   1.000E+00
  57  6.42839960   0.692  -0.28370   3.59487   6.52048   0.18142   0.00000   0.000E+00   0.000E+00   1.000E+00
  58  6.44418042   0.692  -0.29828   3.59436   6.52662   0.19991   0.00000   0.000E+00   0.000E+00   1.000E+00
  59  6.45940786   0.692  -0.31214   3.59387   6.53246   0.21745   0.00000   0.000E+00   0.000E+00   1.000E+00
  60  6.47411943   0.692  -0.32532   3.59340   6.53801   0.23415   0.00000   0.000E+00   0.000E+00   1.000E+00
  61  6.48834893   0.692  -0.33804   3.59295   6.54338   0.25030   0.00000   0.000E+00   0.000E+00   1.000E+00
  62  6.50212696   0.692  -0.35023   3.59252   6.54853   0.26581   0.00000   0.000E+00   0.000E+00   1.000E+00
  63  6.51548129   0.692  -0.36185   3.59212   6.55343   0.28057   0.00000   0.000E+00   0.000E+00   1.000E+00
  64  6.52843721   0.692  -0.37321   3.59172   6.55823   0.29501   0.00000   0.000E+00   0.000E+00   1.000E+00
  65  6.54101779   0.692  -0.38398   3.59135   6.56279   0.30873   0.00000   0.000E+00   0.000E+00   1.000E+00
  66  6.55324417   0.692  -0.39447   3.59098   6.56722   0.32209   0.00000   0.000E+00   0.000E+00   1.000E+00
  67  6.56513576   0.692  -0.40461   3.59063   6.57150   0.33499   0.00000   0.000E+00   0.000E+00   1.000E+00
  68  6.57671040   0.692  -0.41437   3.59029   6.57564   0.34744   0.00000   0.000E+00   0.000E+00   1.000E+00
  69  6.58798454   0.692  -0.42387   3.58996   6.57967   0.35958   0.00000   0.000E+00   0.000E+00   1.000E+00
  70  6.59897341   0.692  -0.43301   3.58965   6.58355   0.37126   0.00000   0.000E+00   0.000E+00   1.000E+00
  71  6.60969107   0.692  -0.44193   3.58935   6.58733   0.38266   0.00000   0.000E+00   0.000E+00   1.000E+00
  72  6.62015060   0.692  -0.45057   3.58906   6.59101   0.39372   0.00000   0.000E+00   0.000E+00   1.000E+00
  73  6.63036413   0.692  -0.45895   3.58878   6.59457   0.40444   0.00000   0.000E+00   0.000E+00   1.000E+00
  74  6.64034298   0.692  -0.46719   3.58850   6.59807   0.41499   0.00000   0.000E+00   0.000E+00   1.000E+00
  75  6.65009768   0.692  -0.47504   3.58823   6.60142   0.42508   0.00000   0.000E+00   0.000E+00   1.000E+00
  76  6.65963808   0.692  -0.48290   3.58797   6.60477   0.43516   0.00000   0.000E+00   0.000E+00   1.000E+00
  77  6.66897340   0.692  -0.49034   3.58773   6.60794   0.44471   0.00000   0.000E+00   0.000E+00   1.000E+00
  78  6.67811227   0.692  -0.49772   3.58748   6.61108   0.45419   0.00000   0.000E+00   0.000E+00   1.000E+00
  79  6.68706279   0.692  -0.50495   3.58724   6.61415   0.46350   0.00000   0.000E+00   0.000E+00   1.000E+00
  80  6.69583256   0.692  -0.51188   3.58701   6.61706   0.47246   0.00000   0.000E+00   0.000E+00   1.000E+00
  81  6.70442874   0.692  -0.51880   3.58679   6.61997   0.48143   0.00000   0.000E+00   0.000E+00   1.000E+00
  82  6.71285807   0.692  -0.52546   3.58657   6.62272   0.49012   0.00000   0.000E+00   0.000E+00   1.000E+00
  83  6.72112691   0.692  -0.53197   3.58636   6.62537   0.49864   0.00000   0.000E+00   0.000E+00   1.000E+00
  84  6.72924124   0.692  -0.53847   3.58614   6.62803   0.50716   0.00000   0.000E+00   0.000E+00   1.000E+00
  85  6.73720675   0.692  -0.54467   3.58595   6.63052   0.51536   0.00000   0.000E+00   0.000E+00   1.000E+00
  86  6.74502878   0.692  -0.55077   3.58575   6.63296   0.52346   0.00000   0.000E+00   0.000E+00   1.000E+00
  87  6.75271243   0.692  -0.55687   3.58556   6.63539   0.53156   0.00000   0.000E+00   0.000E+00   1.000E+00
  88  6.76026249   0.692  -0.56272   3.58537   6.63769   0.53939   0.00000   0.000E+00   0.000E+00   1.000E+00
  89  6.76768353   0.692  -0.56843   3.58519   6.63993   0.54709   0.00000   0.000E+00   0.000E+00   1.000E+00
  90  6.77497990   0.692  -0.57415   3.58500   6.64216   0.55478   0.00000   0.000E+00   0.000E+00   1.000E+00
  91  6.78215570   0.692  -0.57972   3.58483   6.64432   0.56233   0.00000   0.000E+00   0.000E+00   1.000E+00
  92  6.78921487   0.692  -0.58508   3.58466   6.64637   0.56965   0.00000   0.000E+00   0.000E+00   1.000E+00
  93  6.79616112   0.692  -0.59044   3.58449   6.64842   0.57697   0.00000   0.000E+00   0.000E+00   1.000E+00
  94  6.80299802   0.692  -0.59580   3.58432   6.65047   0.58429   0.00000   0.000E+00   0.000E+00   1.000E+00
  95  6.80972896   0.692  -0.60085   3.58416   6.65238   0.59129   0.00000   0.000E+00   0.000E+00   1.000E+00
  96  6.81635717   0.692  -0.60586   3.58401   6.65427   0.59825   0.00000   0.000E+00   0.000E+00   1.000E+00
  97  6.82288573   0.692  -0.61087   3.58386   6.65616   0.60521   0.00000   0.000E+00   0.000E+00   1.000E+00
  98  6.82931761   0.692  -0.61584   3.58371   6.65803   0.61212   0.00000   0.000E+00   0.000E+00   1.000E+00
  99  6.83565562   0.692  -0.62052   3.58357   6.65977   0.61874   0.00000   0.000E+00   0.000E+00   1.000E+00
 100  6.84190246   0.692  -0.62521   3.58343   6.66151   0.62537   0.00000   0.000E+00   0.000E+00   1.000E+00
 101  6.84806072   0.692  -0.62989   3.58329   6.66325   0.63199   0.00000   0.000E+00   0.000E+00   1.000E+00
 102  6.85413288   0.692  -0.63453   3.58315   6.66496   0.63856   0.00000   0.000E+00   0.000E+00   1.000E+00
 103  6.86012131   0.692  -0.63891   3.58302   6.66657   0.64486   0.00000   0.000E+00   0.000E+00   1.000E+00
 104  6.86602828   0.692  -0.64329   3.58289   6.66818   0.65117   0.00000   0.000E+00   0.000E+00   1.000E+00
 105  6.87185600   0.692  -0.64767   3.58276   6.66978   0.65747   0.00000   0.000E+00   0.000E+00   1.000E+00
 106  6.87760654   0.692  -0.65205   3.58262   6.67139   0.66377   0.00000   0.000E+00   0.000E+00   1.000E+00
 107  6.88328193   0.692  -0.65617   3.58251   6.67289   0.66979   0.00000   0.000E+00   0.000E+00   1.000E+00
 108  6.88888412   0.692  -0.66026   3.58239   6.67437   0.67579   0.00000   0.000E+00   0.000E+00   1.000E+00
 109  6.89441495   0.692  -0.66434   3.58227   6.67585   0.68178   0.00000   0.000E+00   0.000E+00   1.000E+00
 110  6.89987624   0.692  -0.66843   3.58216   6.67733   0.68777   0.00000   0.000E+00   0.000E+00   1.000E+00
 111  6.90526970   0.692  -0.67242   3.58205   6.67878   0.69367   0.00000   0.000E+00   0.000E+00   1.000E+00
 112  6.91059700   0.692  -0.67623   3.58194   6.68015   0.69937   0.00000   0.000E+00   0.000E+00   1.000E+00
 113  6.91585975   0.692  -0.68003   3.58184   6.68153   0.70507   0.00000   0.000E+00   0.000E+00   1.000E+00
 114  6.92105948   0.692  -0.68384   3.58173   6.68290   0.71078   0.00000   0.000E+00   0.000E+00   1.000E+00
 115  6.92619770   0.692  -0.68764   3.58163   6.68427   0.71648   0.00000   0.000E+00   0.000E+00   1.000E+00
 116  6.93127583   0.692  -0.69134   3.58153   6.68560   0.72206   0.00000   0.000E+00   0.000E+00   1.000E+00
 117  6.93629527   0.692  -0.69488   3.58144   6.68687   0.72749   0.00000   0.000E+00   0.000E+00   1.000E+00
 118  6.94125736   0.692  -0.69842   3.58134   6.68814   0.73292   0.00000   0.000E+00   0.000E+00   1.000E+00
 119  6.94616340   0.692  -0.70196   3.58125   6.68941   0.73835   0.00000   0.000E+00   0.000E+00   1.000E+00
 120  6.95101463   0.692  -0.70551   3.58116   6.69068   0.74378   0.00000   0.000E+00   0.000E+00   1.000E+00
 121  6.95581227   0.692  -0.70900   3.58107   6.69193   0.74916   0.00000   3.150E-05   0.000E+00   1.000E+00
 122  6.96055749   0.692  -0.71229   3.58098   6.69311   0.75432   0.00000   2.087E-04   0.000E+00   9.998E-01
 123  6.96525142   0.692  -0.71558   3.58090   6.69429   0.75949   0.00000   3.859E-04   0.000E+00   9.996E-01
 124  6.96989516   0.692  -0.71887   3.58082   6.69546   0.76465   0.00000   5.631E-04   0.000E+00   9.994E-01
 125  6.97448978   0.692  -0.72215   3.58073   6.69664   0.76982   0.00000   7.403E-04   0.000E+00   9.993E-01
 126  6.97903629   0.692  -0.72544   3.58065   6.69782   0.77499   0.00000   9.175E-04   0.000E+00   9.991E-01
 127  6.98353570   0.692  -0.72860   3.58057   6.69895   0.78002   0.00000   1.000E-03   0.000E+00   9.990E-01
 128  6.98798897   0.692  -0.73166   3.58050   6.70005   0.78494   0.00000   1.000E-03   0.000E+00   9.990E-01
 129  6.99239704   0.692  -0.73471   3.58043   6.70114   0.78986   0.00000   1.000E-03   0.000E+00   9.990E-01
 130  6.99676082   0.692  -0.73776   3.58035   6.70224   0.79477   0.00000   1.000E-03   0.000E+00   9.990E-01
 131  7.00108118   0.692  -0.74082   3.58028   6.70333   0.79969   0.00000   1.000E-03   0.000E+00   9.990E-01
 132  7.00535899   0.692  -0.74387   3.58021   6.70443   0.80461   0.00000   1.000E-03   0.000E+00   9.990E-01
 133  7.00959508   0.692  -0.74682   3.58014   6.70549   0.80942   0.00000   1.000E-03   0.000E+00   9.990E-01
 134  7.01379024   0.692  -0.74964   3.58008   6.70651   0.81410   0.00000   1.000E-03   0.000E+00   9.990E-01
 135  7.01794527   0.692  -0.75246   3.58002   6.70753   0.81878   0.00000   1.000E-03   0.000E+00   9.990E-01
 136  7.02206092   0.692  -0.75528   3.57995   6.70855   0.82346   0.00000   1.000E-03   0.000E+00   9.990E-01
 137  7.02613794   0.692  -0.75810   3.57989   6.70957   0.82814   0.00000   1.000E-03   0.000E+00   9.990E-01
 138  7.03017703   0.692  -0.76092   3.57983   6.71059   0.83282   0.00000   1.000E-03   0.000E+00   9.990E-01
 139  7.03417891   0.692  -0.76374   3.57977   6.71161   0.83749   0.00000   1.000E-03   0.000E+00   9.990E-01
 140  7.03814425   0.692  -0.76637   3.57971   6.71257   0.84197   0.00000   1.000E-03   0.000E+00   9.990E-01
 141  7.04207371   0.692  -0.76898   3.57966   6.71352   0.84642   0.00000   1.000E-03   0.000E+00   9.990E-01
 142  7.04596794   0.692  -0.77158   3.57961   6.71447   0.85087   0.00000   1.000E-03   0.000E+00   9.990E-01
 143  7.04982755   0.692  -0.77419   3.57956   6.71543   0.85532   0.00000   1.000E-03   0.000E+00   9.990E-01
 144  7.05365317   0.692  -0.77679   3.57950   6.71638   0.85977   0.00000   1.000E-03   0.000E+00   9.990E-01
 145  7.05744538   0.692  -0.77940   3.57945   6.71734   0.86422   0.00000   1.000E-03   0.000E+00   9.990E-01
 146  7.06120477   0.692  -0.78201   3.57940   6.71829   0.86868   0.00000   1.000E-03   0.000E+00   9.990E-01
 147  7.06493189   0.692  -0.78444   3.57936   6.71919   0.87295   0.00000   1.000E-03   0.000E+00   9.990E-01
 148  7.06862730   0.692  -0.78684   3.57931   6.72008   0.87718   0.00000   1.000E-03   0.000E+00   9.990E-01
 149  7.07229153   0.692  -0.78924   3.57927   6.72097   0.88141   0.00000   1.000E-03   0.000E+00   9.990E-01
 150  7.07592510   0.692  -0.79164   3.57923   6.72186   0.88565   0.00000   1.000E-03   0.000E+00   9.990E-01
 151  7.07952853   0.692  -0.79404   3.57918   6.72275   0.88988   0.00000   1.000E-03   0.000E+00   9.990E-01
 152  7.08310230   0.692  -0.79644   3.57914   6.72364   0.89411   0.00000   1.000E-03   0.000E+00   9.990E-01
 153  7.08664690   0.692  -0.79884   3.57910   6.72453   0.89834   0.00000   1.000E-03   0.000E+00   9.990E-01
 154  7.09016281   0.692  -0.80121   3.57906   6.72541   0.90255   0.00000   1.017E-03   0.000E+00   9.990E-01
 155  7.09365048   0.692  -0.80342   3.57902   6.72624   0.90657   0.00000   1.140E-03   0.000E+00   9.989E-01
 156  7.09711036   0.692  -0.80562   3.57899   6.72707   0.91059   0.00000   1.264E-03   0.000E+00   9.987E-01
 157  7.10054290   0.692  -0.80782   3.57895   6.72790   0.91461   0.00000   1.387E-03   0.000E+00   9.986E-01
 158  7.10394853   0.692  -0.81002   3.57892   6.72873   0.91863   0.00000   1.511E-03   0.000E+00   9.985E-01
 159  7.10732765   0.692  -0.81223   3.57888   6.72957   0.92265   0.00000   1.635E-03   0.000E+00   9.984E-01
 160  7.11068069   0.692  -0.81443   3.57885   6.73040   0.92667   0.00000   1.758E-03   0.000E+00   9.982E-01
 161  7.11400803   0.692  -0.81663   3.57881   6.73123   0.93070   0.00000   1.882E-03   0.000E+00   9.981E-01
 162  7.11731008   0.692  -0.81882   3.57878   6.73206   0.93471   0.00000   2.000E-03   0.000E+00   9.980E-01
 163  7.12058721   0.692  -0.82084   3.57875   6.73283   0.93853   0.00000   2.000E-03   0.000E+00   9.980E-01
 164  7.12383980   0.692  -0.82286   3.57872   6.73361   0.94235   0.00000   2.000E-03   0.000E+00   9.980E-01
 165  7.12706820   0.692  -0.82488   3.57869   6.73439   0.94617   0.00000   2.000E-03   0.000E+00   9.980E-01
 166  7.13027279   0.692  -0.82690   3.57867   6.73516   0.94999   0.00000   2.000E-03   0.000E+00   9.980E-01
 167  7.13345390   0.692  -0.82892   3.57864   6.73594   0.95381   0.00000   2.000E-03   0.000E+00   9.980E-01
 168  7.13661188   0.692  -0.83094   3.57861   6.73671   0.95763   0.00000   2.000E-03   0.000E+00   9.980E-01
 169  7.13974707   0.692  -0.83296   3.57858   6.73749   0.96145   0.00000   2.000E-03   0.000E+00   9.980E-01
 170  7.14285978   0.692  -0.83498   3.57855   6.73827   0.96527   0.00000   2.000E-03   0.000E+00   9.980E-01
 171  7.14595034   0.692  -0.83692   3.57853   6.73902   0.96900   0.00000   2.056E-03   0.000E+00   9.979E-01
 172  7.14901906   0.692  -0.83877   3.57851   6.73975   0.97264   0.00000   2.167E-03   0.000E+00   9.978E-01
 173  7.15206626   0.692  -0.84061   3.57849   6.74049   0.97628   0.00000   2.278E-03   0.000E+00   9.977E-01
 174  7.15509222   0.692  -0.84246   3.57847   6.74122   0.97992   0.00000   2.389E-03   0.000E+00   9.976E-01
 175  7.15809724   0.692  -0.84431   3.57845   6.74195   0.98356   0.00000   2.500E-03   0.000E+00   9.975E-01
 176  7.16108161   0.692  -0.84616   3.57844   6.74268   0.98720   0.00000   2.611E-03   0.000E+00   9.974E-01
 177  7.16404562   0.692  -0.84801   3.57842   6.74342   0.99084   0.00000   2.722E-03   0.000E+00   9.973E-01
 178  7.16698953   0.692  -0.84985   3.57840   6.74415   0.99448   0.00000   2.833E-03   0.000E+00   9.972E-01
 179  7.16991362   0.692  -0.85170   3.57838   6.74488   0.99812   0.00000   2.944E-03   0.000E+00   9.971E-01
 180  7.17281816   0.692  -0.85347   3.57836   6.74559   1.00168   0.00000   3.000E-03   0.000E+00   9.970E-01
 181  7.17570340   0.692  -0.85515   3.57835   6.74628   1.00515   0.00000   3.000E-03   0.000E+00   9.970E-01
 182  7.17856959   0.692  -0.85684   3.57834   6.74698   1.00862   0.00000   3.000E-03   0.000E+00   9.970E-01
 183  7.18141700   0.692  -0.85852   3.57833   6.74767   1.01209   0.00000   3.000E-03   0.000E+00   9.970E-01
 184  7.18424586   0.692  -0.86021   3.57832   6.74836   1.01556   0.00000   3.000E-03   0.000E+00   9.970E-01
 185  7.18705641   0.692  -0.86189   3.57831   6.74905   1.01903   0.00000   3.000E-03   0.000E+00   9.970E-01
 186  7.18984889   0.692  -0.86358   3.57830   6.74974   1.02250   0.00000   3.000E-03   0.000E+00   9.970E-01
 187  7.19262352   0.692  -0.86526   3.57829   6.75043   1.02597   0.00000   3.000E-03   0.000E+00   9.970E-01
 188  7.19538055   0.692  -0.86695   3.57828   6.75112   1.02944   0.00000   3.000E-03   0.000E+00   9.970E-01
 189  7.19812018   0.692  -0.86863   3.57827   6.75181   1.03291   0.00000   3.003E-03   0.000E+00   9.970E-01
 190  7.20084264   0.692  -0.87016   3.57827   6.75246   1.03622   0.00000   3.104E-03   0.000E+00   9.969E-01
 191  7.20354814   0.692  -0.87170   3.57826   6.75312   1.03953   0.00000   3.204E-03   0.000E+00   9.968E-01
 192  7.20623689   0.692  -0.87324   3.57826   6.75377   1.04285   0.00000   3.305E-03   0.000E+00   9.967E-01
 193  7.20890909   0.692  -0.87477   3.57826   6.75443   1.04616   0.00000   3.405E-03   0.000E+00   9.966E-01
 194  7.21156495   0.692  -0.87631   3.57825   6.75508   1.04947   0.00000   3.506E-03   0.000E+00   9.965E-01
 195  7.21420467   0.692  -0.87785   3.57825   6.75574   1.05278   0.00000   3.606E-03   0.000E+00   9.964E-01
 196  7.21682845   0.692  -0.87938   3.57825   6.75639   1.05609   0.00000   3.707E-03   0.000E+00   9.963E-01
 197  7.21943646   0.692  -0.88092   3.57825   6.75704   1.05941   0.00000   3.807E-03   0.000E+00   9.962E-01
 198  7.22202891   0.692  -0.88246   3.57824   6.75770   1.06272   0.00000   3.908E-03   0.000E+00   9.961E-01
 199  7.22460597   0.692  -0.88398   3.57824   6.75835   1.06602   0.00000   4.008E-03   0.000E+00   9.960E-01
 200  7.22716784   0.692  -0.88538   3.57824   6.75897   1.06918   0.00000   4.104E-03   0.000E+00   9.959E-01
 201  7.22971468   0.692  -0.88678   3.57825   6.75959   1.07235   0.00000   4.200E-03   0.000E+00   9.958E-01
 202  7.23224667   0.692  -0.88818   3.57825   6.76021   1.07551   0.00000   4.295E-03   0.000E+00   9.957E-01
 203  7.23476398   0.692  -0.88957   3.57825   6.76084   1.07868   0.00000   4.391E-03   0.000E+00   9.956E-01
 204  7.23726679   0.692  -0.89097   3.57825   6.76146   1.08184   0.00000   4.487E-03   0.000E+00   9.955E-01
 205  7.23975525   0.692  -0.89237   3.57826   6.76208   1.08501   0.00000   4.583E-03   0.000E+00   9.954E-01
 206  7.24222954   0.692  -0.89377   3.57826   6.76270   1.08817   0.00000   4.679E-03   0.000E+00   9.953E-01
 207  7.24468981   0.692  -0.89516   3.57826   6.76332   1.09134   0.00000   4.775E-03   0.000E+00   9.952E-01
 208  7.24713623   0.692  -0.89656   3.57827   6.76394   1.09450   0.00000   4.870E-03   0.000E+00   9.951E-01
 209  7.24956894   0.692  -0.89796   3.57827   6.76456   1.09767   0.00000   4.966E-03   0.000E+00   9.950E-01
 210  7.25198810   0.692  -0.89927   3.57828   6.76517   1.10074   0.00000   5.059E-03   0.000E+00   9.949E-01
 211  7.25439385   0.692  -0.90054   3.57829   6.76576   1.10377   0.00000   5.151E-03   0.000E+00   9.948E-01
 212  7.25678636   0.692  -0.90180   3.57830   6.76635   1.10680   0.00000   5.242E-03   0.000E+00   9.948E-01
 213  7.25916575   0.692  -0.90307   3.57831   6.76695   1.10982   0.00000   5.334E-03   0.000E+00   9.947E-01
 214  7.26153218   0.692  -0.90433   3.57832   6.76754   1.11285   0.00000   5.425E-03   0.000E+00   9.946E-01
 215  7.26388579   0.692  -0.90560   3.57833   6.76814   1.11588   0.00000   5.517E-03   0.000E+00   9.945E-01
 216  7.26622671   0.692  -0.90686   3.57834   6.76873   1.11890   0.00000   5.609E-03   0.000E+00   9.944E-01
 217  7.26855508   0.692  -0.90813   3.57835   6.76932   1.12193   0.00000   5.700E-03   0.000E+00   9.943E-01
 218  7.27087103   0.692  -0.90939   3.57836   6.76992   1.12496   0.00000   5.792E-03   0.000E+00   9.942E-01
 219  7.27317470   0.692  -0.91066   3.57837   6.77051   1.12799   0.00000   5.883E-03   0.000E+00   9.941E-01
 220  7.27546622   0.692  -0.91192   3.57838   6.77111   1.13101   0.00000   5.975E-03   0.000E+00   9.940E-01
 221  7.27774570   0.692  -0.91310   3.57839   6.77168   1.13395   0.00000   6.127E-03   0.000E+00   9.939E-01
 222  7.28001329   0.692  -0.91424   3.57841   6.77225   1.13685   0.00000   6.302E-03   0.000E+00   9.937E-01
 223  7.28226909   0.692  -0.91538   3.57843   6.77281   1.13974   0.00000   6.477E-03   0.000E+00   9.935E-01
 224  7.28451324   0.692  -0.91652   3.57844   6.77338   1.14264   0.00000   6.652E-03   0.000E+00   9.933E-01
 225  7.28674585   0.692  -0.91767   3.57846   6.77395   1.14554   0.00000   6.827E-03   0.000E+00   9.932E-01
 226  7.28896705   0.692  -0.91881   3.57848   6.77452   1.14844   0.00000   7.002E-03   0.000E+00   9.930E-01
 227  7.29117694   0.692  -0.91995   3.57849   6.77508   1.15134   0.00000   7.177E-03   0.000E+00   9.928E-01
 228  7.29337564   0.692  -0.92109   3.57851   6.77565   1.15424   0.00000   7.352E-03   0.000E+00   9.926E-01
 229  7.29556327   0.692  -0.92224   3.57853   6.77622   1.15714   0.00000   7.527E-03   0.000E+00   9.925E-01
 230  7.29773993   0.692  -0.92338   3.57854   6.77679   1.16003   0.00000   7.702E-03   0.000E+00   9.923E-01
 231  7.29990574   0.692  -0.92452   3.57856   6.77735   1.16293   0.00000   7.878E-03   0.000E+00   9.921E-01
 232  7.30206080   0.692  -0.92563   3.57858   6.77791   1.16580   0.00000   8.025E-03   0.000E+00   9.920E-01
 233  7.30420522   0.692  -0.92666   3.57860   6.77846   1.16857   0.00000   8.109E-03   0.000E+00   9.919E-01
 234  7.30633911   0.692  -0.92768   3.57862   6.77901   1.17135   0.00000   8.193E-03   0.000E+00   9.918E-01
 235  7.30846256   0.692  -0.92871   3.57865   6.77955   1.17413   0.00000   8.277E-03   0.000E+00   9.917E-01
 236  7.31057568   0.692  -0.92974   3.57867   6.78010   1.17691   0.00000   8.361E-03   0.000E+00   9.916E-01
 237  7.31267856   0.692  -0.93077   3.57869   6.78064   1.17969   0.00000   8.445E-03   0.000E+00   9.916E-01
 238  7.31477131   0.692  -0.93179   3.57872   6.78119   1.18247   0.00000   8.528E-03   0.000E+00   9.915E-01
 239  7.31685403   0.692  -0.93282   3.57874   6.78174   1.18524   0.00000   8.612E-03   0.000E+00   9.914E-01
 240  7.31892681   0.692  -0.93385   3.57876   6.78228   1.18802   0.00000   8.696E-03   0.000E+00   9.913E-01
 241  7.32098974   0.692  -0.93487   3.57879   6.78283   1.19080   0.00000   8.780E-03   0.000E+00   9.912E-01
 242  7.32304292   0.692  -0.93590   3.57881   6.78337   1.19358   0.00000   8.864E-03   0.000E+00   9.911E-01
 243  7.32508643   0.692  -0.93693   3.57884   6.78392   1.19636   0.00000   8.948E-03   0.000E+00   9.911E-01
 244  7.32712038   0.692  -0.93791   3.57886   6.78446   1.19909   0.00000   9.061E-03   0.000E+00   9.909E-01
 245  7.32914485   0.692  -0.93883   3.57889   6.78498   1.20176   0.00000   9.221E-03   0.000E+00   9.908E-01
 246  7.33115992   0.692  -0.93975   3.57892   6.78551   1.20442   0.00000   9.382E-03   0.000E+00   9.906E-01
 247  7.33316568   0.692  -0.94067   3.57895   6.78604   1.20709   0.00000   9.543E-03   0.000E+00   9.905E-01
 248  7.33516223   0.692  -0.94158   3.57898   6.78656   1.20975   0.00000   9.704E-03   0.000E+00   9.903E-01
 249  7.33714964   0.692  -0.94250   3.57901   6.78709   1.21242   0.00000   9.865E-03   0.000E+00   9.901E-01
 250  7.33912799   0.692  -0.94342   3.57903   6.78761   1.21508   0.00000   1.003E-02   0.000E+00   9.900E-01
 251  7.34109738   0.692  -0.94433   3.57906   6.78814   1.21775   0.00000   1.019E-02   0.000E+00   9.898E-01
 252  7.34305787   0.692  -0.94525   3.57909   6.78867   1.22041   0.00000   1.035E-02   0.000E+00   9.897E-01
 253  7.34500955   0.692  -0.94617   3.57912   6.78919   1.22308   0.00000   1.051E-02   0.000E+00   9.895E-01
 254  7.34695250   0.692  -0.94708   3.57915   6.78972   1.22574   0.00000   1.067E-02   0.000E+00   9.893E-01
 255  7.34888680   0.692  -0.94800   3.57918   6.79024   1.22841   0.00000   1.083E-02   0.000E+00   9.892E-01
 256  7.35081252   0.692  -0.94892   3.57921   6.79077   1.23107   0.00000   1.099E-02   0.000E+00   9.890E-01
 257  7.35272974   0.692  -0.94974   3.57924   6.79128   1.23364   0.00000   1.115E-02   0.000E+00   9.889E-01
 258  7.35463854   0.692  -0.95055   3.57928   6.79179   1.23620   0.00000   1.130E-02   0.000E+00   9.887E-01
 259  7.35653898   0.692  -0.95136   3.57932   6.79230   1.23876   0.00000   1.145E-02   0.000E+00   9.885E-01
 260  7.35843114   0.692  -0.95218   3.57935   6.79281   1.24132   0.00000   1.161E-02   0.000E+00   9.884E-01
 261  7.36031509   0.692  -0.95299   3.57939   6.79331   1.24388   0.00000   1.176E-02   0.000E+00   9.882E-01
 262  7.36219090   0.692  -0.95380   3.57943   6.79382   1.24645   0.00000   1.192E-02   0.000E+00   9.881E-01
 263  7.36405865   0.692  -0.95461   3.57946   6.79433   1.24901   0.00000   1.207E-02   0.000E+00   9.879E-01
 264  7.36591840   0.692  -0.95543   3.57950   6.79484   1.25157   0.00000   1.223E-02   0.000E+00   9.878E-01
 265  7.36777022   0.692  -0.95624   3.57953   6.79535   1.25413   0.00000   1.238E-02   0.000E+00   9.876E-01
 266  7.36961418   0.692  -0.95705   3.57957   6.79586   1.25669   0.00000   1.254E-02   0.000E+00   9.875E-01
 267  7.37145034   0.692  -0.95787   3.57961   6.79636   1.25925   0.00000   1.269E-02   0.000E+00   9.873E-01
 268  7.37327877   0.692  -0.95868   3.57964   6.79687   1.26181   0.00000   1.285E-02   0.000E+00   9.872E-01
 269  7.37509953   0.692  -0.95949   3.57968   6.79738   1.26438   0.00000   1.300E-02   0.000E+00   9.870E-01
 270  7.37691270   0.692  -0.96021   3.57972   6.79787   1.26684   0.00000   1.322E-02   0.000E+00   9.868E-01
 271  7.37871832   0.692  -0.96092   3.57976   6.79837   1.26930   0.00000   1.345E-02   0.000E+00   9.866E-01
 272  7.38051647   0.692  -0.96163   3.57980   6.79886   1.27176   0.00000   1.367E-02   0.000E+00   9.863E-01
 273  7.38230721   0.692  -0.96235   3.57985   6.79936   1.27423   0.00000   1.389E-02   0.000E+00   9.861E-01
 274  7.38409059   0.692  -0.96306   3.57989   6.79985   1.27669   0.00000   1.412E-02   0.000E+00   9.859E-01
 275  7.38586668   0.692  -0.96377   3.57993   6.80034   1.27915   0.00000   1.434E-02   0.000E+00   9.857E-01
 276  7.38763553   0.692  -0.96449   3.57997   6.80084   1.28161   0.00000   1.456E-02   0.000E+00   9.854E-01
 277  7.38939721   0.692  -0.96520   3.58001   6.80133   1.28408   0.00000   1.478E-02   0.000E+00   9.852E-01
 278  7.39115177   0.692  -0.96591   3.58005   6.80182   1.28654   0.00000   1.501E-02   0.000E+00   9.850E-01
 279  7.39289927   0.692  -0.96663   3.58010   6.80232   1.28900   0.00000   1.523E-02   0.000E+00   9.848E-01
 280  7.39463977   0.692  -0.96734   3.58014   6.80281   1.29146   0.00000   1.545E-02   0.000E+00   9.845E-01
 281  7.39637332   0.692  -0.96805   3.58018   6.80330   1.29393   0.00000   1.568E-02   0.000E+00   9.843E-01
 282  7.39809998   0.692  -0.96877   3.58022   6.80380   1.29639   0.00000   1.590E-02   0.000E+00   9.841E-01
 283  7.39981980   0.692  -0.96943   3.58027   6.80428   1.29880   0.00000   1.612E-02   0.000E+00   9.839E-01
 284  7.40153284   0.692  -0.97005   3.58032   6.80476   1.30117   0.00000   1.633E-02   0.000E+00   9.837E-01
 285  7.40323914   0.692  -0.97067   3.58036   6.80524   1.30354   0.00000   1.655E-02   0.000E+00   9.835E-01
 286  7.40493877   0.692  -0.97129   3.58041   6.80572   1.30592   0.00000   1.676E-02   0.000E+00   9.832E-01
 287  7.40663177   0.692  -0.97191   3.58046   6.80620   1.30829   0.00000   1.698E-02   0.000E+00   9.830E-01
 288  7.40831820   0.692  -0.97253   3.58051   6.80668   1.31066   0.00000   1.719E-02   0.000E+00   9.828E-01
 289  7.40999811   0.692  -0.97315   3.58056   6.80716   1.31303   0.00000   1.741E-02   0.000E+00   9.826E-01
 290  7.41167154   0.692  -0.97377   3.58061   6.80764   1.31540   0.00000   1.762E-02   0.000E+00   9.824E-01
 291  7.41333855   0.692  -0.97439   3.58066   6.80812   1.31777   0.00000   1.784E-02   0.000E+00   9.822E-01
 292  7.41499919   0.692  -0.97501   3.58071   6.80859   1.32014   0.00000   1.805E-02   0.000E+00   9.819E-01
 293  7.41665350   0.692  -0.97562   3.58075   6.80907   1.32251   0.00000   1.827E-02   0.000E+00   9.817E-01
 294  7.41830153   0.692  -0.97624   3.58080   6.80955   1.32488   0.00000   1.848E-02   0.000E+00   9.815E-01
 295  7.41994333   0.692  -0.97686   3.58085   6.81003   1.32726   0.00000   1.870E-02   0.000E+00   9.813E-01
 296  7.42157895   0.692  -0.97748   3.58090   6.81051   1.32963   0.00000   1.891E-02   0.000E+00   9.811E-01
 297  7.42320843   0.692  -0.97805   3.58095   6.81098   1.33195   0.00000   1.916E-02   0.000E+00   9.808E-01
 298  7.42483182   0.692  -0.97858   3.58101   6.81145   1.33423   0.00000   1.944E-02   0.000E+00   9.806E-01
 299  7.42644917   0.692  -0.97911   3.58106   6.81192   1.33652   0.00000   1.971E-02   0.000E+00   9.803E-01
 300  7.42806051   0.692  -0.97963   3.58112   6.81239   1.33880   0.00000   1.999E-02   0.000E+00   9.800E-01
 301  7.42966590   0.692  -0.98016   3.58117   6.81285   1.34108   0.00000   2.027E-02   0.000E+00   9.797E-01
 302  7.43126537   0.692  -0.98069   3.58123   6.81332   1.34337   0.00000   2.054E-02   0.000E+00   9.795E-01
 303  7.43285898   0.692  -0.98122   3.58128   6.81379   1.34565   0.00000   2.082E-02   0.000E+00   9.792E-01
 304  7.43444676   0.692  -0.98175   3.58134   6.81426   1.34794   0.00000   2.110E-02   0.000E+00   9.789E-01
 305  7.43602875   0.692  -0.98228   3.58139   6.81473   1.35022   0.00000   2.137E-02   0.000E+00   9.786E-01
 306  7.43760501   0.692  -0.98281   3.58145   6.81519   1.35251   0.00000   2.165E-02   0.000E+00   9.784E-01
 307  7.43917556   0.692  -0.98333   3.58150   6.81566   1.35479   0.00000   2.192E-02   0.000E+00   9.781E-01
 308  7.44074046   0.692  -0.98386   3.58156   6.81613   1.35708   0.00000   2.220E-02   0.000E+00   9.778E-01
 309  7.44229973   0.692  -0.98439   3.58162   6.81660   1.35936   0.00000   2.248E-02   0.000E+00   9.775E-01
 310  7.44385343   0.692  -0.98492   3.58167   6.81706   1.36164   0.00000   2.275E-02   0.000E+00   9.772E-01
 311  7.44540159   0.692  -0.98544   3.58173   6.81753   1.36392   0.00000   2.303E-02   0.000E+00   9.770E-01
 312  7.44694425   0.692  -0.98588   3.58179   6.81799   1.36612   0.00000   2.330E-02   0.000E+00   9.767E-01
 313  7.44848145   0.692  -0.98632   3.58185   6.81845   1.36832   0.00000   2.356E-02   0.000E+00   9.764E-01
 314  7.45001323   0.692  -0.98676   3.58191   6.81891   1.37053   0.00000   2.383E-02   0.000E+00   9.762E-01
 315  7.45153962   0.692  -0.98720   3.58197   6.81936   1.37273   0.00000   2.410E-02   0.000E+00   9.759E-01
 316  7.45306067   0.692  -0.98765   3.58203   6.81982   1.37493   0.00000   2.436E-02   0.000E+00   9.756E-01
 317  7.45457641   0.692  -0.98809   3.58209   6.82028   1.37713   0.00000   2.463E-02   0.000E+00   9.754E-01
 318  7.45608688   0.692  -0.98853   3.58216   6.82074   1.37933   0.00000   2.490E-02   0.000E+00   9.751E-01
 319  7.45759211   0.692  -0.98897   3.58222   6.82120   1.38153   0.00000   2.516E-02   0.000E+00   9.748E-01
 320  7.45909214   0.692  -0.98941   3.58228   6.82166   1.38373   0.00000   2.543E-02   0.000E+00   9.746E-01
 321  7.46058701   0.692  -0.98985   3.58234   6.82211   1.38594   0.00000   2.570E-02   0.000E+00   9.743E-01
 322  7.46207676   0.692  -0.99030   3.58240   6.82257   1.38814   0.00000   2.596E-02   0.000E+00   9.740E-01
 323  7.46356141   0.692  -0.99074   3.58246   6.82303   1.39034   0.00000   2.623E-02   0.000E+00   9.738E-01
 324  7.46504100   0.692  -0.99118   3.58252   6.82349   1.39254   0.00000   2.650E-02   0.000E+00   9.735E-01
 325  7.46651557   0.692  -0.99162   3.58259   6.82395   1.39474   0.00000   2.677E-02   0.000E+00   9.732E-01
 326  7.46798515   0.692  -0.99205   3.58265   6.82440   1.39694   0.00000   2.705E-02   0.000E+00   9.730E-01
 327  7.46944977   0.692  -0.99241   3.58272   6.82485   1.39906   0.00000   2.743E-02   0.000E+00   9.726E-01
 328  7.47090947   0.692  -0.99277   3.58278   6.82530   1.40118   0.00000   2.782E-02   0.000E+00   9.722E-01
 329  7.47236428   0.692  -0.99313   3.58285   6.82575   1.40331   0.00000   2.821E-02   0.000E+00   9.718E-01
 330  7.47381423   0.692  -0.99349   3.58292   6.82620   1.40543   0.00000   2.859E-02   0.000E+00   9.714E-01
 331  7.47525936   0.692  -0.99385   3.58299   6.82665   1.40756   0.00000   2.898E-02   0.000E+00   9.710E-01
 332  7.47669969   0.692  -0.99421   3.58306   6.82710   1.40968   0.00000   2.937E-02   0.000E+00   9.706E-01
 333  7.47813527   0.692  -0.99456   3.58313   6.82755   1.41180   0.00000   2.976E-02   0.000E+00   9.702E-01
 334  7.47956611   0.692  -0.99492   3.58320   6.82800   1.41393   0.00000   3.014E-02   0.000E+00   9.699E-01
 335  7.48099226   0.692  -0.99528   3.58326   6.82845   1.41605   0.00000   3.053E-02   0.000E+00   9.695E-01
 336  7.48241374   0.692  -0.99564   3.58333   6.82890   1.41818   0.00000   3.092E-02   0.000E+00   9.691E-01
 337  7.48383058   0.692  -0.99600   3.58340   6.82935   1.42030   0.00000   3.130E-02   0.000E+00   9.687E-01
 338  7.48524281   0.692  -0.99636   3.58347   6.82980   1.42243   0.00000   3.169E-02   0.000E+00   9.683E-01
 339  7.48665047   0.692  -0.99672   3.58354   6.83025   1.42455   0.00000   3.208E-02   0.000E+00   9.679E-01
 340  7.48805358   0.692  -0.99707   3.58361   6.83070   1.42667   0.00000   3.247E-02   0.000E+00   9.675E-01
 341  7.48945216   0.692  -0.99743   3.58367   6.83115   1.42880   0.00000   3.285E-02   0.000E+00   9.671E-01
 342  7.49084627   0.692  -0.99774   3.58375   6.83159   1.43088   0.00000   3.323E-02   0.000E+00   9.668E-01
 343  7.49223590   0.692  -0.99802   3.58382   6.83204   1.43293   0.00000   3.361E-02   0.000E+00   9.664E-01
 344  7.49362111   0.692  -0.99830   3.58389   6.83248   1.43498   0.00000   3.398E-02   0.000E+00   9.660E-01
 345  7.49500191   0.692  -0.99858   3.58397   6.83292   1.43703   0.00000   3.436E-02   0.000E+00   9.656E-01
 346  7.49637834   0.692  -0.99886   3.58404   6.83336   1.43908   0.00000   3.473E-02   0.000E+00   9.653E-01
 347  7.49775042   0.692  -0.99914   3.58411   6.83380   1.44113   0.00000   3.510E-02   0.000E+00   9.649E-01
 348  7.49911818   0.692  -0.99943   3.58419   6.83425   1.44318   0.00000   3.548E-02   0.000E+00   9.645E-01
 349  7.50048164   0.692  -0.99971   3.58426   6.83469   1.44523   0.00000   3.585E-02   0.000E+00   9.641E-01
 350  7.50184083   0.692  -0.99999   3.58433   6.83513   1.44728   0.00000   3.623E-02   0.000E+00   9.638E-01
 351  7.50319579   0.692  -1.00027   3.58441   6.83557   1.44933   0.00000   3.660E-02   0.000E+00   9.634E-01
 352  7.50454653   0.692  -1.00055   3.58448   6.83601   1.45138   0.00000   3.698E-02   0.000E+00   9.630E-01
 353  7.50589308   0.692  -1.00083   3.58456   6.83646   1.45343   0.00000   3.735E-02   0.000E+00   9.626E-01
 354  7.50723547   0.692  -1.00111   3.58463   6.83690   1.45548   0.00000   3.773E-02   0.000E+00   9.623E-01
 355  7.50857373   0.692  -1.00139   3.58470   6.83734   1.45753   0.00000   3.810E-02   0.000E+00   9.619E-01
 356  7.50990787   0.692  -1.00167   3.58478   6.83778   1.45958   0.00000   3.848E-02   0.000E+00   9.615E-01
 357  7.51123793   0.692  -1.00195   3.58485   6.83822   1.46163   0.00000   3.885E-02   0.000E+00   9.611E-01
 358  7.51256392   0.692  -1.00218   3.58493   6.83866   1.46364   0.00000   3.925E-02   0.000E+00   9.607E-01
 359  7.51388588   0.692  -1.00238   3.58501   6.83910   1.46562   0.00000   3.968E-02   0.000E+00   9.603E-01
 360  7.51520383   0.692  -1.00259   3.58509   6.83953   1.46760   0.00000   4.010E-02   0.000E+00   9.599E-01
 361  7.51651779   0.692  -1.00279   3.58517   6.83997   1.46958   0.00000   4.052E-02   0.000E+00   9.595E-01
 362  7.51782779   0.692  -1.00299   3.58525   6.84041   1.47156   0.00000   4.095E-02   0.000E+00   9.591E-01
 363  7.51913385   0.692  -1.00319   3.58533   6.84084   1.47354   0.00000   4.137E-02   0.000E+00   9.586E-01
 364  7.52043599   0.692  -1.00339   3.58541   6.84128   1.47552   0.00000   4.179E-02   0.000E+00   9.582E-01
 365  7.52173424   0.692  -1.00359   3.58550   6.84171   1.47749   0.00000   4.222E-02   0.000E+00   9.578E-01
 366  7.52302862   0.692  -1.00380   3.58558   6.84215   1.47947   0.00000   4.264E-02   0.000E+00   9.574E-01
 367  7.52431915   0.692  -1.00400   3.58566   6.84259   1.48145   0.00000   4.306E-02   0.000E+00   9.569E-01
 368  7.52560586   0.692  -1.00420   3.58574   6.84302   1.48343   0.00000   4.349E-02   0.000E+00   9.565E-01
 369  7.52688877   0.692  -1.00440   3.58582   6.84346   1.48541   0.00000   4.391E-02   0.000E+00   9.561E-01
 370  7.52816790   0.692  -1.00460   3.58590   6.84389   1.48739   0.00000   4.433E-02   0.000E+00   9.557E-01
 371  7.52944328   0.692  -1.00481   3.58598   6.84433   1.48937   0.00000   4.476E-02   0.000E+00   9.552E-01
 372  7.53071492   0.692  -1.00501   3.58606   6.84476   1.49135   0.00000   4.518E-02   0.000E+00   9.548E-01
 373  7.53198284   0.692  -1.00521   3.58614   6.84520   1.49333   0.00000   4.560E-02   0.000E+00   9.544E-01
 374  7.53324708   0.692  -1.00541   3.58623   6.84564   1.49531   0.00000   4.603E-02   0.000E+00   9.540E-01
 375  7.53450765   0.692  -1.00554   3.58631   6.84607   1.49721   0.00000   4.650E-02   0.000E+00   9.535E-01
 376  7.53576456   0.692  -1.00567   3.58640   6.84650   1.49912   0.00000   4.697E-02   0.000E+00   9.530E-01
 377  7.53701786   0.692  -1.00579   3.58649   6.84693   1.50103   0.00000   4.744E-02   0.000E+00   9.526E-01
 378  7.53826754   0.692  -1.00592   3.58657   6.84736   1.50294   0.00000   4.790E-02   0.000E+00   9.521E-01
 379  7.53951364   0.692  -1.00605   3.58666   6.84779   1.50484   0.00000   4.837E-02   0.000E+00   9.516E-01
 380  7.54075617   0.692  -1.00618   3.58675   6.84822   1.50675   0.00000   4.884E-02   0.000E+00   9.512E-01
 381  7.54199516   0.692  -1.00631   3.58684   6.84865   1.50866   0.00000   4.931E-02   0.000E+00   9.507E-01
 382  7.54323063   0.692  -1.00644   3.58692   6.84908   1.51057   0.00000   4.978E-02   0.000E+00   9.502E-01
 383  7.54446259   0.692  -1.00657   3.58701   6.84951   1.51247   0.00000   5.025E-02   0.000E+00   9.498E-01
 384  7.54569106   0.692  -1.00670   3.58710   6.84994   1.51438   0.00000   5.072E-02   0.000E+00   9.493E-01
 385  7.54691607   0.692  -1.00683   3.58719   6.85038   1.51629   0.00000   5.119E-02   0.000E+00   9.488E-01
 386  7.54813764   0.692  -1.00696   3.58727   6.85081   1.51819   0.00000   5.166E-02   0.000E+00   9.483E-01
 387  7.54935578   0.692  -1.00708   3.58736   6.85124   1.52010   0.00000   5.212E-02   0.000E+00   9.479E-01
 388  7.55057051   0.692  -1.00721   3.58745   6.85167   1.52201   0.00000   5.259E-02   0.000E+00   9.474E-01
 389  7.55178185   0.692  -1.00734   3.58754   6.85210   1.52392   0.00000   5.306E-02   0.000E+00   9.469E-01
 390  7.55298982   0.692  -1.00747   3.58762   6.85253   1.52582   0.00000   5.353E-02   0.000E+00   9.465E-01
 391  7.55419445   0.692  -1.00760   3.58771   6.85296   1.52773   0.00000   5.400E-02   0.000E+00   9.460E-01
 392  7.56228037   0.692  -1.00800   3.58834   6.85585   1.54021   0.00000   5.747E-02   0.000E+00   9.425E-01
 393  7.57021849   0.692  -1.00841   3.58897   6.85874   1.55269   0.00000   6.094E-02   0.000E+00   9.391E-01
 394  7.57801411   0.692  -1.00865   3.58961   6.86162   1.56498   0.00000   6.468E-02   0.000E+00   9.353E-01
 395  7.58567227   0.692  -1.00863   3.59027   6.86449   1.57700   0.00000   6.881E-02   0.000E+00   9.312E-01
 396  7.59319772   0.692  -1.00862   3.59093   6.86735   1.58901   0.00000   7.294E-02   0.000E+00   9.271E-01
 397  7.60059499   0.692  -1.00830   3.59162   6.87020   1.60068   0.00000   7.758E-02   0.000E+00   9.224E-01
 398  7.60786837   0.692  -1.00786   3.59231   6.87305   1.61224   0.00000   8.240E-02   0.000E+00   9.176E-01
 399  7.61502194   0.692  -1.00741   3.59301   6.87589   1.62377   0.00000   8.722E-02   0.000E+00   9.128E-01
 400  7.62205958   0.692  -1.00658   3.59374   6.87871   1.63487   0.00000   9.199E-02   0.000E+00   9.080E-01
 401  7.62898500   0.692  -1.00574   3.59447   6.88153   1.64596   0.00000   9.677E-02   0.000E+00   9.032E-01
 402  7.63580172   0.692  -1.00479   3.59521   6.88434   1.65691   0.00000   1.019E-01   0.000E+00   8.981E-01
 403  7.64251309   0.692  -1.00356   3.59598   6.88714   1.66756   0.00000   1.076E-01   0.000E+00   8.924E-01
 404  7.64912233   0.692  -1.00234   3.59675   6.88995   1.67821   0.00000   1.134E-01   0.000E+00   8.866E-01
 405  7.65563248   0.692  -1.00090   3.59755   6.89274   1.68859   0.00000   1.195E-01   0.000E+00   8.805E-01
 406  7.66204649   0.692  -0.99930   3.59836   6.89553   1.69877   0.00000   1.260E-01   0.000E+00   8.740E-01
 407  7.66836715   0.692  -0.99770   3.59917   6.89831   1.70895   0.00000   1.324E-01   0.000E+00   8.676E-01
 408  7.67459714   0.692  -0.99581   3.60002   6.90109   1.71877   0.00000   1.390E-01   0.000E+00   8.610E-01
 409  7.68073902   0.692  -0.99383   3.60088   6.90387   1.72846   0.00000   1.458E-01   0.000E+00   8.542E-01
 410  7.68679525   0.692  -0.99185   3.60174   6.90664   1.73816   0.00000   1.525E-01   0.000E+00   8.475E-01
 411  7.69276818   0.692  -0.98952   3.60263   6.90929   1.74725   0.00000   1.594E-01   0.000E+00   8.406E-01
 412  7.69866009   0.692  -0.98706   3.60353   6.91193   1.75612   0.00000   1.665E-01   0.000E+00   8.335E-01
 413  7.70447312   0.692  -0.98446   3.60446   6.91456   1.76483   0.00000   1.737E-01   0.000E+00   8.263E-01
 414  7.71020938   0.692  -0.98179   3.60540   6.91719   1.77336   0.00000   1.808E-01   0.000E+00   8.192E-01
 415  7.71587086   0.692  -0.97903   3.60636   6.91981   1.78175   0.00000   1.889E-01   0.000E+00   8.111E-01
 416  7.72145948   0.692  -0.97623   3.60732   6.92244   1.78996   0.00000   1.962E-01   0.000E+00   8.038E-01
 417  7.72697710   0.692  -0.97338   3.60829   6.92506   1.79804   0.00000   2.047E-01   0.000E+00   7.953E-01
 418  7.73242550   0.692  -0.97048   3.60926   6.92768   1.80592   0.00000   2.123E-01   0.000E+00   7.877E-01
 419  7.73780639   0.692  -0.96757   3.61025   6.93030   1.81364   0.00000   2.210E-01   0.000E+00   7.790E-01
 420  7.74312143   0.692  -0.96466   3.61123   6.93291   1.82120   0.00000   2.297E-01   0.000E+00   7.703E-01
 421  7.74837221   0.692  -0.96176   3.61220   6.93552   1.82858   0.00000   2.385E-01   0.000E+00   7.615E-01
 422  7.75356026   0.692  -0.95887   3.61317   6.93813   1.83580   0.00000   2.481E-01   0.000E+00   7.519E-01
 423  7.75868706   0.692  -0.95604   3.61413   6.94075   1.84282   0.00000   2.572E-01   0.000E+00   7.428E-01
 424  7.76375405   0.692  -0.95322   3.61509   6.94336   1.84966   0.00000   2.671E-01   0.000E+00   7.329E-01
 425  7.76876261   0.692  -0.95045   3.61603   6.94596   1.85631   0.00000   2.769E-01   0.000E+00   7.231E-01
 426  7.77371406   0.692  -0.94774   3.61696   6.94857   1.86278   0.00000   2.873E-01   0.000E+00   7.127E-01
 427  7.77860969   0.692  -0.94511   3.61788   6.95118   1.86905   0.00000   2.980E-01   0.000E+00   7.020E-01
 428  7.78345075   0.692  -0.94253   3.61878   6.95379   1.87509   0.00000   3.087E-01   0.000E+00   6.913E-01
 429  7.78823844   0.692  -0.93996   3.61967   6.95640   1.88089   0.00000   3.204E-01   0.000E+00   6.796E-01
 430  7.79297393   0.692  -0.93751   3.62055   6.95902   1.88646   0.00000   3.318E-01   0.000E+00   6.682E-01
 431  7.79765834   0.692  -0.93509   3.62142   6.96165   1.89180   0.00000   3.439E-01   0.000E+00   6.561E-01
 432  7.80229276   0.692  -0.93280   3.62226   6.96429   1.89687   0.00000   3.562E-01   0.000E+00   6.436E-01
 433  7.80687824   0.692  -0.93056   3.62309   6.96695   1.90169   0.00000   3.692E-01   0.000E+00   6.303E-01
 434  7.81141582   0.692  -0.92846   3.62389   6.96958   1.90617   0.00000   3.825E-01   0.000E+00   6.170E-01
 435  7.81590648   0.692  -0.92643   3.62467   6.97225   1.91034   0.00000   3.962E-01   0.000E+00   6.028E-01
 436  7.82035118   0.692  -0.92451   3.62544   6.97499   1.91427   0.00000   4.111E-01   0.000E+00   5.885E-01
 437  7.82475085   0.692  -0.92279   3.62616   6.97777   1.91785   0.00000   4.260E-01   0.000E+00   5.734E-01
 438  7.82910639   0.692  -0.92114   3.62687   6.98060   1.92106   0.00000   4.416E-01   4.325E-04   5.574E-01
 439  7.83341869   0.692  -0.91954   3.62757   6.98343   1.92388   0.00004   4.581E-01   1.000E-03   5.409E-01
 440  7.83768859   0.692  -0.91809   3.62823   6.98623   1.92626   0.00031   4.749E-01   1.000E-03   5.241E-01
 441  7.84191692   0.692  -0.91690   3.62885   6.98905   1.92840   0.00172   4.933E-01   1.000E-03   5.057E-01
 442  7.84610447   0.692  -0.91584   3.62943   6.99177   1.93021   0.00398   5.126E-01   1.000E-03   4.864E-01
 443  7.85025204   0.692  -0.91484   3.63001   6.99444   1.93188   0.00651   5.323E-01   1.000E-03   4.667E-01
 444  7.85436036   0.692  -0.91417   3.63052   6.99690   1.93306   0.00854   5.532E-01   1.000E-03   4.458E-01
 445  7.85843019   0.692  -0.91355   3.63101   6.99932   1.93417   0.01069   5.742E-01   1.000E-03   4.248E-01
 446  7.86246224   0.692  -0.91348   3.63139   7.00144   1.93456   0.01393   5.963E-01   1.000E-03   4.023E-01
 447  7.86645719   0.692  -0.91340   3.63176   7.00357   1.93495   0.01716   6.184E-01   1.000E-03   3.799E-01
 448  7.87041573   0.691  -0.91348   3.63211   7.00560   1.93519   0.02031   6.406E-01   1.036E-03   3.574E-01
 449  7.87433852   0.691  -0.91433   3.63228   7.00721   1.93464   0.02301   6.630E-01   1.263E-03   3.350E-01
 450  7.87822618   0.691  -0.91519   3.63245   7.00881   1.93408   0.02571   6.855E-01   1.489E-03   3.125E-01
 451  7.88207936   0.691  -0.91605   3.63262   7.01041   1.93353   0.02842   7.079E-01   1.716E-03   2.901E-01
 452  7.88589865   0.691  -0.91690   3.63280   7.01202   1.93297   0.03112   7.303E-01   1.943E-03   2.677E-01
 453  7.88968464   0.691  -0.91809   3.63288   7.01339   1.93145   0.03534   7.642E-01   2.000E-03   2.338E-01
 454  7.89343792   0.691  -0.91939   3.63292   7.01469   1.92960   0.04007   8.018E-01   2.000E-03   1.962E-01
 455  7.89715903   0.691  -0.92086   3.63293   7.01591   1.92765   0.04434   8.358E-01   2.268E-03   1.620E-01
 456  7.90084854   0.691  -0.92257   3.63289   7.01701   1.92556   0.04794   8.644E-01   2.919E-03   1.327E-01
 457  7.90450696   0.692  -0.92453   3.63279   7.01796   1.92341   0.05046   8.874E-01   3.000E-03   1.096E-01
 458  7.90813482   0.692  -0.92670   3.63265   7.01878   1.92128   0.05310   9.052E-01   3.000E-03   9.189E-02
 459  7.91173263   0.692  -0.92908   3.63247   7.01949   1.91914   0.05611   9.218E-01   3.000E-03   7.505E-02
 460  7.91530088   0.692  -0.93164   3.63223   7.02006   1.91692   0.05669   9.398E-01   3.000E-03   5.668E-02
 461  7.91884005   0.691  -0.93441   3.63196   7.02058   1.91478   0.05752   9.537E-01   3.000E-03   4.296E-02
 462  7.92235061   0.691  -0.93733   3.63166   7.02100   1.91273   0.05945   9.628E-01   3.000E-03   3.345E-02
 463  7.92583302   0.691  -0.94039   3.63132   7.02135   1.91075   0.05945   9.733E-01   3.000E-03   2.299E-02
 464  7.92928773   0.691  -0.94356   3.63094   7.02162   1.90882   0.05945   9.841E-01   3.000E-03   1.243E-02
 465  7.93271517   0.691  -0.94682   3.63055   7.02184   1.90696   0.05945   9.937E-01   3.337E-03   3.040E-03
 466  7.93611578   0.691  -0.95015   3.63013   7.02200   1.90516   0.05945   1.002E+00   4.000E-03  -5.332E-03
 467  7.93948997   0.691  -0.95354   3.62970   7.02211   1.90345   0.05945   1.009E+00   4.000E-03  -1.270E-02
 468  7.94283814   0.691  -0.95695   3.62925   7.02217   1.90180   0.05945   1.015E+00   4.000E-03  -1.930E-02
 469  7.94616070   0.691  -0.96037   3.62879   7.02219   1.90023   0.05945   1.021E+00   4.000E-03  -2.512E-02
 470  7.94945803   0.691  -0.96378   3.62833   7.02217   1.89876   0.05945   1.026E+00   4.000E-03  -3.026E-02
 471  7.95273052   0.691  -0.96716   3.62786   7.02213   1.89737   0.05945   1.031E+00   4.000E-03  -3.470E-02
 472  7.95597853   0.691  -0.97050   3.62739   7.02206   1.89606   0.05901   1.035E+00   4.000E-03  -3.874E-02
 473  7.95920243   0.691  -0.97375   3.62691   7.02196   1.89484   0.05669   1.039E+00   4.000E-03  -4.196E-02
 474  7.96240257   0.691  -0.97693   3.62646   7.02184   1.89371   0.05669   1.041E+00   4.000E-03  -4.454E-02
 475  7.96557931   0.691  -0.98001   3.62600   7.02170   1.89266   0.05669   1.043E+00   4.000E-03  -4.670E-02
 476  7.96873297   0.691  -0.98298   3.62555   7.02155   1.89170   0.05525   1.045E+00   4.000E-03  -4.857E-02
 477  7.97186391   0.691  -0.98584   3.62511   7.02138   1.89082   0.05392   1.046E+00   4.000E-03  -4.979E-02
 478  7.97497243   0.691  -0.98854   3.62470   7.02120   1.89002   0.05392   1.047E+00   4.000E-03  -5.070E-02
 479  7.97805886   0.691  -0.99112   3.62430   7.02102   1.88929   0.05392   1.048E+00   4.000E-03  -5.129E-02
 480  7.98112351   0.691  -0.99356   3.62391   7.02083   1.88863   0.05116   1.048E+00   4.000E-03  -5.180E-02
 481  7.98416668   0.691  -0.99583   3.62355   7.02064   1.88804   0.05116   1.048E+00   4.000E-03  -5.156E-02
 482  7.98718868   0.691  -0.99795   3.62321   7.02044   1.88752   0.05116   1.048E+00   4.000E-03  -5.127E-02
 483  7.99018980   0.691  -0.99990   3.62288   7.02024   1.88705   0.05009   1.047E+00   4.000E-03  -5.077E-02
 484  7.99317032   0.691  -1.00165   3.62259   7.02004   1.88664   0.04839   1.047E+00   4.000E-03  -4.993E-02
 485  7.99613052   0.691  -1.00326   3.62232   7.01984   1.88629   0.04839   1.046E+00   3.754E-03  -4.876E-02
 486  7.99907069   0.691  -1.00473   3.62207   7.01965   1.88599   0.04821   1.044E+00   3.000E-03  -4.759E-02
 487  8.00199108   0.691  -1.00602   3.62184   7.01947   1.88573   0.04616   1.043E+00   3.000E-03  -4.633E-02
 488  8.00489197   0.691  -1.00717   3.62164   7.01929   1.88552   0.04563   1.042E+00   3.000E-03  -4.480E-02
 489  8.00777361   0.691  -1.00823   3.62145   7.01911   1.88533   0.04563   1.040E+00   3.000E-03  -4.320E-02
 490  8.01063625   0.691  -1.00911   3.62128   7.01894   1.88520   0.04563   1.038E+00   3.000E-03  -4.166E-02
 491  8.01348015   0.691  -1.00991   3.62113   7.01877   1.88508   0.04517   1.036E+00   3.000E-03  -4.015E-02
 492  8.01630554   0.691  -1.01056   3.62100   7.01861   1.88499   0.04394   1.035E+00   3.000E-03  -3.869E-02
 493  8.01911268   0.691  -1.01117   3.62087   7.01845   1.88492   0.04286   1.034E+00   3.000E-03  -3.721E-02
 494  8.02190178   0.691  -1.01156   3.62078   7.01832   1.88489   0.04286   1.032E+00   3.000E-03  -3.552E-02
 495  8.02467309   0.691  -1.01195   3.62070   7.01818   1.88487   0.04286   1.031E+00   3.000E-03  -3.384E-02
 496  8.02742683   0.691  -1.01232   3.62061   7.01805   1.88485   0.04284   1.029E+00   3.000E-03  -3.216E-02
 497  8.03016321   0.691  -1.01244   3.62057   7.01794   1.88486   0.04225   1.028E+00   3.000E-03  -3.089E-02
 498  8.03288247   0.691  -1.01255   3.62052   7.01783   1.88488   0.04165   1.026E+00   3.000E-03  -2.962E-02
 499  8.03558480   0.691  -1.01267   3.62048   7.01772   1.88489   0.04106   1.025E+00   3.000E-03  -2.834E-02
 500  8.03827042   0.691  -1.01278   3.62044   7.01762   1.88490   0.04046   1.024E+00   3.000E-03  -2.707E-02
 501  8.04093953   0.691  -1.01281   3.62041   7.01752   1.88492   0.03998   1.023E+00   3.000E-03  -2.588E-02
 502  8.04359235   0.691  -1.01273   3.62040   7.01744   1.88496   0.03968   1.022E+00   3.000E-03  -2.481E-02
 503  8.04622905   0.691  -1.01264   3.62040   7.01737   1.88500   0.03938   1.021E+00   3.000E-03  -2.375E-02
 504  8.04884985   0.691  -1.01255   3.62039   7.01729   1.88504   0.03908   1.020E+00   3.000E-03  -2.268E-02
 505  8.05145492   0.691  -1.01246   3.62038   7.01721   1.88507   0.03878   1.019E+00   3.000E-03  -2.162E-02
 506  8.05404446   0.691  -1.01237   3.62038   7.01714   1.88511   0.03848   1.018E+00   3.000E-03  -2.055E-02
 507  8.05661865   0.691  -1.01228   3.62037   7.01706   1.88515   0.03818   1.017E+00   3.000E-03  -1.949E-02
 508  8.05917767   0.691  -1.01216   3.62037   7.01700   1.88517   0.03790   1.016E+00   3.000E-03  -1.869E-02
 509  8.06172171   0.691  -1.01201   3.62038   7.01695   1.88518   0.03764   1.015E+00   3.000E-03  -1.823E-02
 510  8.06425092   0.691  -1.01185   3.62039   7.01690   1.88519   0.03737   1.015E+00   3.000E-03  -1.777E-02
 511  8.06676550   0.691  -1.01170   3.62040   7.01685   1.88520   0.03711   1.014E+00   3.000E-03  -1.731E-02
 512  8.06926559   0.691  -1.01155   3.62041   7.01680   1.88521   0.03684   1.014E+00   3.000E-03  -1.685E-02
 513  8.07175138   0.691  -1.01139   3.62042   7.01675   1.88522   0.03658   1.013E+00   3.000E-03  -1.639E-02
 514  8.07422302   0.691  -1.01124   3.62043   7.01670   1.88523   0.03631   1.013E+00   3.000E-03  -1.593E-02
 515  8.07668067   0.691  -1.01109   3.62044   7.01665   1.88523   0.03605   1.012E+00   3.000E-03  -1.547E-02
 516  8.07912450   0.691  -1.01093   3.62045   7.01660   1.88524   0.03578   1.012E+00   3.000E-03  -1.501E-02
 517  8.08155465   0.691  -1.01078   3.62046   7.01655   1.88525   0.03552   1.011E+00   3.000E-03  -1.455E-02
 518  8.08397127   0.691  -1.01063   3.62047   7.01650   1.88526   0.03525   1.011E+00   3.000E-03  -1.409E-02
 519  8.08637453   0.691  -1.01051   3.62048   7.01646   1.88525   0.03504   1.011E+00   3.000E-03  -1.389E-02
 520  8.08876455   0.691  -1.01040   3.62049   7.01642   1.88523   0.03483   1.011E+00   3.000E-03  -1.368E-02
 521  8.09114150   0.691  -1.01028   3.62049   7.01638   1.88522   0.03462   1.010E+00   3.000E-03  -1.347E-02
 522  8.09350551   0.691  -1.01017   3.62050   7.01635   1.88520   0.03440   1.010E+00   3.000E-03  -1.327E-02
 523  8.09585672   0.691  -1.01005   3.62051   7.01631   1.88519   0.03419   1.010E+00   3.000E-03  -1.306E-02
 524  8.09819527   0.691  -1.00994   3.62052   7.01627   1.88518   0.03398   1.010E+00   3.000E-03  -1.285E-02
 525  8.10052129   0.691  -1.00983   3.62052   7.01623   1.88516   0.03377   1.009E+00   3.000E-03  -1.264E-02
 526  8.10283492   0.691  -1.00971   3.62053   7.01619   1.88515   0.03355   1.009E+00   3.000E-03  -1.244E-02
 527  8.10513630   0.691  -1.00960   3.62054   7.01615   1.88514   0.03334   1.009E+00   3.000E-03  -1.223E-02
 528  8.10742554   0.691  -1.00948   3.62055   7.01612   1.88512   0.03313   1.009E+00   3.000E-03  -1.202E-02
 529  8.10970277   0.691  -1.00937   3.62055   7.01608   1.88511   0.03292   1.008E+00   3.000E-03  -1.181E-02
 530  8.11196813   0.691  -1.00925   3.62056   7.01604   1.88509   0.03270   1.008E+00   3.000E-03  -1.161E-02
 531  8.11422174   0.691  -1.00914   3.62057   7.01600   1.88508   0.03249   1.008E+00   3.000E-03  -1.140E-02
 532  8.11646371   0.691  -1.00909   3.62057   7.01596   1.88504   0.03225   1.008E+00   3.000E-03  -1.140E-02
 533  8.11869416   0.691  -1.00904   3.62057   7.01592   1.88500   0.03201   1.008E+00   3.000E-03  -1.140E-02
 534  8.12091322   0.691  -1.00899   3.62057   7.01588   1.88497   0.03178   1.008E+00   3.000E-03  -1.140E-02
 535  8.12312100   0.691  -1.00894   3.62057   7.01585   1.88493   0.03154   1.008E+00   3.000E-03  -1.140E-02
 536  8.12531761   0.691  -1.00890   3.62056   7.01581   1.88489   0.03130   1.008E+00   3.000E-03  -1.140E-02
 537  8.12750317   0.691  -1.00885   3.62056   7.01577   1.88485   0.03106   1.008E+00   3.000E-03  -1.140E-02
 538  8.12967778   0.691  -1.00880   3.62056   7.01573   1.88481   0.03082   1.008E+00   3.000E-03  -1.140E-02
 539  8.13184156   0.691  -1.00875   3.62056   7.01569   1.88478   0.03058   1.008E+00   3.000E-03  -1.140E-02
 540  8.13399461   0.691  -1.00870   3.62056   7.01565   1.88474   0.03034   1.009E+00   3.000E-03  -1.140E-02
 541  8.13613704   0.691  -1.00865   3.62056   7.01562   1.88470   0.03011   1.009E+00   3.000E-03  -1.140E-02
 542  8.13826896   0.691  -1.00860   3.62056   7.01558   1.88466   0.02987   1.009E+00   3.000E-03  -1.140E-02
 543  8.14039046   0.691  -1.00855   3.62056   7.01554   1.88463   0.02963   1.009E+00   3.000E-03  -1.140E-02
 544  8.14250164   0.691  -1.00851   3.62056   7.01550   1.88459   0.02939   1.009E+00   3.000E-03  -1.140E-02
 545  8.14460262   0.691  -1.00846   3.62055   7.01546   1.88455   0.02915   1.009E+00   3.000E-03  -1.140E-02
 546  8.14669347   0.691  -1.00841   3.62055   7.01542   1.88451   0.02891   1.009E+00   3.000E-03  -1.140E-02
 547  8.14877431   0.691  -1.00836   3.62055   7.01538   1.88447   0.02868   1.009E+00   3.000E-03  -1.140E-02
 548  8.15084523   0.691  -1.00831   3.62055   7.01535   1.88444   0.02844   1.009E+00   3.000E-03  -1.140E-02
 549  8.15290632   0.691  -1.00829   3.62055   7.01530   1.88439   0.02822   1.009E+00   3.000E-03  -1.141E-02
 550  8.15495767   0.691  -1.00828   3.62054   7.01526   1.88435   0.02801   1.009E+00   3.000E-03  -1.143E-02
 551  8.15699938   0.691  -1.00828   3.62053   7.01522   1.88430   0.02780   1.009E+00   3.000E-03  -1.145E-02
 552  8.15903154   0.691  -1.00827   3.62052   7.01518   1.88426   0.02759   1.009E+00   3.000E-03  -1.147E-02
 553  8.16105423   0.691  -1.00827   3.62052   7.01513   1.88421   0.02738   1.009E+00   3.000E-03  -1.149E-02
 554  8.16306755   0.691  -1.00826   3.62051   7.01509   1.88417   0.02718   1.009E+00   3.000E-03  -1.151E-02
 555  8.16507157   0.690  -1.00825   3.62050   7.01505   1.88412   0.02697   1.009E+00   3.000E-03  -1.153E-02
 556  8.16706639   0.690  -1.00825   3.62049   7.01501   1.88408   0.02676   1.009E+00   3.000E-03  -1.155E-02
 557  8.16905209   0.690  -1.00824   3.62049   7.01496   1.88403   0.02655   1.009E+00   3.000E-03  -1.156E-02
 558  8.17102875   0.690  -1.00824   3.62048   7.01492   1.88399   0.02634   1.009E+00   3.000E-03  -1.158E-02
 559  8.17299646   0.690  -1.00823   3.62047   7.01488   1.88394   0.02613   1.009E+00   3.000E-03  -1.160E-02
 560  8.17495529   0.690  -1.00823   3.62047   7.01484   1.88390   0.02593   1.009E+00   3.000E-03  -1.162E-02
 561  8.17690532   0.690  -1.00822   3.62046   7.01479   1.88385   0.02572   1.009E+00   3.000E-03  -1.164E-02
 562  8.17884664   0.690  -1.00822   3.62045   7.01475   1.88381   0.02551   1.009E+00   3.000E-03  -1.166E-02
 563  8.18077932   0.690  -1.00821   3.62044   7.01471   1.88376   0.02530   1.009E+00   3.000E-03  -1.168E-02
 564  8.18270343   0.690  -1.00821   3.62044   7.01467   1.88372   0.02509   1.009E+00   3.000E-03  -1.170E-02
 565  8.18461906   0.690  -1.00820   3.62043   7.01462   1.88367   0.02488   1.009E+00   3.000E-03  -1.172E-02
 566  8.18652628   0.690  -1.00820   3.62042   7.01458   1.88363   0.02467   1.009E+00   3.000E-03  -1.174E-02
 567  8.18842516   0.690  -1.00819   3.62041   7.01454   1.88358   0.02447   1.009E+00   3.000E-03  -1.176E-02
 568  8.19031577   0.690  -1.00818   3.62041   7.01450   1.88353   0.02426   1.009E+00   3.000E-03  -1.178E-02
 569  8.19219819   0.690  -1.00818   3.62040   7.01445   1.88349   0.02405   1.009E+00   3.000E-03  -1.179E-02
 570  8.19407248   0.690  -1.00817   3.62039   7.01441   1.88344   0.02384   1.009E+00   3.000E-03  -1.181E-02
 571  8.19593872   0.690  -1.00817   3.62039   7.01437   1.88340   0.02363   1.009E+00   3.000E-03  -1.183E-02
 572  8.19779697   0.690  -1.00816   3.62038   7.01433   1.88335   0.02342   1.009E+00   3.000E-03  -1.185E-02
 573  8.19964730   0.690  -1.00816   3.62037   7.01428   1.88331   0.02322   1.009E+00   3.000E-03  -1.187E-02
 574  8.20148979   0.690  -1.00815   3.62036   7.01424   1.88326   0.02301   1.009E+00   3.000E-03  -1.189E-02
 575  8.20332449   0.690  -1.00815   3.62036   7.01420   1.88322   0.02282   1.009E+00   2.988E-03  -1.190E-02
 576  8.20515148   0.690  -1.00816   3.62035   7.01416   1.88317   0.02266   1.009E+00   2.962E-03  -1.190E-02
 577  8.20697081   0.690  -1.00817   3.62034   7.01411   1.88313   0.02250   1.009E+00   2.937E-03  -1.191E-02
 578  8.20878255   0.690  -1.00817   3.62033   7.01407   1.88308   0.02233   1.009E+00   2.911E-03  -1.191E-02
 579  8.21058676   0.690  -1.00818   3.62032   7.01402   1.88304   0.02217   1.009E+00   2.886E-03  -1.191E-02
 580  8.21238351   0.690  -1.00819   3.62031   7.01398   1.88299   0.02201   1.009E+00   2.860E-03  -1.191E-02
 581  8.21417286   0.690  -1.00819   3.62030   7.01394   1.88294   0.02184   1.009E+00   2.835E-03  -1.192E-02
 582  8.21595486   0.690  -1.00820   3.62029   7.01389   1.88290   0.02168   1.009E+00   2.809E-03  -1.192E-02
 583  8.21772958   0.690  -1.00821   3.62028   7.01385   1.88285   0.02152   1.009E+00   2.783E-03  -1.192E-02
 584  8.21949708   0.690  -1.00822   3.62027   7.01381   1.88281   0.02135   1.009E+00   2.758E-03  -1.192E-02
 585  8.22125742   0.690  -1.00822   3.62026   7.01376   1.88276   0.02119   1.009E+00   2.732E-03  -1.193E-02
 586  8.22301065   0.690  -1.00823   3.62025   7.01372   1.88272   0.02103   1.009E+00   2.707E-03  -1.193E-02
 587  8.22475683   0.690  -1.00824   3.62025   7.01368   1.88267   0.02086   1.009E+00   2.681E-03  -1.193E-02
 588  8.22649602   0.690  -1.00824   3.62024   7.01363   1.88262   0.02070   1.009E+00   2.656E-03  -1.193E-02
 589  8.22822827   0.690  -1.00825   3.62023   7.01359   1.88258   0.02054   1.009E+00   2.630E-03  -1.194E-02
 590  8.22995363   0.690  -1.00826   3.62022   7.01354   1.88253   0.02037   1.009E+00   2.605E-03  -1.194E-02
 591  8.23167217   0.690  -1.00826   3.62021   7.01350   1.88249   0.02021   1.009E+00   2.579E-03  -1.194E-02
 592  8.23338394   0.690  -1.00827   3.62020   7.01346   1.88244   0.02005   1.009E+00   2.554E-03  -1.194E-02
 593  8.23508899   0.690  -1.00828   3.62019   7.01341   1.88240   0.01988   1.009E+00   2.528E-03  -1.195E-02
 594  8.23678737   0.690  -1.00828   3.62018   7.01337   1.88235   0.01972   1.009E+00   2.503E-03  -1.195E-02
 595  8.23847913   0.690  -1.00829   3.62017   7.01333   1.88230   0.01956   1.010E+00   2.477E-03  -1.195E-02
 596  8.24016433   0.690  -1.00830   3.62016   7.01328   1.88226   0.01940   1.010E+00   2.452E-03  -1.195E-02
 597  8.24184301   0.690  -1.00830   3.62015   7.01324   1.88221   0.01923   1.010E+00   2.426E-03  -1.196E-02
 598  8.24351523   0.690  -1.00831   3.62014   7.01319   1.88217   0.01907   1.010E+00   2.400E-03  -1.196E-02
 599  8.24518104   0.690  -1.00832   3.62013   7.01315   1.88212   0.01891   1.010E+00   2.375E-03  -1.196E-02
 600  8.24684048   0.690  -1.00833   3.62013   7.01311   1.88208   0.01874   1.010E+00   2.349E-03  -1.197E-02
 601  8.24849361   0.690  -1.00833   3.62012   7.01306   1.88203   0.01858   1.010E+00   2.324E-03  -1.197E-02
 602  8.25014046   0.690  -1.00834   3.62011   7.01302   1.88198   0.01842   1.010E+00   2.298E-03  -1.197E-02
 603  8.25178110   0.690  -1.00835   3.62010   7.01298   1.88194   0.01825   1.010E+00   2.273E-03  -1.197E-02
 604  8.25341556   0.690  -1.00835   3.62009   7.01293   1.88189   0.01809   1.010E+00   2.247E-03  -1.198E-02
 605  8.25504389   0.690  -1.00836   3.62008   7.01289   1.88185   0.01793   1.010E+00   2.222E-03  -1.198E-02
 606  8.25666614   0.690  -1.00837   3.62007   7.01285   1.88180   0.01776   1.010E+00   2.196E-03  -1.198E-02
 607  8.25828235   0.690  -1.00837   3.62006   7.01280   1.88176   0.01760   1.010E+00   2.171E-03  -1.198E-02
 608  8.25989257   0.690  -1.00838   3.62005   7.01276   1.88171   0.01744   1.010E+00   2.145E-03  -1.199E-02
 609  8.26149685   0.690  -1.00839   3.62004   7.01271   1.88166   0.01727   1.010E+00   2.120E-03  -1.199E-02
 610  8.26309521   0.690  -1.00839   3.62003   7.01267   1.88162   0.01711   1.010E+00   2.094E-03  -1.199E-02
 611  8.26468772   0.690  -1.00840   3.62002   7.01263   1.88157   0.01695   1.010E+00   2.069E-03  -1.199E-02
 612  8.26627441   0.690  -1.00841   3.62002   7.01258   1.88153   0.01678   1.010E+00   2.043E-03  -1.200E-02
 613  8.26785532   0.690  -1.00842   3.62001   7.01254   1.88148   0.01662   1.010E+00   2.017E-03  -1.200E-02
 614  8.26943050   0.690  -1.00842   3.62000   7.01250   1.88144   0.01648   1.010E+00   2.000E-03  -1.199E-02
 615  8.27099999   0.690  -1.00842   3.61999   7.01246   1.88141   0.01638   1.010E+00   2.000E-03  -1.195E-02
 616  8.27256382   0.690  -1.00842   3.61998   7.01243   1.88138   0.01628   1.010E+00   2.000E-03  -1.190E-02
 617  8.27412205   0.690  -1.00843   3.61998   7.01239   1.88135   0.01618   1.010E+00   2.000E-03  -1.186E-02
 618  8.27567470   0.690  -1.00843   3.61997   7.01235   1.88132   0.01608   1.010E+00   2.000E-03  -1.182E-02
 619  8.27722182   0.690  -1.00843   3.61996   7.01232   1.88129   0.01599   1.010E+00   2.000E-03  -1.178E-02
 620  8.27876345   0.690  -1.00843   3.61996   7.01228   1.88126   0.01589   1.010E+00   2.000E-03  -1.174E-02
 621  8.28029963   0.690  -1.00843   3.61995   7.01224   1.88123   0.01579   1.010E+00   2.000E-03  -1.170E-02
 622  8.28183039   0.690  -1.00843   3.61994   7.01221   1.88121   0.01569   1.010E+00   2.000E-03  -1.165E-02
 623  8.28335578   0.690  -1.00844   3.61993   7.01217   1.88118   0.01559   1.010E+00   2.000E-03  -1.161E-02
 624  8.28487582   0.690  -1.00844   3.61993   7.01213   1.88115   0.01549   1.009E+00   2.000E-03  -1.157E-02
 625  8.28639057   0.690  -1.00844   3.61992   7.01210   1.88112   0.01539   1.009E+00   2.000E-03  -1.153E-02
 626  8.28790005   0.690  -1.00844   3.61991   7.01206   1.88109   0.01530   1.009E+00   2.000E-03  -1.149E-02
 627  8.28940430   0.690  -1.00844   3.61991   7.01202   1.88106   0.01520   1.009E+00   2.000E-03  -1.145E-02
 628  8.29090336   0.690  -1.00844   3.61990   7.01199   1.88103   0.01510   1.009E+00   2.000E-03  -1.141E-02
 629  8.29239726   0.690  -1.00845   3.61989   7.01195   1.88100   0.01500   1.009E+00   2.000E-03  -1.136E-02
 630  8.29388605   0.690  -1.00845   3.61989   7.01192   1.88097   0.01490   1.009E+00   2.000E-03  -1.132E-02
 631  8.29536974   0.690  -1.00845   3.61988   7.01188   1.88094   0.01480   1.009E+00   2.000E-03  -1.128E-02
 632  8.29684839   0.690  -1.00845   3.61987   7.01184   1.88091   0.01470   1.009E+00   2.000E-03  -1.124E-02
 633  8.29832201   0.690  -1.00845   3.61987   7.01181   1.88088   0.01461   1.009E+00   2.000E-03  -1.120E-02
 634  8.29979066   0.690  -1.00845   3.61986   7.01177   1.88085   0.01451   1.009E+00   2.000E-03  -1.116E-02
 635  8.30125435   0.690  -1.00846   3.61985   7.01173   1.88082   0.01441   1.009E+00   2.000E-03  -1.111E-02
 636  8.30271313   0.690  -1.00846   3.61984   7.01170   1.88079   0.01431   1.009E+00   2.000E-03  -1.107E-02
 637  8.30416702   0.690  -1.00846   3.61984   7.01166   1.88076   0.01421   1.009E+00   2.000E-03  -1.103E-02
 638  8.30561606   0.690  -1.00846   3.61983   7.01162   1.88073   0.01411   1.009E+00   2.000E-03  -1.099E-02
 639  8.30706029   0.690  -1.00846   3.61982   7.01159   1.88070   0.01401   1.009E+00   2.000E-03  -1.095E-02
 640  8.30849973   0.690  -1.00846   3.61982   7.01155   1.88068   0.01392   1.009E+00   2.000E-03  -1.091E-02
 641  8.30993441   0.690  -1.00847   3.61981   7.01151   1.88065   0.01382   1.009E+00   2.000E-03  -1.087E-02
 642  8.31136437   0.689  -1.00847   3.61980   7.01148   1.88062   0.01372   1.009E+00   2.000E-03  -1.082E-02
 643  8.31278963   0.689  -1.00847   3.61980   7.01144   1.88059   0.01362   1.009E+00   2.000E-03  -1.078E-02
 644  8.31421024   0.689  -1.00847   3.61979   7.01141   1.88056   0.01352   1.008E+00   2.000E-03  -1.074E-02
 645  8.31562621   0.689  -1.00847   3.61978   7.01137   1.88053   0.01342   1.008E+00   2.000E-03  -1.070E-02
 646  8.31703758   0.689  -1.00848   3.61977   7.01133   1.88050   0.01332   1.008E+00   2.000E-03  -1.066E-02
 647  8.31844438   0.689  -1.00848   3.61977   7.01130   1.88047   0.01323   1.008E+00   2.000E-03  -1.062E-02
 648  8.31984663   0.689  -1.00848   3.61976   7.01126   1.88044   0.01313   1.008E+00   2.000E-03  -1.057E-02
 649  8.32124438   0.689  -1.00848   3.61975   7.01122   1.88041   0.01303   1.008E+00   2.000E-03  -1.053E-02
 650  8.32263763   0.689  -1.00848   3.61975   7.01119   1.88038   0.01293   1.008E+00   2.000E-03  -1.049E-02
 651  8.32402644   0.689  -1.00848   3.61974   7.01115   1.88035   0.01283   1.008E+00   2.000E-03  -1.045E-02
 652  8.32541081   0.689  -1.00849   3.61973   7.01111   1.88032   0.01273   1.008E+00   2.000E-03  -1.041E-02
 653  8.32679079   0.689  -1.00849   3.61973   7.01108   1.88029   0.01264   1.008E+00   2.000E-03  -1.037E-02
 654  8.32816640   0.689  -1.00849   3.61972   7.01104   1.88026   0.01254   1.008E+00   2.000E-03  -1.033E-02
 655  8.32953766   0.689  -1.00849   3.61971   7.01100   1.88023   0.01244   1.008E+00   2.000E-03  -1.028E-02
 656  8.33090461   0.689  -1.00849   3.61970   7.01097   1.88020   0.01234   1.008E+00   2.000E-03  -1.024E-02
 657  8.33226727   0.689  -1.00849   3.61970   7.01093   1.88017   0.01224   1.008E+00   2.000E-03  -1.020E-02
 658  8.33362566   0.689  -1.00850   3.61969   7.01090   1.88014   0.01214   1.008E+00   2.000E-03  -1.016E-02
 659  8.33497982   0.689  -1.00850   3.61968   7.01086   1.88012   0.01204   1.008E+00   2.000E-03  -1.012E-02
 660  8.33632977   0.689  -1.00850   3.61968   7.01082   1.88009   0.01195   1.008E+00   2.000E-03  -1.008E-02
 661  8.33767554   0.689  -1.00850   3.61967   7.01079   1.88006   0.01185   1.008E+00   2.000E-03  -1.003E-02
 662  8.33901715   0.689  -1.00850   3.61966   7.01075   1.88003   0.01175   1.008E+00   2.000E-03  -9.993E-03
 663  8.34035463   0.689  -1.00850   3.61966   7.01071   1.88000   0.01165   1.007E+00   2.000E-03  -9.952E-03
 664  8.34168800   0.689  -1.00851   3.61965   7.01068   1.87997   0.01155   1.007E+00   2.000E-03  -9.910E-03
 665  8.34301730   0.689  -1.00851   3.61964   7.01064   1.87994   0.01145   1.007E+00   2.000E-03  -9.869E-03
 666  8.34434253   0.689  -1.00851   3.61963   7.01060   1.87991   0.01135   1.007E+00   2.000E-03  -9.827E-03
 667  8.34566373   0.689  -1.00851   3.61963   7.01057   1.87988   0.01126   1.007E+00   2.000E-03  -9.786E-03
 668  8.34698093   0.689  -1.00851   3.61962   7.01053   1.87985   0.01116   1.007E+00   2.000E-03  -9.744E-03
 669  8.34829414   0.689  -1.00851   3.61961   7.01049   1.87982   0.01106   1.007E+00   2.000E-03  -9.702E-03
 670  8.34960340   0.689  -1.00852   3.61961   7.01046   1.87979   0.01096   1.007E+00   2.000E-03  -9.661E-03
 671  8.35090872   0.689  -1.00852   3.61960   7.01042   1.87976   0.01086   1.007E+00   2.000E-03  -9.619E-03
 672  8.35221013   0.689  -1.00852   3.61959   7.01039   1.87973   0.01076   1.007E+00   2.000E-03  -9.578E-03
 673  8.35350765   0.689  -1.00852   3.61959   7.01036   1.87971   0.01069   1.007E+00   2.000E-03  -9.537E-03
 674  8.35480130   0.689  -1.00851   3.61958   7.01033   1.87970   0.01064   1.007E+00   2.000E-03  -9.498E-03
 675  8.35609111   0.689  -1.00851   3.61958   7.01031   1.87969   0.01058   1.007E+00   2.000E-03  -9.458E-03
 676  8.35737711   0.689  -1.00850   3.61958   7.01028   1.87968   0.01053   1.007E+00   2.000E-03  -9.419E-03
 677  8.35865930   0.689  -1.00850   3.61957   7.01026   1.87967   0.01047   1.007E+00   2.000E-03  -9.379E-03
 678  8.35993772   0.689  -1.00849   3.61957   7.01024   1.87966   0.01042   1.007E+00   2.000E-03  -9.339E-03
 679  8.36121240   0.689  -1.00849   3.61957   7.01021   1.87964   0.01037   1.007E+00   2.000E-03  -9.300E-03
 680  8.36248333   0.689  -1.00848   3.61956   7.01019   1.87963   0.01031   1.007E+00   2.000E-03  -9.260E-03
 681  8.36375057   0.689  -1.00848   3.61956   7.01016   1.87962   0.01026   1.007E+00   2.000E-03  -9.221E-03
 682  8.36501411   0.689  -1.00847   3.61955   7.01014   1.87961   0.01020   1.007E+00   2.000E-03  -9.181E-03
 683  8.36627399   0.689  -1.00847   3.61955   7.01012   1.87960   0.01015   1.007E+00   2.000E-03  -9.141E-03
 684  8.36753022   0.689  -1.00846   3.61955   7.01009   1.87959   0.01010   1.007E+00   2.000E-03  -9.102E-03
 685  8.36878284   0.689  -1.00846   3.61954   7.01007   1.87958   0.01004   1.007E+00   2.000E-03  -9.062E-03
 686  8.37003184   0.689  -1.00846   3.61954   7.01004   1.87956   0.00999   1.007E+00   2.000E-03  -9.023E-03
 687  8.37127727   0.689  -1.00845   3.61954   7.01002   1.87955   0.00993   1.007E+00   2.000E-03  -8.983E-03
 688  8.37251914   0.689  -1.00845   3.61953   7.01000   1.87954   0.00988   1.006E+00   2.000E-03  -8.943E-03
 689  8.37375746   0.689  -1.00844   3.61953   7.00997   1.87953   0.00982   1.006E+00   2.000E-03  -8.904E-03
 690  8.37499227   0.689  -1.00844   3.61952   7.00995   1.87952   0.00977   1.006E+00   2.000E-03  -8.864E-03
 691  8.37622357   0.689  -1.00843   3.61952   7.00992   1.87951   0.00972   1.006E+00   2.000E-03  -8.825E-03
 692  8.37745139   0.689  -1.00843   3.61952   7.00990   1.87950   0.00966   1.006E+00   2.000E-03  -8.785E-03
 693  8.37867575   0.689  -1.00842   3.61951   7.00988   1.87948   0.00961   1.006E+00   2.000E-03  -8.745E-03
 694  8.37989667   0.689  -1.00842   3.61951   7.00985   1.87947   0.00955   1.006E+00   2.000E-03  -8.706E-03
 695  8.38111417   0.689  -1.00841   3.61951   7.00983   1.87946   0.00950   1.006E+00   2.000E-03  -8.666E-03
 696  8.38232826   0.689  -1.00841   3.61950   7.00980   1.87945   0.00945   1.006E+00   2.000E-03  -8.627E-03
 697  8.38353897   0.689  -1.00840   3.61950   7.00978   1.87944   0.00939   1.006E+00   2.000E-03  -8.587E-03
 698  8.38474631   0.689  -1.00840   3.61949   7.00975   1.87943   0.00934   1.006E+00   2.000E-03  -8.547E-03
 699  8.38595030   0.689  -1.00839   3.61949   7.00973   1.87942   0.00928   1.006E+00   2.000E-03  -8.508E-03
 700  8.38715097   0.689  -1.00839   3.61949   7.00971   1.87940   0.00923   1.006E+00   2.000E-03  -8.468E-03
 701  8.38834832   0.689  -1.00838   3.61948   7.00968   1.87939   0.00918   1.006E+00   2.000E-03  -8.428E-03
 702  8.38954239   0.689  -1.00838   3.61948   7.00966   1.87938   0.00912   1.006E+00   2.000E-03  -8.389E-03
 703  8.39073318   0.689  -1.00837   3.61948   7.00963   1.87937   0.00907   1.006E+00   2.000E-03  -8.349E-03
 704  8.39192071   0.689  -1.00837   3.61947   7.00961   1.87936   0.00901   1.006E+00   2.000E-03  -8.310E-03
 705  8.39310501   0.689  -1.00836   3.61947   7.00959   1.87935   0.00896   1.006E+00   2.000E-03  -8.270E-03
 706  8.39428608   0.689  -1.00836   3.61946   7.00956   1.87934   0.00891   1.006E+00   2.000E-03  -8.230E-03
 707  8.39546395   0.689  -1.00836   3.61946   7.00954   1.87932   0.00885   1.006E+00   2.000E-03  -8.191E-03
 708  8.39663864   0.689  -1.00835   3.61946   7.00951   1.87931   0.00880   1.006E+00   2.000E-03  -8.151E-03
 709  8.39781015   0.689  -1.00835   3.61945   7.00949   1.87930   0.00874   1.006E+00   2.000E-03  -8.112E-03
 710  8.39897852   0.689  -1.00834   3.61945   7.00947   1.87929   0.00869   1.006E+00   2.000E-03  -8.072E-03
 711  8.40014375   0.689  -1.00834   3.61945   7.00944   1.87928   0.00864   1.006E+00   2.000E-03  -8.032E-03
 712  8.40130586   0.689  -1.00833   3.61944   7.00942   1.87927   0.00858   1.006E+00   2.000E-03  -7.993E-03
 713  8.40246487   0.689  -1.00833   3.61944   7.00939   1.87926   0.00853   1.006E+00   2.000E-03  -7.953E-03
 714  8.40362080   0.689  -1.00832   3.61943   7.00937   1.87924   0.00847   1.006E+00   2.000E-03  -7.914E-03
 715  8.40477366   0.689  -1.00832   3.61943   7.00935   1.87923   0.00842   1.006E+00   2.000E-03  -7.874E-03
 716  8.40592346   0.689  -1.00831   3.61943   7.00932   1.87922   0.00837   1.006E+00   2.000E-03  -7.834E-03
 717  8.40707023   0.689  -1.00831   3.61942   7.00930   1.87921   0.00831   1.005E+00   2.000E-03  -7.795E-03
 718  8.40821398   0.689  -1.00830   3.61942   7.00927   1.87920   0.00826   1.005E+00   2.000E-03  -7.755E-03
 719  8.40935472   0.689  -1.00830   3.61942   7.00925   1.87919   0.00820   1.005E+00   2.000E-03  -7.716E-03
 720  8.41049248   0.689  -1.00829   3.61941   7.00923   1.87917   0.00815   1.005E+00   2.000E-03  -7.676E-03
 721  8.41162726   0.689  -1.00829   3.61941   7.00920   1.87916   0.00810   1.005E+00   2.000E-03  -7.636E-03
 722  8.41275909   0.689  -1.00828   3.61940   7.00918   1.87915   0.00804   1.005E+00   2.000E-03  -7.597E-03
 723  8.41388797   0.689  -1.00828   3.61940   7.00915   1.87914   0.00799   1.005E+00   2.000E-03  -7.557E-03
 724  8.41501393   0.689  -1.00827   3.61940   7.00913   1.87913   0.00793   1.005E+00   2.000E-03  -7.518E-03
 725  8.41613698   0.688  -1.00827   3.61939   7.00911   1.87912   0.00788   1.005E+00   2.000E-03  -7.478E-03
 726  8.41725713   0.688  -1.00826   3.61939   7.00908   1.87911   0.00783   1.005E+00   2.000E-03  -7.438E-03
 727  8.41837439   0.688  -1.00826   3.61939   7.00906   1.87909   0.00777   1.005E+00   2.000E-03  -7.399E-03
 728  8.41948879   0.688  -1.00826   3.61938   7.00903   1.87908   0.00772   1.005E+00   2.000E-03  -7.359E-03
 729  8.42060034   0.688  -1.00825   3.61938   7.00901   1.87907   0.00766   1.005E+00   2.000E-03  -7.320E-03
 730  8.42170905   0.688  -1.00825   3.61937   7.00898   1.87906   0.00761   1.005E+00   2.000E-03  -7.280E-03
 731  8.42281494   0.688  -1.00824   3.61937   7.00896   1.87905   0.00756   1.005E+00   2.000E-03  -7.240E-03
 732  8.42391802   0.688  -1.00824   3.61937   7.00894   1.87904   0.00750   1.005E+00   2.000E-03  -7.201E-03
 733  8.42501830   0.688  -1.00823   3.61936   7.00891   1.87903   0.00745   1.005E+00   2.000E-03  -7.161E-03
 734  8.42611581   0.688  -1.00823   3.61936   7.00889   1.87901   0.00739   1.005E+00   2.000E-03  -7.122E-03
 735  8.42721054   0.688  -1.00822   3.61936   7.00886   1.87900   0.00734   1.005E+00   2.000E-03  -7.082E-03
 736  8.42830253   0.688  -1.00822   3.61935   7.00884   1.87899   0.00729   1.005E+00   2.000E-03  -7.042E-03
 737  8.42939177   0.688  -1.00821   3.61935   7.00882   1.87898   0.00723   1.005E+00   2.000E-03  -7.003E-03
 738  8.43047829   0.688  -1.00821   3.61934   7.00879   1.87897   0.00718   1.005E+00   2.000E-03  -6.963E-03
 739  8.43156210   0.688  -1.00820   3.61934   7.00877   1.87896   0.00712   1.005E+00   2.000E-03  -6.923E-03
 740  8.43264321   0.688  -1.00820   3.61934   7.00874   1.87895   0.00707   1.005E+00   2.000E-03  -6.884E-03
 741  8.43372164   0.688  -1.00819   3.61933   7.00872   1.87893   0.00702   1.005E+00   2.000E-03  -6.844E-03
 742  8.43479739   0.688  -1.00819   3.61933   7.00870   1.87892   0.00696   1.005E+00   2.000E-03  -6.805E-03
 743  8.43587049   0.688  -1.00818   3.61933   7.00867   1.87891   0.00691   1.005E+00   2.000E-03  -6.765E-03
 744  8.43694094   0.688  -1.00818   3.61932   7.00865   1.87890   0.00685   1.005E+00   2.000E-03  -6.725E-03
 745  8.43800876   0.688  -1.00817   3.61932   7.00862   1.87889   0.00680   1.005E+00   2.000E-03  -6.686E-03
 746  8.43907396   0.688  -1.00817   3.61931   7.00860   1.87888   0.00675   1.004E+00   2.000E-03  -6.646E-03
 747  8.44013656   0.688  -1.00816   3.61931   7.00858   1.87887   0.00669   1.004E+00   2.000E-03  -6.607E-03
 748  8.44119656   0.688  -1.00816   3.61931   7.00855   1.87885   0.00664   1.004E+00   2.000E-03  -6.567E-03
 749  8.44225398   0.688  -1.00816   3.61930   7.00853   1.87884   0.00658   1.004E+00   2.000E-03  -6.527E-03
 750  8.44330883   0.688  -1.00815   3.61930   7.00850   1.87883   0.00653   1.004E+00   2.000E-03  -6.488E-03
 751  8.44436113   0.688  -1.00815   3.61930   7.00848   1.87882   0.00648   1.004E+00   2.000E-03  -6.448E-03
 752  8.44541088   0.688  -1.00814   3.61929   7.00846   1.87881   0.00642   1.004E+00   2.000E-03  -6.409E-03
 753  8.44645810   0.688  -1.00814   3.61929   7.00843   1.87880   0.00637   1.004E+00   2.000E-03  -6.369E-03
 754  8.44750280   0.688  -1.00813   3.61928   7.00841   1.87879   0.00631   1.004E+00   2.000E-03  -6.329E-03
 755  8.44854500   0.688  -1.00813   3.61928   7.00838   1.87877   0.00626   1.004E+00   2.000E-03  -6.290E-03
 756  8.44958470   0.688  -1.00812   3.61928   7.00836   1.87876   0.00621   1.004E+00   2.000E-03  -6.250E-03
 757  8.45062192   0.688  -1.00812   3.61927   7.00834   1.87875   0.00615   1.004E+00   2.000E-03  -6.211E-03
 758  8.45165666   0.688  -1.00811   3.61927   7.00831   1.87874   0.00610   1.004E+00   2.000E-03  -6.171E-03
 759  8.45268895   0.688  -1.00811   3.61927   7.00829   1.87873   0.00604   1.004E+00   2.000E-03  -6.131E-03
 760  8.45371879   0.688  -1.00810   3.61926   7.00826   1.87872   0.00599   1.004E+00   2.000E-03  -6.092E-03
 761  8.45474619   0.688  -1.00810   3.61926   7.00824   1.87871   0.00595   1.004E+00   2.000E-03  -6.063E-03
 762  8.45577117   0.688  -1.00809   3.61926   7.00823   1.87870   0.00592   1.004E+00   2.000E-03  -6.046E-03
 763  8.45679373   0.688  -1.00809   3.61925   7.00821   1.87870   0.00589   1.004E+00   2.000E-03  -6.030E-03
 764  8.45781389   0.688  -1.00808   3.61925   7.00820   1.87869   0.00587   1.004E+00   2.000E-03  -6.014E-03
 765  8.45883166   0.688  -1.00808   3.61925   7.00818   1.87869   0.00584   1.004E+00   2.000E-03  -5.998E-03
 766  8.45984705   0.688  -1.00807   3.61925   7.00817   1.87868   0.00581   1.004E+00   2.000E-03  -5.981E-03
 767  8.46086008   0.688  -1.00807   3.61925   7.00815   1.87867   0.00579   1.004E+00   2.000E-03  -5.965E-03
 768  8.46187074   0.688  -1.00806   3.61924   7.00814   1.87867   0.00576   1.004E+00   2.000E-03  -5.949E-03
 769  8.46287906   0.688  -1.00806   3.61924   7.00812   1.87866   0.00573   1.004E+00   2.000E-03  -5.933E-03
 770  8.46388504   0.688  -1.00805   3.61924   7.00810   1.87866   0.00571   1.004E+00   2.000E-03  -5.916E-03
 771  8.46488870   0.688  -1.00805   3.61924   7.00809   1.87865   0.00568   1.004E+00   2.000E-03  -5.900E-03
 772  8.46589005   0.688  -1.00804   3.61923   7.00807   1.87865   0.00565   1.004E+00   2.000E-03  -5.884E-03
 773  8.46688909   0.688  -1.00804   3.61923   7.00806   1.87864   0.00563   1.004E+00   2.000E-03  -5.867E-03
 774  8.46788584   0.688  -1.00803   3.61923   7.00804   1.87864   0.00560   1.004E+00   2.000E-03  -5.851E-03
 775  8.46888030   0.688  -1.00803   3.61923   7.00803   1.87863   0.00557   1.004E+00   2.000E-03  -5.835E-03
 776  8.46987250   0.688  -1.00802   3.61922   7.00801   1.87862   0.00555   1.004E+00   2.000E-03  -5.819E-03
 777  8.47086243   0.688  -1.00802   3.61922   7.00800   1.87862   0.00552   1.004E+00   2.000E-03  -5.802E-03
 778  8.47185011   0.688  -1.00801   3.61922   7.00798   1.87861   0.00549   1.004E+00   2.000E-03  -5.786E-03
 779  8.47283555   0.688  -1.00801   3.61922   7.00797   1.87861   0.00547   1.004E+00   2.000E-03  -5.770E-03
 780  8.47381876   0.688  -1.00800   3.61922   7.00795   1.87860   0.00544   1.004E+00   2.000E-03  -5.754E-03
 781  8.47479975   0.688  -1.00800   3.61921   7.00794   1.87860   0.00541   1.004E+00   2.000E-03  -5.737E-03
 782  8.47577852   0.688  -1.00799   3.61921   7.00792   1.87859   0.00539   1.004E+00   2.000E-03  -5.721E-03
 783  8.47675510   0.688  -1.00799   3.61921   7.00791   1.87859   0.00536   1.004E+00   2.000E-03  -5.705E-03
 784  8.47772948   0.688  -1.00798   3.61921   7.00789   1.87858   0.00533   1.004E+00   2.000E-03  -5.689E-03
 785  8.47870169   0.688  -1.00798   3.61920   7.00787   1.87857   0.00531   1.004E+00   2.000E-03  -5.672E-03
 786  8.47967172   0.688  -1.00797   3.61920   7.00786   1.87857   0.00528   1.004E+00   2.000E-03  -5.656E-03
 787  8.48063959   0.688  -1.00797   3.61920   7.00784   1.87856   0.00525   1.004E+00   2.000E-03  -5.640E-03
 788  8.48160531   0.688  -1.00797   3.61920   7.00783   1.87856   0.00522   1.004E+00   2.000E-03  -5.624E-03
 789  8.48256889   0.688  -1.00796   3.61920   7.00781   1.87855   0.00520   1.004E+00   2.000E-03  -5.607E-03
 790  8.48353033   0.688  -1.00796   3.61919   7.00780   1.87855   0.00517   1.004E+00   2.000E-03  -5.591E-03
 791  8.48448965   0.688  -1.00795   3.61919   7.00778   1.87854   0.00514   1.004E+00   2.000E-03  -5.575E-03
 792  8.48544685   0.688  -1.00795   3.61919   7.00777   1.87854   0.00512   1.004E+00   2.000E-03  -5.558E-03
 793  8.48640195   0.688  -1.00794   3.61919   7.00775   1.87853   0.00509   1.004E+00   2.000E-03  -5.542E-03
 794  8.48735495   0.688  -1.00794   3.61918   7.00774   1.87853   0.00506   1.003E+00   2.000E-03  -5.526E-03
 795  8.48830587   0.688  -1.00793   3.61918   7.00772   1.87852   0.00504   1.003E+00   2.000E-03  -5.510E-03
 796  8.48925471   0.688  -1.00793   3.61918   7.00771   1.87851   0.00501   1.003E+00   2.000E-03  -5.493E-03
 797  8.49020148   0.688  -1.00792   3.61918   7.00769   1.87851   0.00498   1.003E+00   2.000E-03  -5.477E-03
 798  8.49114619   0.688  -1.00792   3.61918   7.00767   1.87850   0.00496   1.003E+00   2.000E-03  -5.461E-03
 799  8.49208885   0.688  -1.00791   3.61917   7.00766   1.87850   0.00493   1.003E+00   2.000E-03  -5.445E-03
 800  8.49302947   0.688  -1.00791   3.61917   7.00764   1.87849   0.00490   1.003E+00   2.000E-03  -5.428E-03
 801  8.49396806   0.688  -1.00790   3.61917   7.00763   1.87849   0.00488   1.003E+00   2.000E-03  -5.412E-03
 802  8.49490462   0.688  -1.00790   3.61917   7.00761   1.87848   0.00485   1.003E+00   2.000E-03  -5.396E-03
 803  8.49583917   0.688  -1.00789   3.61916   7.00760   1.87848   0.00482   1.003E+00   2.000E-03  -5.380E-03
 804  8.49677171   0.688  -1.00789   3.61916   7.00758   1.87847   0.00480   1.003E+00   2.000E-03  -5.363E-03
 805  8.49770225   0.688  -1.00788   3.61916   7.00757   1.87846   0.00477   1.003E+00   2.000E-03  -5.347E-03
 806  8.49863080   0.687  -1.00788   3.61916   7.00755   1.87846   0.00474   1.003E+00   2.000E-03  -5.331E-03
 807  8.49955737   0.687  -1.00787   3.61915   7.00754   1.87845   0.00472   1.003E+00   2.000E-03  -5.314E-03
 808  8.50048197   0.687  -1.00787   3.61915   7.00752   1.87845   0.00469   1.003E+00   2.000E-03  -5.298E-03
 809  8.50140461   0.687  -1.00786   3.61915   7.00751   1.87844   0.00466   1.003E+00   2.000E-03  -5.282E-03
 810  8.50232528   0.687  -1.00786   3.61915   7.00749   1.87844   0.00464   1.003E+00   2.000E-03  -5.266E-03
 811  8.50324401   0.687  -1.00785   3.61915   7.00748   1.87843   0.00461   1.003E+00   2.000E-03  -5.249E-03
 812  8.50416081   0.687  -1.00785   3.61914   7.00746   1.87843   0.00458   1.003E+00   2.000E-03  -5.233E-03
 813  8.50507567   0.687  -1.00784   3.61914   7.00744   1.87842   0.00456   1.003E+00   2.000E-03  -5.217E-03
 814  8.50598860   0.687  -1.00784   3.61914   7.00743   1.87841   0.00453   1.003E+00   2.000E-03  -5.201E-03
 815  8.50689962   0.687  -1.00783   3.61914   7.00741   1.87841   0.00450   1.003E+00   2.000E-03  -5.184E-03
 816  8.50780874   0.687  -1.00783   3.61913   7.00740   1.87840   0.00447   1.003E+00   2.000E-03  -5.168E-03
 817  8.50871596   0.687  -1.00782   3.61913   7.00738   1.87840   0.00445   1.003E+00   2.000E-03  -5.152E-03
 818  8.50962128   0.687  -1.00782   3.61913   7.00737   1.87839   0.00442   1.003E+00   2.000E-03  -5.136E-03
 819  8.51052472   0.687  -1.00781   3.61913   7.00735   1.87839   0.00439   1.003E+00   2.000E-03  -5.119E-03
 820  8.51142629   0.687  -1.00781   3.61913   7.00734   1.87838   0.00437   1.003E+00   2.000E-03  -5.103E-03
 821  8.51232599   0.687  -1.00780   3.61912   7.00732   1.87838   0.00434   1.003E+00   2.000E-03  -5.087E-03
 822  8.51322382   0.687  -1.00780   3.61912   7.00731   1.87837   0.00431   1.003E+00   2.000E-03  -5.070E-03
 823  8.51411981   0.687  -1.00779   3.61912   7.00729   1.87837   0.00429   1.003E+00   2.000E-03  -5.054E-03
 824  8.51501395   0.687  -1.00779   3.61912   7.00728   1.87836   0.00426   1.003E+00   2.000E-03  -5.038E-03
 825  8.51590625   0.687  -1.00778   3.61911   7.00726   1.87835   0.00423   1.003E+00   2.000E-03  -5.022E-03
 826  8.51679673   0.687  -1.00778   3.61911   7.00724   1.87835   0.00421   1.003E+00   2.000E-03  -5.005E-03
 827  8.51768538   0.687  -1.00777   3.61911   7.00723   1.87834   0.00418   1.003E+00   2.000E-03  -4.989E-03
 828  8.51857222   0.687  -1.00777   3.61911   7.00721   1.87834   0.00415   1.003E+00   2.000E-03  -4.973E-03
 829  8.51945725   0.687  -1.00776   3.61910   7.00720   1.87833   0.00413   1.003E+00   2.000E-03  -4.957E-03
 830  8.52034048   0.687  -1.00776   3.61910   7.00718   1.87833   0.00410   1.003E+00   2.000E-03  -4.940E-03
 831  8.52122192   0.687  -1.00775   3.61910   7.00717   1.87832   0.00407   1.003E+00   2.000E-03  -4.924E-03
 832  8.52210157   0.687  -1.00775   3.61910   7.00715   1.87832   0.00405   1.003E+00   2.000E-03  -4.908E-03
 833  8.52297944   0.687  -1.00774   3.61910   7.00714   1.87831   0.00402   1.003E+00   2.000E-03  -4.892E-03
 834  8.52385555   0.687  -1.00774   3.61909   7.00712   1.87830   0.00399   1.003E+00   2.000E-03  -4.875E-03
 835  8.52472989   0.687  -1.00773   3.61909   7.00711   1.87830   0.00397   1.003E+00   2.000E-03  -4.859E-03
 836  8.52560247   0.687  -1.00773   3.61909   7.00709   1.87829   0.00394   1.003E+00   2.000E-03  -4.843E-03
 837  8.52647330   0.687  -1.00772   3.61909   7.00708   1.87829   0.00391   1.003E+00   2.000E-03  -4.826E-03
 838  8.52734239   0.687  -1.00772   3.61908   7.00706   1.87828   0.00389   1.003E+00   2.000E-03  -4.810E-03
 839  8.52820975   0.687  -1.00771   3.61908   7.00705   1.87828   0.00386   1.003E+00   2.000E-03  -4.794E-03
 840  8.52907538   0.687  -1.00771   3.61908   7.00703   1.87827   0.00383   1.003E+00   2.000E-03  -4.778E-03
 841  8.52993928   0.687  -1.00770   3.61908   7.00701   1.87827   0.00381   1.003E+00   2.000E-03  -4.761E-03
 842  8.53080147   0.687  -1.00770   3.61908   7.00700   1.87826   0.00378   1.003E+00   2.000E-03  -4.745E-03
 843  8.53166195   0.687  -1.00769   3.61907   7.00698   1.87825   0.00375   1.003E+00   2.000E-03  -4.729E-03
 844  8.53252073   0.687  -1.00769   3.61907   7.00697   1.87825   0.00373   1.003E+00   2.000E-03  -4.713E-03
 845  8.53337781   0.687  -1.00768   3.61907   7.00695   1.87824   0.00370   1.003E+00   2.000E-03  -4.696E-03
 846  8.53423321   0.687  -1.00768   3.61907   7.00694   1.87824   0.00367   1.003E+00   2.000E-03  -4.680E-03
 847  8.53508693   0.687  -1.00767   3.61906   7.00692   1.87823   0.00364   1.003E+00   2.000E-03  -4.664E-03
 848  8.53593897   0.687  -1.00767   3.61906   7.00691   1.87823   0.00362   1.003E+00   2.000E-03  -4.648E-03
 849  8.53678934   0.687  -1.00767   3.61906   7.00689   1.87822   0.00359   1.003E+00   2.000E-03  -4.631E-03
 850  8.53763805   0.687  -1.00766   3.61906   7.00688   1.87822   0.00356   1.003E+00   2.000E-03  -4.615E-03
 851  8.53848510   0.687  -1.00766   3.61905   7.00686   1.87821   0.00354   1.003E+00   2.000E-03  -4.599E-03
 852  8.53933051   0.687  -1.00765   3.61905   7.00685   1.87820   0.00351   1.003E+00   2.000E-03  -4.583E-03
 853  8.54017427   0.687  -1.00765   3.61905   7.00683   1.87820   0.00348   1.003E+00   2.000E-03  -4.566E-03
 854  8.54101640   0.687  -1.00764   3.61905   7.00681   1.87819   0.00346   1.003E+00   2.000E-03  -4.550E-03
 855  8.54185689   0.687  -1.00764   3.61905   7.00680   1.87819   0.00343   1.003E+00   2.000E-03  -4.534E-03
 856  8.54269577   0.687  -1.00763   3.61904   7.00678   1.87818   0.00340   1.003E+00   2.000E-03  -4.517E-03
 857  8.54353302   0.687  -1.00763   3.61904   7.00677   1.87818   0.00338   1.003E+00   2.000E-03  -4.501E-03
 858  8.54436867   0.687  -1.00762   3.61904   7.00675   1.87817   0.00335   1.003E+00   2.000E-03  -4.485E-03
 859  8.54520271   0.687  -1.00762   3.61904   7.00674   1.87817   0.00332   1.003E+00   2.000E-03  -4.469E-03
 860  8.54603515   0.687  -1.00761   3.61903   7.00672   1.87816   0.00330   1.002E+00   2.000E-03  -4.452E-03
 861  8.54686600   0.687  -1.00761   3.61903   7.00671   1.87816   0.00327   1.002E+00   2.000E-03  -4.436E-03
 862  8.54769527   0.687  -1.00760   3.61903   7.00669   1.87815   0.00324   1.002E+00   2.000E-03  -4.420E-03
 863  8.54852295   0.687  -1.00760   3.61903   7.00668   1.87814   0.00322   1.002E+00   2.000E-03  -4.404E-03
 864  8.54934906   0.687  -1.00759   3.61903   7.00666   1.87814   0.00319   1.002E+00   2.000E-03  -4.387E-03
 865  8.55017360   0.687  -1.00759   3.61902   7.00665   1.87813   0.00316   1.002E+00   2.000E-03  -4.371E-03
 866  8.55099657   0.687  -1.00758   3.61902   7.00663   1.87813   0.00314   1.002E+00   2.000E-03  -4.355E-03
 867  8.55181799   0.687  -1.00758   3.61902   7.00662   1.87812   0.00311   1.002E+00   2.000E-03  -4.339E-03
 868  8.55263786   0.687  -1.00757   3.61902   7.00660   1.87812   0.00308   1.002E+00   2.000E-03  -4.322E-03
 869  8.55345619   0.687  -1.00757   3.61901   7.00658   1.87811   0.00306   1.002E+00   2.000E-03  -4.306E-03
 870  8.55427298   0.687  -1.00756   3.61901   7.00657   1.87811   0.00303   1.002E+00   2.000E-03  -4.290E-03
 871  8.55508823   0.687  -1.00756   3.61901   7.00655   1.87810   0.00300   1.002E+00   2.000E-03  -4.273E-03
 872  8.55590195   0.687  -1.00755   3.61901   7.00654   1.87809   0.00298   1.002E+00   2.000E-03  -4.257E-03
 873  8.55671416   0.687  -1.00755   3.61900   7.00652   1.87809   0.00295   1.002E+00   2.000E-03  -4.241E-03
 874  8.55752484   0.687  -1.00754   3.61900   7.00651   1.87808   0.00292   1.002E+00   2.000E-03  -4.225E-03
 875  8.55833402   0.687  -1.00754   3.61900   7.00649   1.87808   0.00289   1.002E+00   2.000E-03  -4.208E-03
 876  8.55914169   0.687  -1.00753   3.61900   7.00648   1.87807   0.00287   1.002E+00   2.000E-03  -4.192E-03
 877  8.55994787   0.687  -1.00753   3.61900   7.00646   1.87807   0.00284   1.002E+00   2.000E-03  -4.176E-03
 878  8.56075255   0.687  -1.00752   3.61899   7.00645   1.87806   0.00281   1.002E+00   2.000E-03  -4.160E-03
 879  8.56155574   0.687  -1.00752   3.61899   7.00643   1.87806   0.00279   1.002E+00   2.000E-03  -4.143E-03
 880  8.56235744   0.687  -1.00751   3.61899   7.00642   1.87805   0.00276   1.002E+00   2.000E-03  -4.127E-03
 881  8.56315768   0.687  -1.00751   3.61899   7.00640   1.87804   0.00273   1.002E+00   2.000E-03  -4.111E-03
 882  8.56395644   0.687  -1.00750   3.61898   7.00638   1.87804   0.00271   1.002E+00   2.000E-03  -4.095E-03
 883  8.56475373   0.687  -1.00750   3.61898   7.00637   1.87803   0.00268   1.002E+00   2.000E-03  -4.078E-03
 884  8.56554956   0.687  -1.00749   3.61898   7.00635   1.87803   0.00265   1.002E+00   2.000E-03  -4.062E-03
 885  8.56634394   0.686  -1.00749   3.61898   7.00634   1.87802   0.00263   1.002E+00   2.000E-03  -4.046E-03
 886  8.56713686   0.686  -1.00748   3.61898   7.00632   1.87802   0.00260   1.002E+00   2.000E-03  -4.029E-03
 887  8.56792834   0.686  -1.00748   3.61897   7.00631   1.87801   0.00257   1.002E+00   2.000E-03  -4.013E-03
 888  8.56871838   0.686  -1.00747   3.61897   7.00629   1.87801   0.00255   1.002E+00   2.000E-03  -3.997E-03
 889  8.56950699   0.686  -1.00747   3.61897   7.00628   1.87800   0.00252   1.002E+00   2.000E-03  -3.981E-03
 890  8.57029417   0.686  -1.00746   3.61897   7.00626   1.87800   0.00249   1.002E+00   2.000E-03  -3.964E-03
 891  8.57107992   0.686  -1.00746   3.61896   7.00625   1.87799   0.00247   1.002E+00   2.000E-03  -3.948E-03
 892  8.57186425   0.686  -1.00745   3.61896   7.00623   1.87798   0.00244   1.002E+00   2.000E-03  -3.932E-03
 893  8.57264717   0.686  -1.00745   3.61896   7.00622   1.87798   0.00242   1.002E+00   2.000E-03  -3.918E-03
 894  8.57342868   0.686  -1.00744   3.61896   7.00621   1.87798   0.00241   1.002E+00   2.000E-03  -3.910E-03
 895  8.57420879   0.686  -1.00744   3.61896   7.00620   1.87798   0.00240   1.002E+00   2.000E-03  -3.903E-03
 896  8.57498750   0.686  -1.00743   3.61896   7.00619   1.87798   0.00238   1.002E+00   2.000E-03  -3.895E-03
 897  8.57576481   0.686  -1.00743   3.61895   7.00618   1.87798   0.00237   1.002E+00   2.000E-03  -3.888E-03
 898  8.57654074   0.686  -1.00742   3.61895   7.00617   1.87798   0.00236   1.002E+00   2.000E-03  -3.880E-03
 899  8.57731528   0.686  -1.00742   3.61895   7.00616   1.87797   0.00235   1.002E+00   2.000E-03  -3.873E-03
 900  8.57808844   0.686  -1.00741   3.61895   7.00616   1.87797   0.00234   1.002E+00   2.000E-03  -3.865E-03
 901  8.57886023   0.686  -1.00741   3.61895   7.00615   1.87797   0.00233   1.002E+00   2.000E-03  -3.857E-03
 902  8.57963065   0.686  -1.00740   3.61895   7.00614   1.87797   0.00232   1.002E+00   2.000E-03  -3.850E-03
 903  8.58039971   0.686  -1.00740   3.61895   7.00613   1.87797   0.00231   1.002E+00   2.000E-03  -3.842E-03
 904  8.58116741   0.686  -1.00739   3.61895   7.00612   1.87797   0.00230   1.002E+00   2.000E-03  -3.835E-03
 905  8.58193375   0.686  -1.00739   3.61895   7.00611   1.87797   0.00229   1.002E+00   2.000E-03  -3.827E-03
 906  8.58269874   0.686  -1.00738   3.61894   7.00610   1.87797   0.00228   1.002E+00   2.000E-03  -3.820E-03
 907  8.58346238   0.686  -1.00738   3.61894   7.00609   1.87797   0.00227   1.002E+00   2.000E-03  -3.812E-03
 908  8.58422469   0.686  -1.00737   3.61894   7.00608   1.87797   0.00226   1.002E+00   2.000E-03  -3.804E-03
 909  8.58498566   0.686  -1.00737   3.61894   7.00608   1.87797   0.00224   1.002E+00   2.000E-03  -3.797E-03
 910  8.58574530   0.686  -1.00736   3.61894   7.00607   1.87796   0.00223   1.002E+00   2.000E-03  -3.789E-03
 911  8.58650361   0.686  -1.00736   3.61894   7.00606   1.87796   0.00222   1.002E+00   2.000E-03  -3.782E-03
 912  8.58726061   0.686  -1.00735   3.61894   7.00605   1.87796   0.00221   1.002E+00   2.000E-03  -3.774E-03
 913  8.58801628   0.686  -1.00735   3.61894   7.00604   1.87796   0.00220   1.002E+00   2.000E-03  -3.767E-03
 914  8.58877064   0.686  -1.00734   3.61893   7.00603   1.87796   0.00219   1.002E+00   2.000E-03  -3.759E-03
 915  8.58952369   0.686  -1.00734   3.61893   7.00602   1.87796   0.00218   1.002E+00   2.000E-03  -3.752E-03
 916  8.59027544   0.686  -1.00733   3.61893   7.00601   1.87796   0.00217   1.002E+00   2.000E-03  -3.744E-03
 917  8.59102589   0.686  -1.00733   3.61893   7.00600   1.87796   0.00216   1.002E+00   2.000E-03  -3.736E-03
 918  8.59177505   0.686  -1.00732   3.61893   7.00600   1.87796   0.00215   1.002E+00   2.000E-03  -3.729E-03
 919  8.59252292   0.686  -1.00732   3.61893   7.00599   1.87796   0.00214   1.002E+00   2.000E-03  -3.721E-03
 920  8.59326950   0.686  -1.00731   3.61893   7.00598   1.87796   0.00213   1.002E+00   2.000E-03  -3.714E-03
 921  8.59401480   0.686  -1.00731   3.61893   7.00597   1.87795   0.00211   1.002E+00   2.000E-03  -3.706E-03
 922  8.59475882   0.686  -1.00730   3.61892   7.00596   1.87795   0.00210   1.002E+00   2.000E-03  -3.699E-03
 923  8.59550157   0.686  -1.00730   3.61892   7.00595   1.87795   0.00209   1.002E+00   2.000E-03  -3.691E-03
 924  8.59624305   0.686  -1.00729   3.61892   7.00594   1.87795   0.00208   1.002E+00   2.000E-03  -3.683E-03
 925  8.59698327   0.686  -1.00729   3.61892   7.00593   1.87795   0.00207   1.002E+00   2.000E-03  -3.676E-03
 926  8.59772223   0.686  -1.00728   3.61892   7.00592   1.87795   0.00206   1.002E+00   2.000E-03  -3.668E-03
 927  8.59845993   0.686  -1.00728   3.61892   7.00592   1.87795   0.00205   1.002E+00   2.000E-03  -3.661E-03
 928  8.59919639   0.686  -1.00727   3.61892   7.00591   1.87795   0.00204   1.002E+00   2.000E-03  -3.653E-03
 929  8.59993159   0.686  -1.00727   3.61892   7.00590   1.87795   0.00203   1.002E+00   2.000E-03  -3.646E-03
 930  8.60066555   0.686  -1.00726   3.61891   7.00589   1.87795   0.00202   1.002E+00   2.000E-03  -3.638E-03
 931  8.60139828   0.686  -1.00726   3.61891   7.00588   1.87795   0.00201   1.002E+00   2.000E-03  -3.630E-03
 932  8.60212977   0.686  -1.00725   3.61891   7.00587   1.87794   0.00200   1.002E+00   2.000E-03  -3.623E-03
 933  8.60286003   0.686  -1.00725   3.61891   7.00586   1.87794   0.00199   1.002E+00   2.000E-03  -3.615E-03
 934  8.60358907   0.686  -1.00724   3.61891   7.00585   1.87794   0.00197   1.002E+00   2.000E-03  -3.608E-03
 935  8.60431688   0.686  -1.00724   3.61891   7.00584   1.87794   0.00196   1.002E+00   2.000E-03  -3.600E-03
 936  8.60504348   0.686  -1.00723   3.61891   7.00584   1.87794   0.00195   1.002E+00   2.000E-03  -3.593E-03
 937  8.60576886   0.686  -1.00723   3.61891   7.00583   1.87794   0.00194   1.002E+00   2.000E-03  -3.585E-03
 938  8.60649303   0.686  -1.00722   3.61891   7.00582   1.87794   0.00193   1.002E+00   2.000E-03  -3.578E-03
 939  8.60721600   0.686  -1.00722   3.61890   7.00581   1.87794   0.00192   1.002E+00   2.000E-03  -3.570E-03
 940  8.60793776   0.686  -1.00721   3.61890   7.00580   1.87794   0.00191   1.002E+00   2.000E-03  -3.562E-03
 941  8.60865833   0.686  -1.00721   3.61890   7.00579   1.87794   0.00190   1.002E+00   2.000E-03  -3.555E-03
 942  8.60937770   0.686  -1.00720   3.61890   7.00578   1.87794   0.00189   1.002E+00   2.000E-03  -3.547E-03
 943  8.61009589   0.686  -1.00720   3.61890   7.00577   1.87793   0.00188   1.002E+00   2.000E-03  -3.540E-03
 944  8.61081289   0.686  -1.00719   3.61890   7.00576   1.87793   0.00187   1.002E+00   2.000E-03  -3.532E-03
 945  8.61152871   0.686  -1.00719   3.61890   7.00576   1.87793   0.00186   1.002E+00   2.000E-03  -3.525E-03
 946  8.61224335   0.686  -1.00718   3.61890   7.00575   1.87793   0.00185   1.002E+00   2.000E-03  -3.517E-03
 947  8.61295681   0.686  -1.00718   3.61889   7.00574   1.87793   0.00183   1.002E+00   2.000E-03  -3.509E-03
 948  8.61366911   0.686  -1.00717   3.61889   7.00573   1.87793   0.00182   1.002E+00   2.000E-03  -3.502E-03
 949  8.61438023   0.686  -1.00717   3.61889   7.00572   1.87793   0.00181   1.002E+00   2.000E-03  -3.494E-03
 950  8.61509020   0.686  -1.00716   3.61889   7.00571   1.87793   0.00180   1.002E+00   2.000E-03  -3.487E-03
 951  8.61579901   0.686  -1.00716   3.61889   7.00570   1.87793   0.00179   1.002E+00   2.000E-03  -3.479E-03
 952  8.61650666   0.686  -1.00715   3.61889   7.00569   1.87793   0.00178   1.002E+00   2.000E-03  -3.472E-03
 953  8.61721316   0.686  -1.00715   3.61889   7.00568   1.87793   0.00177   1.002E+00   2.000E-03  -3.464E-03
 954  8.61791852   0.686  -1.00714   3.61889   7.00568   1.87792   0.00176   1.002E+00   2.000E-03  -3.456E-03
 955  8.61862273   0.686  -1.00714   3.61888   7.00567   1.87792   0.00175   1.002E+00   2.000E-03  -3.449E-03
 956  8.61932580   0.686  -1.00713   3.61888   7.00566   1.87792   0.00174   1.002E+00   2.000E-03  -3.441E-03
 957  8.62002773   0.686  -1.00713   3.61888   7.00565   1.87792   0.00173   1.002E+00   2.000E-03  -3.434E-03
 958  8.62072853   0.686  -1.00712   3.61888   7.00564   1.87792   0.00172   1.002E+00   2.000E-03  -3.426E-03
 959  8.62142820   0.686  -1.00712   3.61888   7.00563   1.87792   0.00170   1.002E+00   2.000E-03  -3.419E-03
 960  8.62212675   0.686  -1.00711   3.61888   7.00562   1.87792   0.00169   1.002E+00   2.000E-03  -3.411E-03
 961  8.62282418   0.685  -1.00711   3.61888   7.00561   1.87792   0.00168   1.002E+00   2.000E-03  -3.404E-03
 962  8.62352048   0.685  -1.00710   3.61888   7.00561   1.87792   0.00167   1.002E+00   2.000E-03  -3.396E-03
 963  8.62421567   0.685  -1.00710   3.61887   7.00560   1.87792   0.00166   1.002E+00   2.000E-03  -3.388E-03
 964  8.62490976   0.685  -1.00709   3.61887   7.00559   1.87792   0.00165   1.002E+00   2.000E-03  -3.381E-03
 965  8.62560273   0.685  -1.00709   3.61887   7.00558   1.87791   0.00164   1.002E+00   2.000E-03  -3.373E-03
 966  8.62629460   0.685  -1.00708   3.61887   7.00557   1.87791   0.00163   1.002E+00   2.000E-03  -3.366E-03
 967  8.62698537   0.685  -1.00708   3.61887   7.00556   1.87791   0.00162   1.002E+00   2.000E-03  -3.358E-03
 968  8.62767504   0.685  -1.00707   3.61887   7.00555   1.87791   0.00161   1.002E+00   2.000E-03  -3.351E-03
 969  8.62836362   0.685  -1.00707   3.61887   7.00554   1.87791   0.00160   1.002E+00   2.000E-03  -3.343E-03
 970  8.62905111   0.685  -1.00706   3.61887   7.00553   1.87791   0.00159   1.002E+00   2.000E-03  -3.335E-03
 971  8.62973751   0.685  -1.00706   3.61887   7.00553   1.87791   0.00158   1.002E+00   2.000E-03  -3.328E-03
 972  8.63042283   0.685  -1.00705   3.61886   7.00552   1.87791   0.00156   1.002E+00   2.000E-03  -3.320E-03
 973  8.63110707   0.685  -1.00705   3.61886   7.00551   1.87791   0.00155   1.002E+00   2.000E-03  -3.313E-03
 974  8.63179023   0.685  -1.00704   3.61886   7.00550   1.87791   0.00154   1.002E+00   2.000E-03  -3.305E-03
 975  8.63247232   0.685  -1.00704   3.61886   7.00549   1.87791   0.00153   1.002E+00   2.000E-03  -3.298E-03
 976  8.63315334   0.685  -1.00703   3.61886   7.00548   1.87790   0.00152   1.002E+00   2.000E-03  -3.290E-03
 977  8.63383330   0.685  -1.00702   3.61886   7.00547   1.87790   0.00151   1.002E+00   2.000E-03  -3.282E-03
 978  8.63451219   0.685  -1.00702   3.61886   7.00546   1.87790   0.00150   1.002E+00   2.000E-03  -3.275E-03
 979  8.63519002   0.685  -1.00701   3.61886   7.00545   1.87790   0.00149   1.002E+00   2.000E-03  -3.267E-03
 980  8.63586679   0.685  -1.00701   3.61885   7.00545   1.87790   0.00148   1.002E+00   2.000E-03  -3.260E-03
 981  8.63654252   0.685  -1.00700   3.61885   7.00544   1.87790   0.00147   1.002E+00   2.000E-03  -3.252E-03
 982  8.63721719   0.685  -1.00700   3.61885   7.00543   1.87790   0.00146   1.002E+00   2.000E-03  -3.245E-03
 983  8.63789082   0.685  -1.00699   3.61885   7.00542   1.87790   0.00145   1.002E+00   2.000E-03  -3.237E-03
 984  8.63856340   0.685  -1.00699   3.61885   7.00541   1.87790   0.00143   1.002E+00   2.000E-03  -3.230E-03
 985  8.63923494   0.685  -1.00698   3.61885   7.00540   1.87790   0.00142   1.002E+00   2.000E-03  -3.222E-03
 986  8.63990545   0.685  -1.00698   3.61885   7.00539   1.87790   0.00141   1.002E+00   2.000E-03  -3.214E-03
 987  8.64057492   0.685  -1.00697   3.61885   7.00538   1.87789   0.00140   1.002E+00   2.000E-03  -3.207E-03
 988  8.64124336   0.685  -1.00697   3.61884   7.00537   1.87789   0.00139   1.002E+00   2.000E-03  -3.199E-03
 989  8.64191078   0.685  -1.00696   3.61884   7.00537   1.87789   0.00138   1.002E+00   2.000E-03  -3.192E-03
 990  8.64257717   0.685  -1.00696   3.61884   7.00536   1.87789   0.00137   1.002E+00   2.000E-03  -3.184E-03
 991  8.64324254   0.685  -1.00695   3.61884   7.00535   1.87789   0.00136   1.002E+00   2.000E-03  -3.177E-03
 992  8.64390689   0.685  -1.00695   3.61884   7.00534   1.87789   0.00135   1.001E+00   2.000E-03  -3.169E-03
 993  8.64457023   0.685  -1.00694   3.61884   7.00533   1.87789   0.00134   1.001E+00   2.000E-03  -3.161E-03
 994  8.64523255   0.685  -1.00694   3.61884   7.00532   1.87789   0.00133   1.001E+00   2.000E-03  -3.154E-03
 995  8.64589387   0.685  -1.00693   3.61884   7.00531   1.87789   0.00132   1.001E+00   2.000E-03  -3.146E-03
 996  8.64655418   0.685  -1.00693   3.61883   7.00530   1.87789   0.00131   1.001E+00   2.000E-03  -3.139E-03
 997  8.64721349   0.685  -1.00692   3.61883   7.00529   1.87789   0.00129   1.001E+00   2.000E-03  -3.131E-03
 998  8.64787180   0.685  -1.00692   3.61883   7.00529   1.87788   0.00128   1.001E+00   2.000E-03  -3.124E-03
 999  8.64852911   0.685  -1.00691   3.61883   7.00528   1.87788   0.00127   1.001E+00   2.000E-03  -3.116E-03
1000  8.64918543   0.685  -1.00691   3.61883   7.00527   1.87788   0.00126   1.001E+00   2.000E-03  -3.108E-03
1001  8.64984076   0.685  -1.00690   3.61883   7.00526   1.87788   0.00125   1.001E+00   2.000E-03  -3.101E-03
1002  8.65049511   0.685  -1.00690   3.61883   7.00525   1.87788   0.00124   1.001E+00   2.000E-03  -3.093E-03
1003  8.65114846   0.685  -1.00689   3.61883   7.00524   1.87788   0.00123   1.001E+00   2.000E-03  -3.086E-03
1004  8.65180084   0.685  -1.00689   3.61883   7.00523   1.87788   0.00122   1.001E+00   2.000E-03  -3.078E-03
1005  8.65245224   0.685  -1.00688   3.61882   7.00522   1.87788   0.00121   1.001E+00   2.000E-03  -3.071E-03
1006  8.65310266   0.685  -1.00688   3.61882   7.00521   1.87788   0.00120   1.001E+00   2.000E-03  -3.063E-03
1007  8.65375211   0.685  -1.00687   3.61882   7.00521   1.87788   0.00119   1.001E+00   2.000E-03  -3.055E-03
1008  8.65440059   0.685  -1.00687   3.61882   7.00520   1.87788   0.00118   1.001E+00   2.000E-03  -3.048E-03
1009  8.65504810   0.685  -1.00686   3.61882   7.00519   1.87787   0.00117   1.001E+00   2.000E-03  -3.040E-03
1010  8.65569465   0.685  -1.00686   3.61882   7.00518   1.87787   0.00115   1.001E+00   2.000E-03  -3.033E-03
1011  8.65634024   0.685  -1.00685   3.61882   7.00517   1.87787   0.00114   1.001E+00   2.000E-03  -3.025E-03
1012  8.65698487   0.685  -1.00685   3.61882   7.00516   1.87787   0.00113   1.001E+00   2.000E-03  -3.018E-03
1013  8.65762855   0.685  -1.00684   3.61881   7.00515   1.87787   0.00112   1.001E+00   2.000E-03  -3.010E-03
1014  8.65827127   0.685  -1.00684   3.61881   7.00514   1.87787   0.00111   1.001E+00   2.000E-03  -3.003E-03
1015  8.65891304   0.685  -1.00683   3.61881   7.00513   1.87787   0.00110   1.001E+00   2.000E-03  -2.995E-03
1016  8.65955387   0.685  -1.00683   3.61881   7.00513   1.87787   0.00109   1.001E+00   2.000E-03  -2.987E-03
1017  8.66019375   0.685  -1.00682   3.61881   7.00512   1.87787   0.00108   1.001E+00   2.000E-03  -2.980E-03
1018  8.66083269   0.685  -1.00682   3.61881   7.00511   1.87787   0.00107   1.001E+00   2.000E-03  -2.972E-03
1019  8.66147069   0.685  -1.00681   3.61881   7.00510   1.87787   0.00106   1.001E+00   2.000E-03  -2.965E-03
1020  8.66210775   0.685  -1.00681   3.61881   7.00509   1.87786   0.00105   1.001E+00   2.000E-03  -2.957E-03
1021  8.66274388   0.685  -1.00680   3.61880   7.00508   1.87786   0.00104   1.001E+00   2.000E-03  -2.950E-03
1022  8.66337908   0.685  -1.00680   3.61880   7.00507   1.87786   0.00102   1.001E+00   2.000E-03  -2.942E-03
1023  8.66401336   0.685  -1.00679   3.61880   7.00506   1.87786   0.00101   1.001E+00   2.000E-03  -2.934E-03
1024  8.66464671   0.685  -1.00679   3.61880   7.00505   1.87786   0.00100   1.001E+00   2.000E-03  -2.927E-03
1025  8.66527913   0.685  -1.00678   3.61880   7.00505   1.87786   0.00099   1.001E+00   2.000E-03  -2.919E-03
1026  8.66591064   0.685  -1.00678   3.61880   7.00504   1.87786   0.00098   1.001E+00   2.000E-03  -2.912E-03
1027  8.66654123   0.685  -1.00677   3.61880   7.00503   1.87786   0.00097   1.001E+00   2.000E-03  -2.904E-03
1028  8.66717091   0.685  -1.00677   3.61880   7.00502   1.87786   0.00096   1.001E+00   2.000E-03  -2.897E-03
1029  8.66779967   0.685  -1.00676   3.61880   7.00501   1.87786   0.00095   1.001E+00   2.000E-03  -2.889E-03
1030  8.66842753   0.685  -1.00676   3.61879   7.00500   1.87786   0.00094   1.001E+00   2.000E-03  -2.881E-03
1031  8.66905447   0.685  -1.00675   3.61879   7.00499   1.87785   0.00093   1.001E+00   2.000E-03  -2.874E-03
1032  8.66968052   0.685  -1.00675   3.61879   7.00498   1.87785   0.00092   1.001E+00   2.000E-03  -2.866E-03
1033  8.67030566   0.685  -1.00674   3.61879   7.00497   1.87785   0.00091   1.001E+00   2.000E-03  -2.859E-03
1034  8.67092991   0.685  -1.00674   3.61879   7.00497   1.87785   0.00090   1.001E+00   2.000E-03  -2.851E-03
1035  8.67155326   0.685  -1.00673   3.61879   7.00496   1.87785   0.00088   1.001E+00   2.000E-03  -2.844E-03
1036  8.67217571   0.684  -1.00673   3.61879   7.00495   1.87785   0.00087   1.001E+00   2.000E-03  -2.836E-03
1037  8.67279728   0.684  -1.00672   3.61879   7.00494   1.87785   0.00086   1.001E+00   2.000E-03  -2.829E-03
1038  8.67341795   0.684  -1.00672   3.61878   7.00493   1.87785   0.00085   1.001E+00   2.000E-03  -2.821E-03
1039  8.67403774   0.684  -1.00671   3.61878   7.00492   1.87785   0.00084   1.001E+00   2.000E-03  -2.813E-03
1040  8.67465665   0.684  -1.00671   3.61878   7.00491   1.87785   0.00083   1.001E+00   2.000E-03  -2.806E-03
1041  8.67527468   0.684  -1.00670   3.61878   7.00490   1.87785   0.00082   1.001E+00   2.000E-03  -2.798E-03
1042  8.67589183   0.684  -1.00670   3.61878   7.00489   1.87784   0.00081   1.001E+00   2.000E-03  -2.791E-03
1043  8.67650810   0.684  -1.00669   3.61878   7.00489   1.87784   0.00080   1.001E+00   2.000E-03  -2.783E-03
1044  8.67712350   0.684  -1.00669   3.61878   7.00488   1.87784   0.00079   1.001E+00   2.000E-03  -2.776E-03
1045  8.67773803   0.684  -1.00668   3.61878   7.00487   1.87784   0.00078   1.001E+00   2.000E-03  -2.768E-03
1046  8.67835169   0.684  -1.00668   3.61877   7.00486   1.87784   0.00077   1.001E+00   2.000E-03  -2.760E-03
1047  8.67896448   0.684  -1.00667   3.61877   7.00485   1.87784   0.00075   1.001E+00   2.000E-03  -2.753E-03
1048  8.67957641   0.684  -1.00667   3.61877   7.00484   1.87784   0.00074   1.001E+00   2.000E-03  -2.745E-03
1049  8.68018748   0.684  -1.00666   3.61877   7.00483   1.87784   0.00073   1.001E+00   2.000E-03  -2.738E-03
1050  8.68079770   0.684  -1.00666   3.61877   7.00482   1.87784   0.00072   1.001E+00   2.000E-03  -2.730E-03
1051  8.68140705   0.684  -1.00665   3.61877   7.00482   1.87784   0.00071   1.001E+00   2.000E-03  -2.723E-03
1052  8.68201555   0.684  -1.00665   3.61877   7.00481   1.87784   0.00070   1.001E+00   2.000E-03  -2.715E-03
1053  8.68262320   0.684  -1.00664   3.61877   7.00480   1.87783   0.00069   1.001E+00   2.000E-03  -2.707E-03
1054  8.68323000   0.684  -1.00664   3.61876   7.00479   1.87783   0.00068   1.001E+00   2.000E-03  -2.700E-03
1055  8.68383596   0.684  -1.00663   3.61876   7.00478   1.87783   0.00067   1.001E+00   2.000E-03  -2.692E-03
1056  8.68444107   0.684  -1.00663   3.61876   7.00477   1.87783   0.00066   1.001E+00   2.000E-03  -2.685E-03
1057  8.68504534   0.684  -1.00662   3.61876   7.00476   1.87783   0.00065   1.001E+00   2.000E-03  -2.677E-03
1058  8.68564877   0.684  -1.00662   3.61876   7.00475   1.87783   0.00064   1.001E+00   2.000E-03  -2.670E-03
1059  8.68625136   0.684  -1.00661   3.61876   7.00474   1.87783   0.00063   1.001E+00   2.000E-03  -2.662E-03
1060  8.68685311   0.684  -1.00661   3.61876   7.00474   1.87783   0.00061   1.001E+00   2.000E-03  -2.655E-03
1061  8.68745404   0.684  -1.00660   3.61876   7.00473   1.87783   0.00060   1.001E+00   2.000E-03  -2.647E-03
1062  8.68805413   0.684  -1.00660   3.61876   7.00472   1.87783   0.00059   1.001E+00   2.000E-03  -2.639E-03
1063  8.68865340   0.684  -1.00659   3.61875   7.00471   1.87783   0.00058   1.001E+00   2.000E-03  -2.632E-03
1064  8.68925184   0.684  -1.00659   3.61875   7.00470   1.87782   0.00057   1.001E+00   2.000E-03  -2.624E-03
1065  8.68984945   0.684  -1.00658   3.61875   7.00469   1.87782   0.00056   1.001E+00   2.000E-03  -2.617E-03
1066  8.69044625   0.684  -1.00658   3.61875   7.00468   1.87782   0.00055   1.001E+00   2.000E-03  -2.609E-03
1067  8.69104222   0.684  -1.00657   3.61875   7.00467   1.87782   0.00054   1.001E+00   2.000E-03  -2.602E-03
1068  8.69163738   0.684  -1.00657   3.61875   7.00466   1.87782   0.00053   1.001E+00   2.000E-03  -2.594E-03
1069  8.69223173   0.684  -1.00656   3.61875   7.00466   1.87782   0.00052   1.001E+00   2.000E-03  -2.586E-03
1070  8.69282526   0.684  -1.00656   3.61875   7.00465   1.87782   0.00051   1.001E+00   2.000E-03  -2.579E-03
1071  8.69341798   0.684  -1.00655   3.61874   7.00464   1.87782   0.00050   1.001E+00   2.000E-03  -2.571E-03
1072  8.69400990   0.684  -1.00655   3.61874   7.00463   1.87782   0.00049   1.001E+00   2.000E-03  -2.564E-03
1073  8.69460101   0.684  -1.00654   3.61874   7.00462   1.87782   0.00047   1.001E+00   2.000E-03  -2.556E-03
1074  8.69519131   0.684  -1.00654   3.61874   7.00461   1.87782   0.00046   1.001E+00   2.000E-03  -2.549E-03
1075  8.69578082   0.684  -1.00653   3.61874   7.00460   1.87781   0.00045   1.001E+00   2.000E-03  -2.541E-03
1076  8.69636952   0.684  -1.00653   3.61874   7.00459   1.87781   0.00044   1.001E+00   2.000E-03  -2.533E-03
1077  8.69695743   0.684  -1.00652   3.61874   7.00458   1.87781   0.00043   1.001E+00   2.000E-03  -2.526E-03
1078  8.69754454   0.684  -1.00652   3.61874   7.00458   1.87781   0.00042   1.001E+00   2.000E-03  -2.518E-03
1079  8.69813086   0.684  -1.00651   3.61873   7.00457   1.87781   0.00041   1.001E+00   2.000E-03  -2.511E-03
1080  8.69871639   0.684  -1.00651   3.61873   7.00456   1.87781   0.00040   1.001E+00   2.000E-03  -2.503E-03
1081  8.69930113   0.684  -1.00650   3.61873   7.00455   1.87781   0.00039   1.001E+00   2.000E-03  -2.496E-03
1082  8.69988509   0.684  -1.00650   3.61873   7.00454   1.87781   0.00038   1.001E+00   2.000E-03  -2.488E-03
1083  8.70046826   0.684  -1.00649   3.61873   7.00453   1.87781   0.00037   1.001E+00   2.000E-03  -2.481E-03
1084  8.70105065   0.684  -1.00649   3.61873   7.00452   1.87781   0.00036   1.001E+00   2.000E-03  -2.473E-03
1085  8.70163226   0.684  -1.00648   3.61873   7.00451   1.87781   0.00034   1.001E+00   2.000E-03  -2.465E-03
1086  8.70221309   0.684  -1.00648   3.61873   7.00450   1.87780   0.00033   1.001E+00   2.000E-03  -2.458E-03
1087  8.70279315   0.684  -1.00647   3.61872   7.00450   1.87780   0.00032   1.001E+00   2.000E-03  -2.450E-03
1088  8.70337243   0.684  -1.00647   3.61872   7.00449   1.87780   0.00031   1.001E+00   2.000E-03  -2.443E-03
1089  8.70395094   0.684  -1.00646   3.61872   7.00448   1.87780   0.00030   1.001E+00   2.000E-03  -2.435E-03
1090  8.70452868   0.684  -1.00646   3.61872   7.00447   1.87780   0.00029   1.001E+00   2.000E-03  -2.428E-03
1091  8.70510566   0.684  -1.00645   3.61872   7.00446   1.87780   0.00028   1.001E+00   2.000E-03  -2.420E-03
1092  8.93544290   0.677  -1.00385   3.61851   7.00283   1.87862   0.00000   1.000E+00   1.226E-03  -1.133E-03
1093  9.08515868   0.670  -1.00130   3.61850   7.00244   1.88059   0.00000   9.990E-01   1.000E-03  -5.533E-04
1094  9.19628360   0.663  -0.99866   3.61863   7.00258   1.88358   0.00000   9.990E-01   1.000E-03  -2.480E-04
1095  9.28468938   0.657  -0.99601   3.61882   7.00301   1.88709   0.00000   9.990E-01   1.000E-03  -8.510E-05
1096  9.35810719   0.650  -0.99336   3.61905   7.00361   1.89090   0.00000   9.990E-01   1.000E-03   1.120E-05
1097  9.42088991   0.643  -0.99072   3.61930   7.00430   1.89488   0.00000   9.990E-01   1.000E-03   7.572E-05
1098  9.47573238   0.636  -0.98810   3.61956   7.00507   1.89896   0.00000   9.990E-01   1.000E-03   1.236E-04
1099  9.52441943   0.629  -0.98549   3.61983   7.00588   1.90311   0.00000   9.990E-01   1.000E-03   1.604E-04
1100  9.56819441   0.622  -0.98288   3.62011   7.00672   1.90729   0.00000   9.990E-01   1.000E-03   1.904E-04
1101  9.60795829   0.615  -0.98029   3.62039   7.00760   1.91149   0.00000   9.990E-01   1.000E-03   2.163E-04
1102  9.64438482   0.608  -0.97771   3.62068   7.00849   1.91570   0.00000   9.980E-01   1.000E-03   2.391E-04
1103  9.67799110   0.601  -0.97513   3.62097   7.00941   1.91997   0.00000   9.980E-01   1.000E-03   2.601E-04
1104  9.70918262   0.595  -0.97254   3.62126   7.01035   1.92481   0.00000   9.980E-01   1.000E-03   2.774E-04
1105  9.73828326   0.588  -0.96997   3.62155   7.01138   1.92983   0.00000   9.980E-01   1.000E-03   2.888E-04
1106  9.76555582   0.581  -0.96738   3.62184   7.01245   1.93484   0.00000   9.980E-01   1.000E-03   2.986E-04
1107  9.79121645   0.575  -0.96478   3.62213   7.01356   1.93984   0.00000   9.980E-01   1.000E-03   3.089E-04
1108  9.81544513   0.568  -0.96216   3.62244   7.01469   1.94485   0.00000   9.980E-01   1.000E-03   3.199E-04
1109  9.83839324   0.562  -0.95951   3.62273   7.01585   1.94986   0.00000   9.980E-01   1.000E-03   3.296E-04
1110  9.86018939   0.556  -0.95684   3.62303   7.01703   1.95488   0.00000   9.980E-01   1.000E-03   3.402E-04
1111  9.88094373   0.549  -0.95414   3.62333   7.01822   1.95993   0.00000   9.980E-01   1.000E-03   3.509E-04
1112  9.90075132   0.543  -0.95143   3.62364   7.01943   1.96499   0.00000   9.980E-01   1.000E-03   3.625E-04
1113  9.91969477   0.536  -0.94868   3.62394   7.02066   1.97007   0.00000   9.980E-01   1.000E-03   3.732E-04
1114  9.93784636   0.530  -0.94592   3.62426   7.02189   1.97518   0.00000   9.980E-01   1.000E-03   3.848E-04
1115  9.95526963   0.523  -0.94313   3.62457   7.02313   1.98033   0.00000   9.980E-01   1.000E-03   3.964E-04
1116  9.97202078   0.517  -0.94032   3.62488   7.02438   1.98549   0.00000   9.980E-01   1.000E-03   4.084E-04
1117  9.98814974   0.510  -0.93749   3.62520   7.02565   1.99069   0.00000   9.980E-01   1.000E-03   4.198E-04
1118 10.00370109   0.503  -0.93462   3.62552   7.02692   1.99594   0.00000   9.980E-01   1.000E-03   4.322E-04
1119 10.01871477   0.497  -0.93173   3.62585   7.02820   2.00119   0.00000   9.980E-01   1.000E-03   4.437E-04
1120 10.03322672   0.490  -0.92882   3.62617   7.02949   2.00649   0.00000   9.980E-01   1.000E-03   4.561E-04
1121 10.04726940   0.484  -0.92589   3.62651   7.03078   2.01182   0.00000   9.980E-01   1.000E-03   4.669E-04
1122 10.06087219   0.477  -0.92292   3.62684   7.03208   2.01717   0.00000   9.980E-01   1.000E-03   4.809E-04
1123 10.07406183   0.471  -0.91993   3.62718   7.03339   2.02258   0.00000   9.980E-01   1.000E-03   4.941E-04
1124 10.08686268   0.464  -0.91691   3.62752   7.03471   2.02800   0.00000   9.980E-01   1.000E-03   5.058E-04
1125 10.09929700   0.458  -0.91388   3.62787   7.03603   2.03345   0.00000   9.980E-01   1.000E-03   5.189E-04
1126 10.11138520   0.451  -0.91081   3.62822   7.03736   2.03896   0.00000   9.980E-01   1.000E-03   5.315E-04
1127 10.12314603   0.445  -0.90771   3.62857   7.03870   2.04448   0.00000   9.980E-01   1.000E-03   5.447E-04
1128 10.13459675   0.438  -0.90459   3.62893   7.04004   2.05005   0.00000   9.980E-01   1.000E-03   5.560E-04
1129 10.14575329   0.431  -0.90144   3.62929   7.04140   2.05566   0.00000   9.980E-01   1.000E-03   5.678E-04
1130 10.15663040   0.425  -0.89828   3.62966   7.04276   2.06130   0.00000   9.980E-01   1.000E-03   5.792E-04
1131 10.16724173   0.418  -0.89508   3.63003   7.04412   2.06696   0.00000   9.980E-01   1.000E-03   5.926E-04
1132 10.17759997   0.412  -0.89185   3.63040   7.04550   2.07268   0.00000   9.980E-01   1.000E-03   6.041E-04
1133 10.18771689   0.406  -0.88859   3.63078   7.04689   2.07843   0.00000   9.980E-01   1.000E-03   6.155E-04
1134 10.19760349   0.399  -0.88530   3.63117   7.04829   2.08442   0.00000   9.980E-01   1.000E-03   6.272E-04
1135 10.20727003   0.392  -0.88198   3.63155   7.04974   2.09141   0.00000   9.980E-01   1.000E-03   6.343E-04
1136 10.21672609   0.386  -0.87863   3.63195   7.05125   2.09846   0.00000   9.980E-01   1.000E-03   6.459E-04
1137 10.22598064   0.379  -0.87525   3.63235   7.05278   2.10557   0.00000   9.980E-01   1.000E-03   6.558E-04
1138 10.23504208   0.373  -0.87185   3.63274   7.05435   2.11272   0.00000   9.980E-01   1.000E-03   6.641E-04
1139 10.24391832   0.366  -0.86840   3.63315   7.05596   2.11993   0.00000   9.980E-01   1.000E-03   6.727E-04
1140 10.25261677   0.360  -0.86494   3.63356   7.05759   2.12718   0.00000   9.980E-01   1.000E-03   6.816E-04
1141 10.26114442   0.353  -0.86142   3.63397   7.05925   2.13448   0.00000   9.980E-01   1.000E-03   6.884E-04
1142 10.26950784   0.346  -0.85788   3.63439   7.06093   2.14183   0.00000   9.980E-01   1.000E-03   6.969E-04
1143 10.27771324   0.340  -0.85430   3.63481   7.06265   2.14923   0.00000   9.980E-01   1.000E-03   7.092E-04
1144 10.28576648   0.333  -0.85068   3.63523   7.06438   2.15672   0.00000   9.980E-01   1.000E-03   7.273E-04
1145 10.29367310   0.326  -0.84701   3.63567   7.06614   2.16422   0.00000   9.980E-01   1.000E-03   7.401E-04
1146 10.30143835   0.319  -0.84331   3.63610   7.06792   2.17181   0.00000   9.980E-01   2.000E-03   7.542E-04
1147 10.30906718   0.313  -0.83957   3.63654   7.06973   2.17942   0.00000   9.980E-01   2.000E-03   7.700E-04
1148 10.31656432   0.306  -0.83578   3.63699   7.07155   2.18707   0.00000   9.980E-01   2.000E-03   7.850E-04
1149 10.32393423   0.299  -0.83195   3.63744   7.07339   2.19482   0.00000   9.980E-01   2.000E-03   7.995E-04
1150 10.33118116   0.293  -0.82808   3.63790   7.07526   2.20256   0.00000   9.980E-01   2.000E-03   8.152E-04
1151 10.33830915   0.286  -0.82416   3.63835   7.07714   2.21040   0.00000   9.980E-01   2.000E-03   8.318E-04
1152 10.34532203   0.280  -0.82021   3.63883   7.07904   2.21823   0.00000   9.980E-01   2.000E-03   8.485E-04
1153 10.35222346   0.273  -0.81619   3.63929   7.08096   2.22601   0.00000   9.980E-01   2.000E-03   8.646E-04
1154 10.35901694   0.267  -0.81214   3.63978   7.08290   2.23388   0.00000   9.980E-01   2.000E-03   8.822E-04
1155 10.36570578   0.260  -0.80804   3.64026   7.08486   2.24179   0.00000   9.970E-01   2.000E-03   8.991E-04
1156 10.37229317   0.254  -0.80389   3.64075   7.08683   2.24971   0.00000   9.970E-01   2.000E-03   9.147E-04
1157 10.37878213   0.248  -0.79969   3.64125   7.08882   2.25773   0.00000   9.970E-01   2.000E-03   9.343E-04
1158 10.38517556   0.241  -0.79544   3.64176   7.09083   2.26574   0.00000   9.970E-01   2.000E-03   9.515E-04
1159 10.39147623   0.235  -0.79114   3.64226   7.09286   2.27381   0.00000   9.970E-01   2.000E-03   9.709E-04
1160 10.39768680   0.229  -0.78678   3.64278   7.09491   2.28186   0.00000   9.970E-01   2.000E-03   9.889E-04
1161 10.40380981   0.224  -0.78237   3.64331   7.09698   2.28995   0.00000   9.970E-01   2.000E-03   1.010E-03
1162 10.40984769   0.218  -0.77790   3.64384   7.09907   2.29815   0.00000   9.970E-01   2.000E-03   1.030E-03
1163 10.41580278   0.212  -0.77337   3.64438   7.10117   2.30640   0.00000   9.970E-01   2.000E-03   1.050E-03
1164 10.42167731   0.206  -0.76879   3.64493   7.10330   2.31471   0.00000   9.970E-01   2.000E-03   1.068E-03
1165 10.42747344   0.201  -0.76415   3.64548   7.10545   2.32314   0.00000   9.970E-01   2.000E-03   1.090E-03
1166 10.43319323   0.195  -0.75945   3.64605   7.10761   2.33294   0.00000   9.970E-01   2.000E-03   1.104E-03
1167 10.43883867   0.189  -0.75469   3.64661   7.10984   2.34300   0.00000   9.970E-01   2.000E-03   1.120E-03
1168 10.44441167   0.184  -0.74989   3.64719   7.11219   2.35315   0.00000   9.970E-01   2.000E-03   1.133E-03
1169 10.44991405   0.179  -0.74501   3.64776   7.11459   2.36344   0.00000   9.970E-01   2.000E-03   1.160E-03
1170 10.45534759   0.173  -0.74008   3.64834   7.11704   2.37382   0.00000   9.970E-01   2.000E-03   1.180E-03
1171 10.46071400   0.168  -0.73507   3.64892   7.11956   2.38434   0.00000   9.970E-01   2.000E-03   1.195E-03
1172 10.46601490   0.162  -0.73002   3.64951   7.12214   2.39499   0.00000   9.970E-01   2.000E-03   1.210E-03
1173 10.47125187   0.157  -0.72489   3.65011   7.12477   2.40577   0.00000   9.960E-01   2.000E-03   1.246E-03
1174 10.47642645   0.152  -0.71969   3.65070   7.12746   2.41667   0.00000   9.960E-01   2.000E-03   1.262E-03
1175 10.48154010   0.146  -0.71443   3.65129   7.13020   2.42772   0.00000   9.960E-01   3.000E-03   1.280E-03
1176 10.48659424   0.141  -0.70909   3.65189   7.13298   2.43893   0.00000   9.960E-01   3.000E-03   1.304E-03
1177 10.49159024   0.136  -0.70368   3.65249   7.13581   2.45028   0.00000   9.960E-01   3.000E-03   1.323E-03
1178 10.49652941   0.131  -0.69818   3.65309   7.13868   2.46181   0.00000   9.960E-01   3.000E-03   1.350E-03
1179 10.50141305   0.126  -0.69261   3.65369   7.14159   2.47350   0.00000   9.950E-01   3.000E-03   1.376E-03
1180 10.50624238   0.121  -0.68695   3.65430   7.14452   2.48542   0.00000   9.950E-01   3.000E-03   1.395E-03
1181 10.51101859   0.115  -0.68120   3.65491   7.14749   2.49754   0.00000   9.950E-01   4.000E-03   1.423E-03
1182 10.51574285   0.110  -0.67536   3.65551   7.15049   2.50988   0.00000   9.948E-01   4.000E-03   1.442E-03
1183 10.52041628   0.106  -0.66942   3.65612   7.15351   2.52248   0.00000   9.940E-01   4.000E-03   1.470E-03
1184 10.52503994   0.101  -0.66336   3.65674   7.15656   2.53532   0.00000   9.940E-01   5.000E-03   1.502E-03
1185 10.52961490   0.096  -0.65718   3.65738   7.15963   2.54845   0.00000   9.930E-01   5.000E-03   1.537E-03
1186 10.53414217   0.091  -0.65090   3.65800   7.16272   2.56187   0.00000   9.930E-01   6.000E-03   1.560E-03
1187 10.53862273   0.087  -0.64449   3.65863   7.16584   2.57565   0.00000   9.920E-01   6.000E-03   1.601E-03
1188 10.54305754   0.082  -0.63794   3.65926   7.16899   2.58970   0.00000   9.912E-01   7.000E-03   1.628E-03
1189 10.54744752   0.078  -0.63126   3.65991   7.17217   2.60412   0.00000   9.909E-01   8.000E-03   1.670E-03
1190 10.55179356   0.073  -0.62443   3.66056   7.17540   2.61891   0.00000   9.900E-01   8.527E-03   1.705E-03
1191 10.55609656   0.069  -0.61743   3.66122   7.17867   2.63401   0.00000   9.890E-01   1.000E-02   1.740E-03
1192 10.55734482   0.068  -0.61536   3.66142   7.17964   2.63847   0.00000   9.880E-01   1.000E-02   1.760E-03
1193 10.55858950   0.067  -0.61327   3.66161   7.18062   2.64297   0.00000   9.879E-01   1.007E-02   1.771E-03
1194 10.55983062   0.065  -0.61116   3.66181   7.18160   2.64751   0.00000   9.870E-01   1.100E-02   1.781E-03
1195 10.56106820   0.064  -0.60905   3.66201   7.18259   2.65207   0.00000   9.870E-01   1.100E-02   1.792E-03
1196 10.56230227   0.063  -0.60692   3.66221   7.18358   2.65668   0.00000   9.868E-01   1.122E-02   1.802E-03
1197 10.56353285   0.062  -0.60477   3.66240   7.18458   2.66132   0.00000   9.860E-01   1.200E-02   1.813E-03
1198 10.56475994   0.060  -0.60261   3.66261   7.18559   2.66599   0.00000   9.856E-01   1.236E-02   1.824E-03
1199 10.56598358   0.059  -0.60044   3.66281   7.18661   2.67070   0.00000   9.850E-01   1.300E-02   1.839E-03
1200 10.56720378   0.058  -0.59825   3.66301   7.18764   2.67542   0.00000   9.850E-01   1.353E-02   1.850E-03
1201 10.56842056   0.057  -0.59605   3.66321   7.18867   2.68017   0.00000   9.844E-01   1.400E-02   1.862E-03
1202 10.56963394   0.056  -0.59383   3.66342   7.18972   2.68495   0.00000   9.840E-01   1.473E-02   1.870E-03
1203 10.57084394   0.055  -0.59160   3.66362   7.19078   2.68976   0.00000   9.832E-01   1.500E-02   1.887E-03
1204 10.57205058   0.053  -0.58934   3.66382   7.19186   2.69461   0.00000   9.820E-01   1.596E-02   1.900E-03
1205 10.57325388   0.052  -0.58708   3.66402   7.19294   2.69949   0.00000   9.819E-01   1.608E-02   1.911E-03
1206 10.57445385   0.051  -0.58481   3.66423   7.19404   2.70440   0.00000   9.810E-01   1.700E-02   1.918E-03
1207 10.57565051   0.050  -0.58252   3.66443   7.19515   2.70934   0.00000   9.806E-01   1.735E-02   1.917E-03
1208 10.57684389   0.049  -0.58020   3.66464   7.19628   2.71432   0.00000   9.795E-01   1.850E-02   1.940E-03
1209 10.57803400   0.048  -0.57787   3.66485   7.19743   2.71931   0.00000   9.790E-01   1.900E-02   1.957E-03
1210 10.57922085   0.046  -0.57553   3.66506   7.19859   2.72432   0.00000   9.782E-01   1.982E-02   1.968E-03
1211 10.58040447   0.045  -0.57318   3.66527   7.19977   2.72935   0.00000   9.770E-01   2.099E-02   1.970E-03
1212 10.58158487   0.044  -0.57081   3.66548   7.20097   2.73440   0.00000   9.768E-01   2.200E-02   1.982E-03
1213 10.58276207   0.043  -0.56842   3.66569   7.20219   2.73948   0.00000   9.756E-01   2.236E-02   1.994E-03
1214 10.58393610   0.042  -0.56602   3.66590   7.20342   2.74459   0.00000   9.744E-01   2.355E-02   2.006E-03
1215 10.58510695   0.041  -0.56361   3.66611   7.20469   2.74971   0.00000   9.732E-01   2.475E-02   2.018E-03
1216 10.58627466   0.040  -0.56119   3.66631   7.20598   2.75484   0.00000   9.720E-01   2.596E-02   2.020E-03
1217 10.58743923   0.039  -0.55875   3.66653   7.20729   2.76001   0.00000   9.708E-01   2.717E-02   2.022E-03
1218 10.58860069   0.037  -0.55629   3.66674   7.20863   2.76515   0.00000   9.696E-01   2.840E-02   2.034E-03
1219 10.58975906   0.036  -0.55378   3.66697   7.21000   2.77030   0.00000   9.684E-01   2.963E-02   2.059E-03
1220 10.59091434   0.035  -0.55126   3.66720   7.21141   2.77549   0.00000   9.671E-01   3.089E-02   2.123E-03
1221 10.59206656   0.034  -0.54877   3.66740   7.21284   2.78066   0.00000   9.659E-01   3.214E-02   2.077E-03
1222 10.59321572   0.033  -0.54627   3.66761   7.21429   2.78582   0.00000   9.642E-01   3.377E-02   2.060E-03
1223 10.59436186   0.032  -0.54375   3.66782   7.21578   2.79101   0.00000   9.624E-01   3.564E-02   2.066E-03
1224 10.59550498   0.031  -0.54122   3.66802   7.21731   2.79619   0.00000   9.611E-01   3.690E-02   2.079E-03
1225 10.59664510   0.029  -0.53867   3.66823   7.21887   2.80136   0.00000   9.588E-01   3.917E-02   2.092E-03
1226 10.59778223   0.028  -0.53612   3.66843   7.22047   2.80651   0.00000   9.571E-01   4.088E-02   2.104E-03
1227 10.59891639   0.027  -0.53356   3.66863   7.22211   2.81166   0.00000   9.553E-01   4.272E-02   2.110E-03
1228 10.60004760   0.026  -0.53099   3.66884   7.22377   2.81680   0.00000   9.530E-01   4.500E-02   2.100E-03
1229 10.60117587   0.025  -0.52841   3.66904   7.22547   2.82193   0.00000   9.504E-01   4.757E-02   2.103E-03
1230 10.60230122   0.023  -0.52581   3.66924   7.22721   2.82706   0.00000   9.478E-01   4.958E-02   2.122E-03
1231 10.60342365   0.022  -0.52321   3.66944   7.22896   2.83220   0.00000   9.452E-01   5.175E-02   2.130E-03
1232 10.60454320   0.021  -0.52060   3.66964   7.23074   2.83736   0.00000   9.426E-01   5.453E-02   2.128E-03
1233 10.60565986   0.020  -0.51797   3.66984   7.23253   2.84254   0.00000   9.400E-01   5.797E-02   2.125E-03
1234 10.60677367   0.018  -0.51533   3.67004   7.23432   2.84773   0.00000   9.374E-01   6.060E-02   2.154E-03
1235 10.60788462   0.017  -0.51266   3.67023   7.23612   2.85298   0.00000   9.346E-01   6.344E-02   2.209E-03
1236 10.60899274   0.016  -0.50995   3.67044   7.23795   2.85833   0.00000   9.308E-01   6.719E-02   2.392E-03
1237 10.61009803   0.015  -0.50722   3.67065   7.23977   2.86378   0.00000   9.275E-01   7.034E-02   2.582E-03
1238 10.61120053   0.013  -0.50447   3.67086   7.24153   2.86940   0.00000   9.232E-01   7.377E-02   2.805E-03
1239 10.61230023   0.012  -0.50168   3.67106   7.24318   2.87521   0.00000   9.195E-01   7.753E-02   3.042E-03
1240 10.61339715   0.011  -0.49888   3.67126   7.24473   2.88121   0.00000   9.154E-01   8.080E-02   3.278E-03
1241 10.61449131   0.010  -0.49604   3.67146   7.24613   2.88746   0.00000   9.120E-01   8.500E-02   3.520E-03
1242 10.61479297   0.009  -0.49516   3.67156   7.24650   2.88923   0.00000   9.107E-01   8.564E-02   3.610E-03
1243 10.61509441   0.009  -0.49432   3.67164   7.24685   2.89101   0.00000   9.094E-01   8.658E-02   3.683E-03
1244 10.61539565   0.009  -0.49354   3.67170   7.24720   2.89281   0.00000   9.081E-01   8.790E-02   3.736E-03
1245 10.61569668   0.009  -0.49275   3.67175   7.24754   2.89465   0.00000   9.074E-01   8.863E-02   3.790E-03
1246 10.61599749   0.008  -0.49195   3.67180   7.24786   2.89651   0.00000   9.064E-01   8.963E-02   3.848E-03
1247 10.61629811   0.008  -0.49115   3.67185   7.24817   2.89839   0.00000   9.050E-01   9.101E-02   3.911E-03
1248 10.61659851   0.008  -0.49034   3.67191   7.24847   2.90031   0.00000   9.043E-01   9.172E-02   3.975E-03
1249 10.61689870   0.007  -0.48954   3.67196   7.24876   2.90225   0.00000   9.031E-01   9.289E-02   4.036E-03
1250 10.61719869   0.007  -0.48873   3.67201   7.24904   2.90421   0.00000   9.018E-01   9.418E-02   4.096E-03
1251 10.61749847   0.007  -0.48792   3.67207   7.24930   2.90620   0.00000   9.011E-01   9.493E-02   4.164E-03
1252 10.61779805   0.007  -0.48710   3.67212   7.24956   2.90821   0.00000   9.003E-01   9.569E-02   4.218E-03
1253 10.61809742   0.006  -0.48628   3.67217   7.24981   2.91025   0.00000   8.991E-01   9.646E-02   4.277E-03
1254 10.61839658   0.006  -0.48545   3.67222   7.25005   2.91230   0.00000   8.978E-01   9.749E-02   4.340E-03
1255 10.61869553   0.006  -0.48463   3.67227   7.25028   2.91437   0.00000   8.970E-01   9.904E-02   4.403E-03
1256 10.61899428   0.006  -0.48380   3.67233   7.25051   2.91648   0.00000   8.962E-01   9.985E-02   4.468E-03
1257 10.61929283   0.005  -0.48297   3.67238   7.25072   2.91860   0.00000   8.947E-01   1.007E-01   4.533E-03
1258 10.61959117   0.005  -0.48214   3.67243   7.25092   2.92075   0.00000   8.935E-01   1.015E-01   4.595E-03
1259 10.61988930   0.005  -0.48130   3.67248   7.25112   2.92291   0.00000   8.927E-01   1.023E-01   4.653E-03
1260 10.62018723   0.005  -0.48046   3.67253   7.25131   2.92509   0.00000   8.918E-01   1.034E-01   4.711E-03
1261 10.62048496   0.005  -0.47962   3.67258   7.25150   2.92731   0.00000   8.909E-01   1.050E-01   4.763E-03
1262 10.62078248   0.004  -0.47877   3.67264   7.25167   2.92953   0.00000   8.892E-01   1.059E-01   4.815E-03
1263 10.62107980   0.004  -0.47792   3.67269   7.25184   2.93177   0.00000   8.882E-01   1.068E-01   4.868E-03
1264 10.62137691   0.004  -0.47707   3.67273   7.25201   2.93402   0.00000   8.873E-01   1.077E-01   4.922E-03
1265 10.62167382   0.004  -0.47621   3.67279   7.25216   2.93630   0.00000   8.864E-01   1.086E-01   4.964E-03
1266 10.62197053   0.004  -0.47536   3.67284   7.25231   2.93859   0.00000   8.855E-01   1.095E-01   5.006E-03
1267 10.62226704   0.003  -0.47449   3.67289   7.25246   2.94089   0.00000   8.846E-01   1.104E-01   5.061E-03
1268 10.62256334   0.003  -0.47363   3.67294   7.25260   2.94322   0.00000   8.836E-01   1.114E-01   5.123E-03
1269 10.62285945   0.003  -0.47276   3.67299   7.25274   2.94556   0.00000   8.823E-01   1.123E-01   5.180E-03
1270 10.62315535   0.003  -0.47189   3.67303   7.25287   2.94792   0.00000   8.807E-01   1.133E-01   5.234E-03
1271 10.62345104   0.003  -0.47102   3.67308   7.25299   2.95031   0.00000   8.797E-01   1.143E-01   5.285E-03
1272 10.62374654   0.003  -0.47014   3.67313   7.25312   2.95271   0.00000   8.788E-01   1.152E-01   5.344E-03
1273 10.62404184   0.003  -0.46926   3.67318   7.25324   2.95512   0.00000   8.778E-01   1.162E-01   5.401E-03
1274 10.62433693   0.002  -0.46838   3.67323   7.25336   2.95756   0.00000   8.768E-01   1.172E-01   5.453E-03
1275 10.62463183   0.002  -0.46749   3.67328   7.25348   2.96001   0.00000   8.758E-01   1.182E-01   5.512E-03
1276 10.62492653   0.002  -0.46660   3.67333   7.25359   2.96248   0.00000   8.747E-01   1.193E-01   5.560E-03
1277 10.62522102   0.002  -0.46571   3.67337   7.25369   2.96497   0.00000   8.737E-01   1.203E-01   5.604E-03
1278 10.62551532   0.002  -0.46482   3.67343   7.25379   2.96748   0.00000   8.727E-01   1.213E-01   5.656E-03
1279 10.62580941   0.002  -0.46393   3.67348   7.25389   2.96999   0.00000   8.716E-01   1.224E-01   5.705E-03
1280 10.62610331   0.002  -0.46303   3.67352   7.25400   2.97253   0.00000   8.705E-01   1.235E-01   5.757E-03
1281 10.62639701   0.002  -0.46212   3.67356   7.25410   2.97508   0.00000   8.695E-01   1.245E-01   5.817E-03
1282 10.62669051   0.002  -0.46122   3.67361   7.25419   2.97764   0.00000   8.684E-01   1.256E-01   5.877E-03
1283 10.62698381   0.002  -0.46031   3.67366   7.25429   2.98022   0.00000   8.673E-01   1.267E-01   5.936E-03
1284 10.62727692   0.001  -0.45940   3.67370   7.25438   2.98280   0.00000   8.662E-01   1.278E-01   6.000E-03
1285 10.62756983   0.001  -0.45848   3.67375   7.25447   2.98541   0.00000   8.650E-01   1.290E-01   6.068E-03
1286 10.62786253   0.001  -0.45757   3.67379   7.25456   2.98803   0.00000   8.639E-01   1.301E-01   6.135E-03
1287 10.62815505   0.001  -0.45663   3.67384   7.25465   2.99067   0.00000   8.627E-01   1.313E-01   6.195E-03
1288 10.62844736   0.001  -0.45570   3.67389   7.25474   2.99332   0.00000   8.616E-01   1.324E-01   6.265E-03
1289 10.62873948   0.001  -0.45475   3.67394   7.25483   2.99599   0.00000   8.604E-01   1.336E-01   6.330E-03
1290 10.62903140   0.001  -0.45381   3.67399   7.25492   2.99867   0.00000   8.592E-01   1.348E-01   6.390E-03
1291 10.62932313   0.001  -0.45287   3.67404   7.25501   3.00137   0.00000   8.580E-01   1.360E-01   6.460E-03
1292 10.63012682   0.001  -0.45028   3.67417   7.25523   3.00892   0.00000   8.558E-01   1.382E-01   5.879E-03
1293 10.63092902   0.001  -0.44770   3.67429   7.25544   3.01660   0.00000   8.531E-01   1.419E-01   5.174E-03
1294 10.63172974   0.001  -0.44501   3.67443   7.25563   3.02442   0.00000   8.506E-01   1.444E-01   4.550E-03
1295 10.63252899   0.000  -0.44228   3.67459   7.25582   3.03232   0.00000   8.485E-01   1.475E-01   3.934E-03
1296 10.63332677   0.000  -0.43963   3.67470   7.25600   3.04041   0.00000   8.464E-01   1.506E-01   3.410E-03
1297 10.63412309   0.000  -0.43695   3.67479   7.25615   3.04867   0.00000   8.441E-01   1.538E-01   2.943E-03
1298 10.63491795   0.000  -0.43424   3.67488   7.25640   3.05771   0.00000   8.415E-01   1.565E-01   2.625E-03
1299 10.63571136   0.000  -0.43148   3.67498   7.25667   3.06628   0.00000   8.381E-01   1.593E-01   2.648E-03
1300 10.63650333   0.000  -0.42870   3.67508   7.25694   3.07477   0.00000   8.340E-01   1.630E-01   2.690E-03
1301 10.63729385   0.000  -0.42588   3.67518   7.25724   3.08354   0.00000   8.308E-01   1.662E-01   2.680E-03
1302 10.63808293   0.000  -0.42304   3.67527   7.25751   3.09242   0.00000   8.274E-01   1.705E-01   2.705E-03
1303 10.63887058   0.000  -0.42016   3.67535   7.25783   3.10153   0.00000   8.233E-01   1.737E-01   2.730E-03
1304 10.63965681   0.000  -0.41727   3.67543   7.25820   3.11099   0.00000   8.196E-01   1.774E-01   2.723E-03
1305 10.64044162   0.000  -0.41432   3.67552   7.25852   3.12050   0.00000   8.156E-01   1.814E-01   2.754E-03
1306 10.64122501   0.000  -0.41133   3.67559   7.25882   3.13030   0.00000   8.117E-01   1.853E-01   2.767E-03
1307 10.64200699   0.000  -0.40820   3.67571   7.25911   3.14029   0.00000   8.077E-01   1.893E-01   2.771E-03
1308 10.64278756   0.000  -0.40513   3.67578   7.25945   3.15040   0.00000   8.039E-01   1.931E-01   2.798E-03
1309 10.64356674   0.000  -0.40203   3.67584   7.25979   3.16075   0.00000   8.003E-01   1.977E-01   2.705E-03
1310 10.64434452   0.000  -0.39890   3.67588   7.26018   3.17123   0.00000   7.956E-01   2.016E-01   2.706E-03
1311 10.64512091   0.000  -0.39573   3.67593   7.26073   3.18230   0.00000   7.909E-01   2.061E-01   2.691E-03
1312 10.64589591   0.000  -0.39247   3.67598   7.26110   3.19350   0.00000   7.871E-01   2.109E-01   2.739E-03
1313 10.64666953   0.000  -0.38920   3.67602   7.26153   3.20489   0.00000   7.822E-01   2.152E-01   2.736E-03
1314 10.64744178   0.000  -0.38588   3.67604   7.26197   3.21647   0.00000   7.773E-01   2.197E-01   2.695E-03
1315 10.64821266   0.000  -0.38252   3.67607   7.26255   3.22841   0.00000   7.723E-01   2.247E-01   2.683E-03
1316 10.64898217   0.000  -0.37913   3.67608   7.26305   3.24071   0.00000   7.672E-01   2.298E-01   2.675E-03
1317 10.64975032   0.000  -0.37564   3.67609   7.26356   3.25315   0.00000   7.621E-01   2.349E-01   2.763E-03
1318 10.65051711   0.000  -0.37213   3.67608   7.26416   3.26597   0.00000   7.568E-01   2.403E-01   2.699E-03
1319 10.65128255   0.000  -0.36855   3.67605   7.26475   3.27924   0.00000   7.507E-01   2.465E-01   2.713E-03
1320 10.65204664   0.000  -0.36490   3.67603   7.26536   3.29295   0.00000   7.451E-01   2.519E-01   2.733E-03
1321 10.65280940   0.000  -0.36119   3.67599   7.26596   3.30691   0.00000   7.396E-01   2.574E-01   2.703E-03
1322 10.65357081   0.000  -0.35743   3.67593   7.26660   3.32137   0.00000   7.340E-01   2.634E-01   2.666E-03
1323 10.65433090   0.000  -0.35362   3.67586   7.26727   3.33613   0.00000   7.273E-01   2.697E-01   2.645E-03
1324 10.65508965   0.000  -0.34968   3.67582   7.26800   3.35132   0.00000   7.213E-01   2.757E-01   2.648E-03
1325 10.65584708   0.000  -0.34575   3.67569   7.26888   3.36713   0.00000   7.146E-01   2.825E-01   2.524E-03
1326 10.65660320   0.000  -0.34166   3.67557   7.26969   3.38355   0.00000   7.075E-01   2.895E-01   2.634E-03
1327 10.65735800   0.000  -0.33746   3.67545   7.27060   3.40042   0.00000   7.002E-01   2.976E-01   2.656E-03
1328 10.65811148   0.000  -0.33316   3.67530   7.27151   3.41803   0.00000   6.920E-01   3.053E-01   2.677E-03
1329 10.65886367   0.000  -0.32879   3.67512   7.27247   3.43612   0.00000   6.839E-01   3.131E-01   2.653E-03
1330 10.65961455   0.000  -0.32435   3.67490   7.27349   3.45499   0.00000   6.752E-01   3.218E-01   2.616E-03
1331 10.66036414   0.000  -0.31978   3.67465   7.27455   3.47440   0.00000   6.662E-01   3.318E-01   2.632E-03
1332 10.66111244   0.000  -0.31502   3.67441   7.27572   3.49448   0.00000   6.558E-01   3.412E-01   2.710E-03
1333 10.66185945   0.000  -0.31011   3.67413   7.27695   3.51543   0.00000   6.454E-01   3.516E-01   2.704E-03
1334 10.66260517   0.000  -0.30538   3.67373   7.27825   3.53731   0.00000   6.356E-01   3.623E-01   2.222E-03
1335 10.66334962   0.000  -0.30018   3.67337   7.27966   3.55989   0.00000   6.226E-01   3.744E-01   2.733E-03
1336 10.66409279   0.000  -0.29487   3.67297   7.28118   3.58339   0.00000   6.097E-01   3.873E-01   2.674E-03
1337 10.66483470   0.000  -0.28955   3.67246   7.28280   3.60807   0.00000   5.969E-01   4.002E-01   2.617E-03
1338 10.66557534   0.000  -0.28382   3.67196   7.28456   3.63352   0.00000   5.826E-01   4.154E-01   2.764E-03
1339 10.66631472   0.000  -0.27792   3.67131   7.28696   3.66220   0.00000   5.700E-01   4.280E-01   2.246E-03
1340 10.66705284   0.000  -0.27038   3.67040   7.29036   3.70290   0.00000   5.564E-01   4.406E-01   2.866E-03
1341 10.66778971   0.971  -0.26236   3.66931   7.29247   3.74559   0.00000   5.400E-01   4.570E-01   2.830E-03
