 # M = 0.30 Mo, Y = 0.2880, Z = 2.00000E-02, alpha = 1.68, X_D = 2.0E-05
 # Solar Mixture: Asplund et al. (2005)         
 # ------------------------------------------------------------------------------------------------------------
 # NMD   LOG AGE    Xc      LOG L     LOG TE    LOG Tc   LOG RHOc    M-CC       L-PP       L-CNO       L-GRA
 #        (yr)              (Lo)        (K)       (K)   (gr/cm^3)    (Mo)        (L)         (L)         (L)
 # ------------------------------------------------------------------------------------------------------------
   1  5.17600125   0.692  -0.18259   3.53430   6.02982  -0.63624   0.00000   9.410E-01   0.000E+00   5.880E-02
   2  5.34043345   0.692  -0.19127   3.53407   6.03351  -0.62513   0.00000   8.985E-01   0.000E+00   1.015E-01
   3  5.45942314   0.692  -0.20014   3.53387   6.03736  -0.61359   0.00000   8.919E-01   0.000E+00   1.081E-01
   4  5.55272422   0.692  -0.20871   3.53367   6.04107  -0.60245   0.00000   8.901E-01   0.000E+00   1.099E-01
   5  5.62948273   0.692  -0.21668   3.53349   6.04451  -0.59208   0.00000   8.932E-01   0.000E+00   1.068E-01
   6  5.69469069   0.692  -0.22463   3.53330   6.04795  -0.58174   0.00000   8.959E-01   0.000E+00   1.041E-01
   7  5.75137393   0.692  -0.23231   3.53314   6.05129  -0.57168   0.00000   8.951E-01   0.000E+00   1.049E-01
   8  5.80150583   0.692  -0.23999   3.53297   6.05464  -0.56162   0.00000   8.943E-01   0.000E+00   1.057E-01
   9  5.84644510   0.692  -0.24779   3.53280   6.05805  -0.55136   0.00000   8.915E-01   0.000E+00   1.085E-01
  10  5.88716718   0.692  -0.25569   3.53264   6.06150  -0.54097   0.00000   8.873E-01   0.000E+00   1.127E-01
  11  5.92439611   0.692  -0.26358   3.53247   6.06496  -0.53059   0.00000   8.830E-01   0.000E+00   1.170E-01
  12  5.95868412   0.692  -0.27209   3.53231   6.06870  -0.51932   0.00000   8.756E-01   0.000E+00   1.244E-01
  13  5.99046202   0.692  -0.28061   3.53214   6.07245  -0.50804   0.00000   8.681E-01   0.000E+00   1.319E-01
  14  6.02007239   0.692  -0.28959   3.53197   6.07642  -0.49611   0.00000   8.586E-01   0.000E+00   1.414E-01
  15  6.04779213   0.692  -0.29912   3.53180   6.08064  -0.48341   0.00000   8.466E-01   0.000E+00   1.534E-01
  16  6.07384826   0.692  -0.30879   3.53162   6.08493  -0.47049   0.00000   8.340E-01   0.000E+00   1.660E-01
  17  6.09842920   0.692  -0.31972   3.53143   6.08979  -0.45586   0.00000   8.154E-01   0.000E+00   1.846E-01
  18  6.12169308   0.692  -0.33065   3.53124   6.09466  -0.44120   0.00000   7.967E-01   0.000E+00   2.033E-01
  19  6.14377388   0.692  -0.34328   3.53104   6.10032  -0.42416   0.00000   7.684E-01   0.000E+00   2.316E-01
  20  6.16478614   0.692  -0.35626   3.53083   6.10615  -0.40664   0.00000   7.377E-01   0.000E+00   2.623E-01
  21  6.18482852   0.692  -0.37085   3.53061   6.11271  -0.38688   0.00000   6.967E-01   0.000E+00   3.033E-01
  22  6.20398662   0.692  -0.38667   3.53038   6.11984  -0.36541   0.00000   6.471E-01   0.000E+00   3.529E-01
  23  6.22233518   0.692  -0.40376   3.53014   6.12757  -0.34214   0.00000   5.882E-01   0.000E+00   4.118E-01
  24  6.23993985   0.692  -0.42241   3.52989   6.13605  -0.31661   0.00000   5.171E-01   0.000E+00   4.829E-01
  25  6.25685861   0.692  -0.44285   3.52961   6.14534  -0.28864   0.00000   4.353E-01   0.000E+00   5.647E-01
  26  6.27314291   0.692  -0.46445   3.52936   6.15524  -0.25883   0.00000   3.477E-01   0.000E+00   6.523E-01
  27  6.28883861   0.692  -0.48707   3.52909   6.16560  -0.22764   0.00000   2.614E-01   0.000E+00   7.386E-01
  28  6.30398679   0.692  -0.51002   3.52883   6.17617  -0.19582   0.00000   1.853E-01   0.000E+00   8.147E-01
  29  6.31862436   0.692  -0.53281   3.52858   6.18674  -0.16405   0.00000   1.240E-01   0.000E+00   8.760E-01
  30  6.33278463   0.692  -0.55499   3.52836   6.19698  -0.13318   0.00000   7.847E-02   0.000E+00   9.215E-01
  31  6.34649774   0.692  -0.57625   3.52813   6.20692  -0.10337   0.00000   4.777E-02   0.000E+00   9.522E-01
  32  6.35979107   0.692  -0.59633   3.52794   6.21630  -0.07518   0.00000   3.419E-02   0.000E+00   9.658E-01
  33  6.37268956   0.692  -0.61519   3.52777   6.22507  -0.04875   0.00000   2.818E-02   0.000E+00   9.718E-01
  34  6.38521599   0.692  -0.63296   3.52762   6.23335  -0.02378   0.00000   2.252E-02   0.000E+00   9.775E-01
  35  6.39739123   0.692  -0.64977   3.52749   6.24119  -0.00012   0.00000   1.763E-02   0.000E+00   9.824E-01
  36  6.40923442   0.692  -0.66572   3.52736   6.24865   0.02240   0.00000   1.371E-02   0.000E+00   9.863E-01
  37  6.42076321   0.692  -0.68091   3.52725   6.25577   0.04391   0.00000   1.061E-02   0.000E+00   9.894E-01
  38  6.43199385   0.692  -0.69531   3.52716   6.26254   0.06436   0.00000   8.305E-03   0.000E+00   9.917E-01
  39  6.44294138   0.692  -0.70896   3.52708   6.26896   0.08375   0.00000   6.126E-03   0.000E+00   9.939E-01
  40  6.45361972   0.692  -0.72206   3.52701   6.27514   0.10243   0.00000   4.676E-03   0.000E+00   9.953E-01
  41  6.46404178   0.692  -0.73470   3.52694   6.28113   0.12050   0.00000   4.000E-03   0.000E+00   9.960E-01
  42  6.48797757   0.692  -0.76245   3.52682   6.29428   0.16024   0.00000   1.521E-03   0.000E+00   9.985E-01
  43  6.51066279   0.692  -0.78788   3.52673   6.30640   0.19688   0.00000   1.000E-03   0.000E+00   9.990E-01
  44  6.53222164   0.692  -0.81116   3.52667   6.31754   0.23061   0.00000   9.161E-04   0.000E+00   9.991E-01
  45  6.55276072   0.692  -0.83259   3.52664   6.32784   0.26173   0.00000   0.000E+00   0.000E+00   1.000E+00
  46  6.57237214   0.692  -0.85252   3.52662   6.33744   0.29077   0.00000   0.000E+00   0.000E+00   1.000E+00
  47  6.59113611   0.692  -0.87113   3.52661   6.34644   0.31799   0.00000   0.000E+00   0.000E+00   1.000E+00
  48  6.60912283   0.692  -0.88859   3.52662   6.35490   0.34362   0.00000   0.000E+00   0.000E+00   1.000E+00
  49  6.62639414   0.692  -0.90508   3.52663   6.36290   0.36786   0.00000   0.000E+00   0.000E+00   1.000E+00
  50  6.64300479   0.692  -0.92059   3.52667   6.37046   0.39078   0.00000   0.000E+00   0.000E+00   1.000E+00
  51  6.65900345   0.692  -0.93520   3.52669   6.37759   0.41238   0.00000   0.000E+00   0.000E+00   1.000E+00
  52  6.67443364   0.692  -0.94914   3.52673   6.38441   0.43302   0.00000   0.000E+00   0.000E+00   1.000E+00
  53  6.68933435   0.692  -0.96249   3.52677   6.39095   0.45286   0.00000   0.000E+00   0.000E+00   1.000E+00
  54  6.70374074   0.692  -0.97521   3.52681   6.39718   0.47175   0.00000   0.000E+00   0.000E+00   1.000E+00
  55  6.71768454   0.692  -0.98726   3.52685   6.40310   0.48973   0.00000   0.000E+00   0.000E+00   1.000E+00
  56  6.73119454   0.692  -0.99898   3.52690   6.40886   0.50722   0.00000   0.000E+00   0.000E+00   1.000E+00
  57  6.74429693   0.692  -1.01011   3.52695   6.41434   0.52384   0.00000   0.000E+00   0.000E+00   1.000E+00
  58  6.75701557   0.692  -1.02086   3.52699   6.41963   0.53991   0.00000   0.000E+00   0.000E+00   1.000E+00
  59  6.76937231   0.692  -1.03127   3.52704   6.42476   0.55548   0.00000   0.000E+00   0.000E+00   1.000E+00
  60  6.78138717   0.692  -1.04119   3.52708   6.42966   0.57035   0.00000   0.000E+00   0.000E+00   1.000E+00
  61  6.79307857   0.692  -1.05093   3.52713   6.43447   0.58495   0.00000   0.000E+00   0.000E+00   1.000E+00
  62  6.80446347   0.692  -1.06017   3.52718   6.43903   0.59881   0.00000   0.000E+00   0.000E+00   1.000E+00
  63  6.81555752   0.692  -1.06929   3.52723   6.44354   0.61250   0.00000   0.000E+00   0.000E+00   1.000E+00
  64  6.82637522   0.692  -1.07798   3.52727   6.44783   0.62554   0.00000   0.000E+00   0.000E+00   1.000E+00
  65  6.83693000   0.692  -1.08651   3.52731   6.45205   0.63837   0.00000   0.000E+00   0.000E+00   1.000E+00
  66  6.84723433   0.692  -1.09475   3.52735   6.45612   0.65074   0.00000   0.000E+00   0.000E+00   1.000E+00
  67  6.85729984   0.692  -1.10275   3.52740   6.46008   0.66277   0.00000   0.000E+00   0.000E+00   1.000E+00
  68  6.86713734   0.692  -1.11064   3.52744   6.46397   0.67463   0.00000   0.000E+00   0.000E+00   1.000E+00
  69  6.87675693   0.692  -1.11813   3.52748   6.46768   0.68589   0.00000   0.000E+00   0.000E+00   1.000E+00
  70  6.88616805   0.692  -1.12562   3.52752   6.47138   0.69716   0.00000   0.000E+00   0.000E+00   1.000E+00
  71  6.89537955   0.692  -1.13278   3.52756   6.47492   0.70792   0.00000   0.000E+00   0.000E+00   1.000E+00
  72  6.90439973   0.692  -1.13980   3.52759   6.47839   0.71848   0.00000   0.000E+00   0.000E+00   1.000E+00
  73  6.91323637   0.692  -1.14681   3.52763   6.48185   0.72901   0.00000   0.000E+00   0.000E+00   1.000E+00
  74  6.92189678   0.692  -1.15339   3.52767   6.48510   0.73890   0.00000   0.000E+00   0.000E+00   1.000E+00
  75  6.93038787   0.692  -1.15997   3.52770   6.48835   0.74880   0.00000   0.000E+00   0.000E+00   1.000E+00
  76  6.93871612   0.692  -1.16646   3.52774   6.49156   0.75857   0.00000   0.000E+00   0.000E+00   1.000E+00
  77  6.94688766   0.692  -1.17264   3.52777   6.49460   0.76785   0.00000   0.000E+00   0.000E+00   1.000E+00
  78  6.95490829   0.692  -1.17881   3.52780   6.49764   0.77713   0.00000   0.000E+00   0.000E+00   1.000E+00
  79  6.96278347   0.692  -1.18492   3.52782   6.50066   0.78631   0.00000   0.000E+00   0.000E+00   1.000E+00
  80  6.97051839   0.692  -1.19070   3.52785   6.50351   0.79500   0.00000   0.000E+00   0.000E+00   1.000E+00
  81  6.97811796   0.692  -1.19648   3.52788   6.50636   0.80369   0.00000   0.000E+00   0.000E+00   1.000E+00
  82  6.98558683   0.692  -1.20227   3.52791   6.50921   0.81238   0.00000   0.000E+00   0.000E+00   1.000E+00
  83  6.99292941   0.692  -1.20772   3.52793   6.51190   0.82057   0.00000   0.000E+00   0.000E+00   1.000E+00
  84  7.00014992   0.692  -1.21315   3.52795   6.51457   0.82871   0.00000   0.000E+00   0.000E+00   1.000E+00
  85  7.00725235   0.692  -1.21857   3.52798   6.51724   0.83686   0.00000   0.000E+00   0.000E+00   1.000E+00
  86  7.01424048   0.692  -1.22384   3.52800   6.51983   0.84477   0.00000   0.000E+00   0.000E+00   1.000E+00
  87  7.02111795   0.692  -1.22894   3.52802   6.52234   0.85240   0.00000   0.000E+00   0.000E+00   1.000E+00
  88  7.02788821   0.692  -1.23403   3.52804   6.52484   0.86003   0.00000   0.000E+00   0.000E+00   1.000E+00
  89  7.03455454   0.692  -1.23912   3.52806   6.52734   0.86766   0.00000   0.000E+00   0.000E+00   1.000E+00
  90  7.04112009   0.692  -1.24396   3.52807   6.52971   0.87492   0.00000   0.000E+00   0.000E+00   1.000E+00
  91  7.04758786   0.692  -1.24873   3.52809   6.53205   0.88207   0.00000   0.000E+00   0.000E+00   1.000E+00
  92  7.05396071   0.692  -1.25350   3.52811   6.53440   0.88922   0.00000   0.000E+00   0.000E+00   1.000E+00
  93  7.06024141   0.692  -1.25827   3.52813   6.53674   0.89637   0.00000   0.000E+00   0.000E+00   1.000E+00
  94  7.06643257   0.692  -1.26279   3.52814   6.53895   0.90314   0.00000   0.000E+00   0.000E+00   1.000E+00
  95  7.07253670   0.692  -1.26727   3.52816   6.54114   0.90984   0.00000   0.000E+00   0.000E+00   1.000E+00
  96  7.07855623   0.692  -1.27174   3.52817   6.54333   0.91654   0.00000   0.000E+00   0.000E+00   1.000E+00
  97  7.08449347   0.692  -1.27622   3.52819   6.54553   0.92324   0.00000   0.000E+00   0.000E+00   1.000E+00
  98  7.09035063   0.692  -1.28051   3.52820   6.54763   0.92965   0.00000   0.000E+00   0.000E+00   1.000E+00
  99  7.09612985   0.692  -1.28471   3.52821   6.54968   0.93592   0.00000   0.000E+00   0.000E+00   1.000E+00
 100  7.10183317   0.692  -1.28891   3.52823   6.55173   0.94219   0.00000   0.000E+00   0.000E+00   1.000E+00
 101  7.10746256   0.692  -1.29310   3.52824   6.55378   0.94846   0.00000   0.000E+00   0.000E+00   1.000E+00
 102  7.11301992   0.692  -1.29725   3.52825   6.55581   0.95465   0.00000   0.000E+00   0.000E+00   1.000E+00
 103  7.11850706   0.692  -1.30119   3.52826   6.55773   0.96052   0.00000   0.000E+00   0.000E+00   1.000E+00
 104  7.12392573   0.692  -1.30512   3.52827   6.55964   0.96639   0.00000   0.000E+00   0.000E+00   1.000E+00
 105  7.12927764   0.692  -1.30906   3.52828   6.56156   0.97226   0.00000   0.000E+00   0.000E+00   1.000E+00
 106  7.13456439   0.692  -1.31300   3.52829   6.56348   0.97813   0.00000   0.000E+00   0.000E+00   1.000E+00
 107  7.13978755   0.692  -1.31683   3.52829   6.56535   0.98384   0.00000   0.000E+00   0.000E+00   1.000E+00
 108  7.14494865   0.692  -1.32052   3.52830   6.56714   0.98934   0.00000   0.000E+00   0.000E+00   1.000E+00
 109  7.15004913   0.692  -1.32421   3.52831   6.56894   0.99484   0.00000   0.000E+00   0.000E+00   1.000E+00
 110  7.15509040   0.692  -1.32790   3.52832   6.57074   1.00034   0.00000   0.000E+00   0.000E+00   1.000E+00
 111  7.16007383   0.692  -1.33159   3.52832   6.57253   1.00585   0.00000   0.000E+00   0.000E+00   1.000E+00
 112  7.16500072   0.692  -1.33521   3.52833   6.57429   1.01123   0.00000   0.000E+00   0.000E+00   1.000E+00
 113  7.16987234   0.692  -1.33867   3.52833   6.57597   1.01638   0.00000   0.000E+00   0.000E+00   1.000E+00
 114  7.17468992   0.692  -1.34214   3.52834   6.57765   1.02152   0.00000   0.000E+00   0.000E+00   1.000E+00
 115  7.17945465   0.692  -1.34560   3.52834   6.57934   1.02667   0.00000   0.000E+00   0.000E+00   1.000E+00
 116  7.18416767   0.692  -1.34907   3.52835   6.58102   1.03182   0.00000   0.000E+00   0.000E+00   1.000E+00
 117  7.18883009   0.692  -1.35253   3.52835   6.58270   1.03697   0.00000   0.000E+00   0.000E+00   1.000E+00
 118  7.19344299   0.692  -1.35580   3.52835   6.58428   1.04182   0.00000   0.000E+00   0.000E+00   1.000E+00
 119  7.19800740   0.692  -1.35905   3.52836   6.58585   1.04665   0.00000   0.000E+00   0.000E+00   1.000E+00
 120  7.20252435   0.692  -1.36230   3.52836   6.58743   1.05148   0.00000   0.000E+00   0.000E+00   1.000E+00
 121  7.20699480   0.692  -1.36556   3.52836   6.58900   1.05631   0.00000   0.000E+00   0.000E+00   1.000E+00
 122  7.21141969   0.692  -1.36881   3.52837   6.59057   1.06114   0.00000   0.000E+00   0.000E+00   1.000E+00
 123  7.21579996   0.692  -1.37203   3.52837   6.59213   1.06592   0.00000   2.550E-05   0.000E+00   1.000E+00
 124  7.22013649   0.692  -1.37508   3.52837   6.59361   1.07045   0.00000   1.881E-04   0.000E+00   9.998E-01
 125  7.22443015   0.692  -1.37813   3.52837   6.59508   1.07497   0.00000   3.506E-04   0.000E+00   9.996E-01
 126  7.22868177   0.692  -1.38118   3.52838   6.59655   1.07950   0.00000   5.132E-04   0.000E+00   9.995E-01
 127  7.23289218   0.692  -1.38423   3.52838   6.59803   1.08402   0.00000   6.758E-04   0.000E+00   9.993E-01
 128  7.23706216   0.692  -1.38729   3.52838   6.59950   1.08855   0.00000   8.384E-04   0.000E+00   9.992E-01
 129  7.24119247   0.692  -1.39034   3.52838   6.60098   1.09307   0.00000   1.000E-03   0.000E+00   9.990E-01
 130  7.24528388   0.692  -1.39320   3.52838   6.60236   1.09731   0.00000   1.000E-03   0.000E+00   9.990E-01
 131  7.24933710   0.692  -1.39607   3.52838   6.60374   1.10155   0.00000   1.000E-03   0.000E+00   9.990E-01
 132  7.25335285   0.692  -1.39893   3.52838   6.60512   1.10579   0.00000   1.000E-03   0.000E+00   9.990E-01
 133  7.25733180   0.692  -1.40180   3.52837   6.60650   1.11002   0.00000   1.000E-03   0.000E+00   9.990E-01
 134  7.26127463   0.692  -1.40466   3.52837   6.60788   1.11426   0.00000   1.000E-03   0.000E+00   9.990E-01
 135  7.26518198   0.692  -1.40753   3.52837   6.60926   1.11850   0.00000   1.000E-03   0.000E+00   9.990E-01
 136  7.26905449   0.692  -1.41032   3.52837   6.61061   1.12261   0.00000   1.000E-03   0.000E+00   9.990E-01
 137  7.27289278   0.692  -1.41301   3.52837   6.61190   1.12658   0.00000   1.000E-03   0.000E+00   9.990E-01
 138  7.27669744   0.692  -1.41569   3.52837   6.61319   1.13055   0.00000   1.000E-03   0.000E+00   9.990E-01
 139  7.28046906   0.692  -1.41838   3.52837   6.61449   1.13452   0.00000   1.000E-03   0.000E+00   9.990E-01
 140  7.28420821   0.692  -1.42107   3.52836   6.61578   1.13849   0.00000   1.000E-03   0.000E+00   9.990E-01
 141  7.28791543   0.692  -1.42376   3.52836   6.61707   1.14246   0.00000   1.000E-03   0.000E+00   9.990E-01
 142  7.29159128   0.692  -1.42645   3.52836   6.61837   1.14643   0.00000   1.000E-03   0.000E+00   9.990E-01
 143  7.29523628   0.692  -1.42906   3.52836   6.61962   1.15028   0.00000   1.000E-03   0.000E+00   9.990E-01
 144  7.29885095   0.692  -1.43159   3.52836   6.62083   1.15400   0.00000   1.000E-03   0.000E+00   9.990E-01
 145  7.30243577   0.692  -1.43412   3.52835   6.62204   1.15772   0.00000   1.000E-03   0.000E+00   9.990E-01
 146  7.30599125   0.692  -1.43664   3.52835   6.62325   1.16145   0.00000   1.000E-03   0.000E+00   9.990E-01
 147  7.30951785   0.692  -1.43917   3.52835   6.62446   1.16517   0.00000   1.000E-03   0.000E+00   9.990E-01
 148  7.31301605   0.692  -1.44169   3.52835   6.62567   1.16889   0.00000   1.000E-03   0.000E+00   9.990E-01
 149  7.31648629   0.692  -1.44422   3.52834   6.62688   1.17261   0.00000   1.000E-03   0.000E+00   9.990E-01
 150  7.31992903   0.692  -1.44674   3.52834   6.62809   1.17633   0.00000   1.000E-03   0.000E+00   9.990E-01
 151  7.32334469   0.692  -1.44911   3.52834   6.62923   1.17982   0.00000   1.000E-03   0.000E+00   9.990E-01
 152  7.32673369   0.692  -1.45147   3.52833   6.63036   1.18331   0.00000   1.000E-03   0.000E+00   9.990E-01
 153  7.33009646   0.692  -1.45384   3.52833   6.63149   1.18680   0.00000   1.000E-03   0.000E+00   9.990E-01
 154  7.33343338   0.692  -1.45621   3.52833   6.63263   1.19029   0.00000   1.000E-03   0.000E+00   9.990E-01
 155  7.33674486   0.692  -1.45858   3.52833   6.63376   1.19378   0.00000   1.000E-03   0.000E+00   9.990E-01
 156  7.34003128   0.692  -1.46095   3.52832   6.63489   1.19727   0.00000   1.000E-03   0.000E+00   9.990E-01
 157  7.34329302   0.692  -1.46331   3.52832   6.63603   1.20076   0.00000   1.000E-03   0.000E+00   9.990E-01
 158  7.34653045   0.692  -1.46566   3.52832   6.63715   1.20422   0.00000   1.014E-03   0.000E+00   9.990E-01
 159  7.34974392   0.692  -1.46789   3.52831   6.63821   1.20750   0.00000   1.132E-03   0.000E+00   9.989E-01
 160  7.35293379   0.692  -1.47011   3.52831   6.63928   1.21077   0.00000   1.250E-03   0.000E+00   9.987E-01
 161  7.35610040   0.692  -1.47233   3.52831   6.64034   1.21404   0.00000   1.369E-03   0.000E+00   9.986E-01
 162  7.35924408   0.692  -1.47456   3.52830   6.64140   1.21732   0.00000   1.487E-03   0.000E+00   9.985E-01
 163  7.36236518   0.692  -1.47678   3.52830   6.64246   1.22059   0.00000   1.606E-03   0.000E+00   9.984E-01
 164  7.36546400   0.692  -1.47901   3.52829   6.64353   1.22386   0.00000   1.724E-03   0.000E+00   9.983E-01
 165  7.36854087   0.692  -1.48123   3.52829   6.64459   1.22714   0.00000   1.843E-03   0.000E+00   9.982E-01
 166  7.37159610   0.692  -1.48345   3.52828   6.64565   1.23041   0.00000   1.961E-03   0.000E+00   9.980E-01
 167  7.37462998   0.692  -1.48558   3.52828   6.64667   1.23354   0.00000   2.000E-03   0.000E+00   9.980E-01
 168  7.37764281   0.692  -1.48767   3.52827   6.64766   1.23661   0.00000   2.000E-03   0.000E+00   9.980E-01
 169  7.38063489   0.692  -1.48975   3.52827   6.64866   1.23968   0.00000   2.000E-03   0.000E+00   9.980E-01
 170  7.38360649   0.692  -1.49184   3.52826   6.64965   1.24275   0.00000   2.000E-03   0.000E+00   9.980E-01
 171  7.38655790   0.692  -1.49392   3.52826   6.65065   1.24581   0.00000   2.000E-03   0.000E+00   9.980E-01
 172  7.38948939   0.692  -1.49601   3.52825   6.65164   1.24888   0.00000   2.000E-03   0.000E+00   9.980E-01
 173  7.39240122   0.692  -1.49809   3.52825   6.65264   1.25195   0.00000   2.000E-03   0.000E+00   9.980E-01
 174  7.39529366   0.692  -1.50018   3.52825   6.65363   1.25502   0.00000   2.000E-03   0.000E+00   9.980E-01
 175  7.39816696   0.692  -1.50226   3.52824   6.65463   1.25808   0.00000   2.000E-03   0.000E+00   9.980E-01
 176  7.40102138   0.692  -1.50426   3.52824   6.65558   1.26102   0.00000   2.070E-03   0.000E+00   9.979E-01
 177  7.40385716   0.692  -1.50622   3.52823   6.65651   1.26389   0.00000   2.175E-03   0.000E+00   9.978E-01
 178  7.40667454   0.692  -1.50817   3.52823   6.65744   1.26676   0.00000   2.279E-03   0.000E+00   9.977E-01
 179  7.40947377   0.692  -1.51013   3.52822   6.65837   1.26963   0.00000   2.383E-03   0.000E+00   9.976E-01
 180  7.41225506   0.692  -1.51208   3.52822   6.65930   1.27250   0.00000   2.487E-03   0.000E+00   9.975E-01
 181  7.41501866   0.692  -1.51404   3.52822   6.66023   1.27537   0.00000   2.592E-03   0.000E+00   9.974E-01
 182  7.41776479   0.692  -1.51600   3.52821   6.66116   1.27824   0.00000   2.696E-03   0.000E+00   9.973E-01
 183  7.42049365   0.692  -1.51795   3.52821   6.66210   1.28111   0.00000   2.800E-03   0.000E+00   9.972E-01
 184  7.42320548   0.692  -1.51991   3.52820   6.66303   1.28398   0.00000   2.904E-03   0.000E+00   9.971E-01
 185  7.42590048   0.692  -1.52185   3.52820   6.66395   1.28683   0.00000   3.008E-03   0.000E+00   9.970E-01
 186  7.42857886   0.692  -1.52369   3.52819   6.66482   1.28953   0.00000   3.106E-03   0.000E+00   9.969E-01
 187  7.43124082   0.692  -1.52552   3.52819   6.66570   1.29222   0.00000   3.204E-03   0.000E+00   9.968E-01
 188  7.43388657   0.692  -1.52736   3.52818   6.66657   1.29491   0.00000   3.302E-03   0.000E+00   9.967E-01
 189  7.43651629   0.692  -1.52919   3.52818   6.66744   1.29760   0.00000   3.399E-03   0.000E+00   9.966E-01
 190  7.43913019   0.692  -1.53103   3.52818   6.66831   1.30029   0.00000   3.497E-03   0.000E+00   9.965E-01
 191  7.44172845   0.692  -1.53286   3.52817   6.66919   1.30298   0.00000   3.595E-03   0.000E+00   9.964E-01
 192  7.44431126   0.692  -1.53469   3.52817   6.67006   1.30567   0.00000   3.693E-03   0.000E+00   9.963E-01
 193  7.44687880   0.692  -1.53653   3.52816   6.67093   1.30836   0.00000   3.790E-03   0.000E+00   9.962E-01
 194  7.44943124   0.692  -1.53836   3.52816   6.67180   1.31105   0.00000   3.888E-03   0.000E+00   9.961E-01
 195  7.45196878   0.692  -1.54020   3.52815   6.67268   1.31375   0.00000   3.986E-03   0.000E+00   9.960E-01
 196  7.45449157   0.692  -1.54193   3.52815   6.67350   1.31629   0.00000   4.079E-03   0.000E+00   9.959E-01
 197  7.45699980   0.692  -1.54365   3.52814   6.67431   1.31881   0.00000   4.170E-03   0.000E+00   9.958E-01
 198  7.45949362   0.692  -1.54537   3.52814   6.67513   1.32134   0.00000   4.262E-03   0.000E+00   9.957E-01
 199  7.46197320   0.692  -1.54709   3.52813   6.67594   1.32386   0.00000   4.354E-03   0.000E+00   9.956E-01
 200  7.46443870   0.692  -1.54880   3.52813   6.67676   1.32638   0.00000   4.445E-03   0.000E+00   9.956E-01
 201  7.46689029   0.692  -1.55052   3.52812   6.67758   1.32890   0.00000   4.537E-03   0.000E+00   9.955E-01
 202  7.46932812   0.692  -1.55224   3.52812   6.67839   1.33142   0.00000   4.629E-03   0.000E+00   9.954E-01
 203  7.47175233   0.692  -1.55396   3.52811   6.67921   1.33394   0.00000   4.721E-03   0.000E+00   9.953E-01
 204  7.47416310   0.692  -1.55567   3.52811   6.68002   1.33647   0.00000   4.812E-03   0.000E+00   9.952E-01
 205  7.47656055   0.692  -1.55739   3.52810   6.68084   1.33899   0.00000   4.904E-03   0.000E+00   9.951E-01
 206  7.47894484   0.692  -1.55911   3.52810   6.68165   1.34151   0.00000   4.996E-03   0.000E+00   9.950E-01
 207  7.48131611   0.692  -1.56072   3.52810   6.68242   1.34388   0.00000   5.082E-03   0.000E+00   9.949E-01
 208  7.48367451   0.692  -1.56233   3.52809   6.68318   1.34624   0.00000   5.168E-03   0.000E+00   9.948E-01
 209  7.48602017   0.692  -1.56394   3.52809   6.68394   1.34861   0.00000   5.254E-03   0.000E+00   9.947E-01
 210  7.48835322   0.692  -1.56555   3.52808   6.68471   1.35097   0.00000   5.340E-03   0.000E+00   9.947E-01
 211  7.49067381   0.692  -1.56716   3.52808   6.68547   1.35333   0.00000   5.425E-03   0.000E+00   9.946E-01
 212  7.49298207   0.692  -1.56877   3.52807   6.68624   1.35569   0.00000   5.511E-03   0.000E+00   9.945E-01
 213  7.49527812   0.692  -1.57038   3.52807   6.68700   1.35806   0.00000   5.597E-03   0.000E+00   9.944E-01
 214  7.49756210   0.692  -1.57199   3.52807   6.68776   1.36042   0.00000   5.683E-03   0.000E+00   9.943E-01
 215  7.49983413   0.692  -1.57360   3.52806   6.68853   1.36278   0.00000   5.769E-03   0.000E+00   9.942E-01
 216  7.50209433   0.692  -1.57520   3.52806   6.68929   1.36514   0.00000   5.855E-03   0.000E+00   9.941E-01
 217  7.50434284   0.692  -1.57681   3.52805   6.69005   1.36751   0.00000   5.941E-03   0.000E+00   9.941E-01
 218  7.50657976   0.692  -1.57839   3.52805   6.69080   1.36982   0.00000   6.050E-03   0.000E+00   9.939E-01
 219  7.50880522   0.692  -1.57990   3.52804   6.69152   1.37204   0.00000   6.211E-03   0.000E+00   9.938E-01
 220  7.51101933   0.692  -1.58140   3.52804   6.69223   1.37425   0.00000   6.372E-03   0.000E+00   9.936E-01
 221  7.51322221   0.692  -1.58291   3.52804   6.69295   1.37647   0.00000   6.533E-03   0.000E+00   9.935E-01
 222  7.51541397   0.692  -1.58441   3.52803   6.69366   1.37868   0.00000   6.694E-03   0.000E+00   9.933E-01
 223  7.51759473   0.692  -1.58592   3.52803   6.69438   1.38090   0.00000   6.855E-03   0.000E+00   9.931E-01
 224  7.51976460   0.692  -1.58743   3.52802   6.69509   1.38311   0.00000   7.016E-03   0.000E+00   9.930E-01
 225  7.52192367   0.692  -1.58893   3.52802   6.69580   1.38533   0.00000   7.177E-03   0.000E+00   9.928E-01
 226  7.52407207   0.692  -1.59044   3.52802   6.69652   1.38754   0.00000   7.338E-03   0.000E+00   9.927E-01
 227  7.52620989   0.692  -1.59195   3.52801   6.69723   1.38976   0.00000   7.498E-03   0.000E+00   9.925E-01
 228  7.52833724   0.692  -1.59345   3.52801   6.69795   1.39197   0.00000   7.659E-03   0.000E+00   9.923E-01
 229  7.53045421   0.692  -1.59496   3.52800   6.69866   1.39419   0.00000   7.820E-03   0.000E+00   9.922E-01
 230  7.53256092   0.692  -1.59646   3.52800   6.69938   1.39640   0.00000   7.981E-03   0.000E+00   9.920E-01
 231  7.53465746   0.692  -1.59788   3.52800   6.70004   1.39850   0.00000   8.133E-03   0.000E+00   9.919E-01
 232  7.53674393   0.692  -1.59929   3.52799   6.70070   1.40058   0.00000   8.283E-03   0.000E+00   9.917E-01
 233  7.53882042   0.692  -1.60070   3.52799   6.70135   1.40266   0.00000   8.434E-03   0.000E+00   9.916E-01
 234  7.54088703   0.692  -1.60211   3.52799   6.70201   1.40474   0.00000   8.585E-03   0.000E+00   9.914E-01
 235  7.54294385   0.692  -1.60351   3.52799   6.70267   1.40683   0.00000   8.735E-03   0.000E+00   9.913E-01
 236  7.54499097   0.692  -1.60492   3.52798   6.70332   1.40891   0.00000   8.886E-03   0.000E+00   9.911E-01
 237  7.54702850   0.692  -1.60633   3.52798   6.70398   1.41099   0.00000   9.036E-03   0.000E+00   9.910E-01
 238  7.54905650   0.692  -1.60774   3.52798   6.70463   1.41307   0.00000   9.187E-03   0.000E+00   9.908E-01
 239  7.55107509   0.692  -1.60914   3.52797   6.70529   1.41516   0.00000   9.337E-03   0.000E+00   9.907E-01
 240  7.55308433   0.692  -1.61055   3.52797   6.70595   1.41724   0.00000   9.488E-03   0.000E+00   9.905E-01
 241  7.55508432   0.692  -1.61196   3.52797   6.70660   1.41932   0.00000   9.638E-03   0.000E+00   9.904E-01
 242  7.55707514   0.692  -1.61337   3.52796   6.70726   1.42140   0.00000   9.789E-03   0.000E+00   9.902E-01
 243  7.55905688   0.692  -1.61478   3.52796   6.70792   1.42348   0.00000   9.940E-03   0.000E+00   9.901E-01
 244  7.56102961   0.692  -1.61613   3.52796   6.70854   1.42549   0.00000   1.013E-02   0.000E+00   9.899E-01
 245  7.56299343   0.692  -1.61744   3.52796   6.70914   1.42746   0.00000   1.034E-02   0.000E+00   9.897E-01
 246  7.56494840   0.692  -1.61876   3.52795   6.70974   1.42942   0.00000   1.055E-02   0.000E+00   9.895E-01
 247  7.56689462   0.692  -1.62007   3.52795   6.71034   1.43138   0.00000   1.076E-02   0.000E+00   9.892E-01
 248  7.56883215   0.692  -1.62139   3.52795   6.71094   1.43334   0.00000   1.097E-02   0.000E+00   9.890E-01
 249  7.57076107   0.692  -1.62270   3.52794   6.71154   1.43530   0.00000   1.118E-02   0.000E+00   9.888E-01
 250  7.57268147   0.692  -1.62402   3.52794   6.71214   1.43726   0.00000   1.139E-02   0.000E+00   9.886E-01
 251  7.57459341   0.692  -1.62533   3.52794   6.71274   1.43922   0.00000   1.160E-02   0.000E+00   9.884E-01
 252  7.57649697   0.692  -1.62665   3.52794   6.71334   1.44119   0.00000   1.182E-02   0.000E+00   9.882E-01
 253  7.57839223   0.692  -1.62796   3.52793   6.71394   1.44315   0.00000   1.203E-02   0.000E+00   9.880E-01
 254  7.58027925   0.692  -1.62928   3.52793   6.71454   1.44511   0.00000   1.224E-02   0.000E+00   9.878E-01
 255  7.58215810   0.692  -1.63059   3.52793   6.71515   1.44707   0.00000   1.245E-02   0.000E+00   9.876E-01
 256  7.58402887   0.692  -1.63191   3.52792   6.71575   1.44903   0.00000   1.266E-02   0.000E+00   9.873E-01
 257  7.58589160   0.692  -1.63322   3.52792   6.71635   1.45099   0.00000   1.287E-02   0.000E+00   9.871E-01
 258  7.58774639   0.692  -1.63450   3.52792   6.71693   1.45291   0.00000   1.308E-02   0.000E+00   9.869E-01
 259  7.58959328   0.692  -1.63573   3.52792   6.71748   1.45476   0.00000   1.328E-02   0.000E+00   9.867E-01
 260  7.59143236   0.692  -1.63696   3.52792   6.71803   1.45661   0.00000   1.347E-02   0.000E+00   9.865E-01
 261  7.59326368   0.692  -1.63819   3.52791   6.71858   1.45846   0.00000   1.367E-02   0.000E+00   9.863E-01
 262  7.59508731   0.692  -1.63942   3.52791   6.71913   1.46031   0.00000   1.387E-02   0.000E+00   9.861E-01
 263  7.59690331   0.692  -1.64064   3.52791   6.71968   1.46216   0.00000   1.406E-02   0.000E+00   9.859E-01
 264  7.59871175   0.692  -1.64187   3.52791   6.72023   1.46401   0.00000   1.426E-02   0.000E+00   9.857E-01
 265  7.60051270   0.692  -1.64310   3.52791   6.72078   1.46586   0.00000   1.446E-02   0.000E+00   9.855E-01
 266  7.60230620   0.692  -1.64433   3.52790   6.72133   1.46771   0.00000   1.466E-02   0.000E+00   9.853E-01
 267  7.60409233   0.692  -1.64556   3.52790   6.72188   1.46955   0.00000   1.485E-02   0.000E+00   9.851E-01
 268  7.60587114   0.692  -1.64678   3.52790   6.72243   1.47140   0.00000   1.505E-02   0.000E+00   9.849E-01
 269  7.60764270   0.692  -1.64801   3.52790   6.72298   1.47325   0.00000   1.525E-02   0.000E+00   9.848E-01
 270  7.60940706   0.692  -1.64924   3.52790   6.72352   1.47510   0.00000   1.545E-02   0.000E+00   9.846E-01
 271  7.61116428   0.692  -1.65047   3.52789   6.72407   1.47695   0.00000   1.564E-02   0.000E+00   9.844E-01
 272  7.61291442   0.692  -1.65170   3.52789   6.72462   1.47880   0.00000   1.584E-02   0.000E+00   9.842E-01
 273  7.61465754   0.692  -1.65291   3.52789   6.72517   1.48063   0.00000   1.605E-02   0.000E+00   9.840E-01
 274  7.61639369   0.692  -1.65405   3.52789   6.72567   1.48237   0.00000   1.629E-02   0.000E+00   9.837E-01
 275  7.61812292   0.692  -1.65520   3.52789   6.72618   1.48412   0.00000   1.654E-02   0.000E+00   9.835E-01
 276  7.61984530   0.692  -1.65634   3.52788   6.72668   1.48586   0.00000   1.678E-02   0.000E+00   9.832E-01
 277  7.62156087   0.692  -1.65748   3.52788   6.72718   1.48760   0.00000   1.703E-02   0.000E+00   9.830E-01
 278  7.62326969   0.692  -1.65863   3.52788   6.72769   1.48934   0.00000   1.727E-02   0.000E+00   9.827E-01
 279  7.62497182   0.692  -1.65977   3.52788   6.72819   1.49108   0.00000   1.752E-02   0.000E+00   9.825E-01
 280  7.62666730   0.692  -1.66092   3.52788   6.72870   1.49283   0.00000   1.777E-02   0.000E+00   9.822E-01
 281  7.62835618   0.692  -1.66206   3.52787   6.72920   1.49457   0.00000   1.801E-02   0.000E+00   9.820E-01
 282  7.63003853   0.692  -1.66320   3.52787   6.72971   1.49631   0.00000   1.826E-02   0.000E+00   9.817E-01
 283  7.63171438   0.692  -1.66435   3.52787   6.73021   1.49805   0.00000   1.850E-02   0.000E+00   9.815E-01
 284  7.63338379   0.692  -1.66549   3.52787   6.73072   1.49979   0.00000   1.875E-02   0.000E+00   9.813E-01
 285  7.63504681   0.692  -1.66664   3.52787   6.73122   1.50154   0.00000   1.899E-02   0.000E+00   9.810E-01
 286  7.63670348   0.692  -1.66778   3.52787   6.73173   1.50328   0.00000   1.924E-02   0.000E+00   9.808E-01
 287  7.63835386   0.692  -1.66893   3.52786   6.73223   1.50502   0.00000   1.948E-02   0.000E+00   9.805E-01
 288  7.63999799   0.692  -1.67007   3.52786   6.73273   1.50676   0.00000   1.973E-02   0.000E+00   9.803E-01
 289  7.64163592   0.692  -1.67121   3.52786   6.73324   1.50850   0.00000   1.998E-02   0.000E+00   9.800E-01
 290  7.64326770   0.692  -1.67229   3.52786   6.73371   1.51015   0.00000   2.026E-02   0.000E+00   9.797E-01
 291  7.64489337   0.692  -1.67335   3.52786   6.73417   1.51179   0.00000   2.054E-02   0.000E+00   9.795E-01
 292  7.64651297   0.692  -1.67441   3.52786   6.73463   1.51343   0.00000   2.083E-02   0.000E+00   9.792E-01
 293  7.64812656   0.692  -1.67548   3.52786   6.73510   1.51507   0.00000   2.112E-02   0.000E+00   9.789E-01
 294  7.64973417   0.692  -1.67654   3.52785   6.73556   1.51671   0.00000   2.140E-02   0.000E+00   9.786E-01
 295  7.65133586   0.692  -1.67761   3.52785   6.73602   1.51835   0.00000   2.169E-02   0.000E+00   9.783E-01
 296  7.65293166   0.692  -1.67867   3.52785   6.73649   1.51999   0.00000   2.197E-02   0.000E+00   9.780E-01
 297  7.65452161   0.692  -1.67973   3.52785   6.73695   1.52162   0.00000   2.226E-02   0.000E+00   9.777E-01
 298  7.65610577   0.692  -1.68080   3.52785   6.73741   1.52326   0.00000   2.255E-02   0.000E+00   9.775E-01
 299  7.65768417   0.692  -1.68186   3.52785   6.73788   1.52490   0.00000   2.283E-02   0.000E+00   9.772E-01
 300  7.65925686   0.692  -1.68293   3.52785   6.73834   1.52654   0.00000   2.312E-02   0.000E+00   9.769E-01
 301  7.66082387   0.692  -1.68399   3.52785   6.73880   1.52818   0.00000   2.340E-02   0.000E+00   9.766E-01
 302  7.66238525   0.692  -1.68505   3.52785   6.73927   1.52982   0.00000   2.369E-02   0.000E+00   9.763E-01
 303  7.66394103   0.692  -1.68612   3.52784   6.73973   1.53146   0.00000   2.398E-02   0.000E+00   9.760E-01
 304  7.66549126   0.692  -1.68718   3.52784   6.74019   1.53310   0.00000   2.426E-02   0.000E+00   9.757E-01
 305  7.66703597   0.692  -1.68825   3.52784   6.74066   1.53474   0.00000   2.455E-02   0.000E+00   9.755E-01
 306  7.66857522   0.692  -1.68931   3.52784   6.74112   1.53637   0.00000   2.483E-02   0.000E+00   9.752E-01
 307  7.67010902   0.692  -1.69034   3.52784   6.74157   1.53797   0.00000   2.516E-02   0.000E+00   9.748E-01
 308  7.67163743   0.692  -1.69133   3.52784   6.74199   1.53950   0.00000   2.553E-02   0.000E+00   9.745E-01
 309  7.67316048   0.692  -1.69232   3.52784   6.74242   1.54104   0.00000   2.590E-02   0.000E+00   9.741E-01
 310  7.67467820   0.692  -1.69331   3.52784   6.74285   1.54257   0.00000   2.627E-02   0.000E+00   9.737E-01
 311  7.67619064   0.692  -1.69430   3.52784   6.74327   1.54410   0.00000   2.665E-02   0.000E+00   9.734E-01
 312  7.67769783   0.692  -1.69529   3.52784   6.74370   1.54564   0.00000   2.702E-02   0.000E+00   9.730E-01
 313  7.67919981   0.692  -1.69628   3.52784   6.74413   1.54717   0.00000   2.739E-02   0.000E+00   9.726E-01
 314  7.68069661   0.692  -1.69727   3.52784   6.74455   1.54871   0.00000   2.776E-02   0.000E+00   9.722E-01
 315  7.68218827   0.692  -1.69826   3.52784   6.74498   1.55024   0.00000   2.814E-02   0.000E+00   9.719E-01
 316  7.68367482   0.692  -1.69925   3.52783   6.74540   1.55177   0.00000   2.851E-02   0.000E+00   9.715E-01
 317  7.68515630   0.692  -1.70024   3.52783   6.74583   1.55331   0.00000   2.888E-02   0.000E+00   9.711E-01
 318  7.68663275   0.692  -1.70122   3.52783   6.74626   1.55484   0.00000   2.925E-02   0.000E+00   9.707E-01
 319  7.68810420   0.692  -1.70221   3.52783   6.74668   1.55637   0.00000   2.963E-02   0.000E+00   9.704E-01
 320  7.68957067   0.692  -1.70320   3.52783   6.74711   1.55791   0.00000   3.000E-02   0.000E+00   9.700E-01
 321  7.69103221   0.692  -1.70419   3.52783   6.74754   1.55944   0.00000   3.037E-02   0.000E+00   9.696E-01
 322  7.69248885   0.692  -1.70518   3.52783   6.74796   1.56098   0.00000   3.074E-02   0.000E+00   9.693E-01
 323  7.69394062   0.692  -1.70617   3.52783   6.74839   1.56251   0.00000   3.112E-02   0.000E+00   9.689E-01
 324  7.69538755   0.692  -1.70716   3.52783   6.74881   1.56404   0.00000   3.149E-02   0.000E+00   9.685E-01
 325  7.69682968   0.692  -1.70815   3.52783   6.74924   1.56558   0.00000   3.186E-02   0.000E+00   9.681E-01
 326  7.69826703   0.692  -1.70909   3.52783   6.74965   1.56705   0.00000   3.225E-02   0.000E+00   9.678E-01
 327  7.69969965   0.692  -1.71001   3.52783   6.75004   1.56848   0.00000   3.264E-02   0.000E+00   9.674E-01
 328  7.70112755   0.692  -1.71093   3.52783   6.75043   1.56992   0.00000   3.304E-02   0.000E+00   9.670E-01
 329  7.70255077   0.692  -1.71184   3.52783   6.75082   1.57135   0.00000   3.343E-02   0.000E+00   9.666E-01
 330  7.70396935   0.692  -1.71276   3.52783   6.75122   1.57279   0.00000   3.383E-02   0.000E+00   9.662E-01
 331  7.70538330   0.692  -1.71368   3.52783   6.75161   1.57422   0.00000   3.423E-02   0.000E+00   9.658E-01
 332  7.70679267   0.692  -1.71460   3.52783   6.75200   1.57566   0.00000   3.462E-02   0.000E+00   9.654E-01
 333  7.70819748   0.692  -1.71551   3.52783   6.75239   1.57710   0.00000   3.502E-02   0.000E+00   9.650E-01
 334  7.70959776   0.692  -1.71643   3.52783   6.75279   1.57853   0.00000   3.541E-02   0.000E+00   9.646E-01
 335  7.71099354   0.692  -1.71735   3.52783   6.75318   1.57997   0.00000   3.581E-02   0.000E+00   9.642E-01
 336  7.71238485   0.692  -1.71826   3.52783   6.75357   1.58140   0.00000   3.620E-02   0.000E+00   9.638E-01
 337  7.71377171   0.692  -1.71918   3.52783   6.75397   1.58284   0.00000   3.660E-02   0.000E+00   9.634E-01
 338  7.71515416   0.692  -1.72010   3.52783   6.75436   1.58427   0.00000   3.700E-02   0.000E+00   9.630E-01
 339  7.71653222   0.692  -1.72101   3.52783   6.75475   1.58571   0.00000   3.739E-02   0.000E+00   9.626E-01
 340  7.71790593   0.692  -1.72193   3.52783   6.75514   1.58714   0.00000   3.779E-02   0.000E+00   9.622E-01
 341  7.71927530   0.692  -1.72285   3.52783   6.75554   1.58858   0.00000   3.818E-02   0.000E+00   9.618E-01
 342  7.72064037   0.692  -1.72376   3.52783   6.75593   1.59001   0.00000   3.858E-02   0.000E+00   9.614E-01
 343  7.72200116   0.692  -1.72468   3.52783   6.75632   1.59145   0.00000   3.897E-02   0.000E+00   9.610E-01
 344  7.72335770   0.692  -1.72560   3.52783   6.75671   1.59288   0.00000   3.937E-02   0.000E+00   9.606E-01
 345  7.72471002   0.692  -1.72652   3.52783   6.75711   1.59432   0.00000   3.976E-02   0.000E+00   9.602E-01
 346  7.72605814   0.692  -1.72740   3.52783   6.75749   1.59571   0.00000   4.019E-02   0.000E+00   9.598E-01
 347  7.72740208   0.692  -1.72825   3.52783   6.75785   1.59705   0.00000   4.064E-02   0.000E+00   9.594E-01
 348  7.72874188   0.692  -1.72910   3.52783   6.75821   1.59839   0.00000   4.110E-02   0.000E+00   9.589E-01
 349  7.73007757   0.692  -1.72995   3.52783   6.75857   1.59973   0.00000   4.156E-02   0.000E+00   9.584E-01
 350  7.73140915   0.692  -1.73079   3.52783   6.75894   1.60107   0.00000   4.202E-02   0.000E+00   9.580E-01
 351  7.73273667   0.692  -1.73164   3.52783   6.75930   1.60241   0.00000   4.248E-02   0.000E+00   9.575E-01
 352  7.73406013   0.692  -1.73249   3.52784   6.75966   1.60375   0.00000   4.294E-02   0.000E+00   9.571E-01
 353  7.73537958   0.692  -1.73334   3.52784   6.76002   1.60509   0.00000   4.340E-02   0.000E+00   9.566E-01
 354  7.73669504   0.692  -1.73419   3.52784   6.76038   1.60643   0.00000   4.385E-02   0.000E+00   9.561E-01
 355  7.73800651   0.692  -1.73503   3.52784   6.76075   1.60777   0.00000   4.431E-02   0.000E+00   9.557E-01
 356  7.73931405   0.692  -1.73588   3.52784   6.76111   1.60910   0.00000   4.477E-02   0.000E+00   9.552E-01
 357  7.74061765   0.692  -1.73673   3.52784   6.76147   1.61044   0.00000   4.523E-02   0.000E+00   9.548E-01
 358  7.74191736   0.692  -1.73758   3.52784   6.76183   1.61178   0.00000   4.569E-02   0.000E+00   9.543E-01
 359  7.74321318   0.692  -1.73842   3.52784   6.76220   1.61312   0.00000   4.615E-02   0.000E+00   9.539E-01
 360  7.74450516   0.692  -1.73927   3.52784   6.76256   1.61446   0.00000   4.660E-02   0.000E+00   9.534E-01
 361  7.74579330   0.692  -1.74012   3.52784   6.76292   1.61580   0.00000   4.706E-02   0.000E+00   9.529E-01
 362  7.74707763   0.692  -1.74097   3.52785   6.76328   1.61714   0.00000   4.752E-02   0.000E+00   9.525E-01
 363  7.74835817   0.692  -1.74181   3.52785   6.76364   1.61848   0.00000   4.798E-02   0.000E+00   9.520E-01
 364  7.74963495   0.692  -1.74266   3.52785   6.76401   1.61982   0.00000   4.844E-02   0.000E+00   9.516E-01
 365  7.75090799   0.692  -1.74351   3.52785   6.76437   1.62116   0.00000   4.890E-02   0.000E+00   9.511E-01
 366  7.75217730   0.692  -1.74436   3.52785   6.76473   1.62250   0.00000   4.936E-02   0.000E+00   9.506E-01
 367  7.75344292   0.692  -1.74521   3.52785   6.76509   1.62384   0.00000   4.981E-02   0.000E+00   9.502E-01
 368  7.75470486   0.692  -1.74601   3.52785   6.76544   1.62512   0.00000   5.030E-02   0.000E+00   9.497E-01
 369  7.75596314   0.692  -1.74680   3.52785   6.76577   1.62636   0.00000   5.081E-02   0.000E+00   9.492E-01
 370  7.75721779   0.692  -1.74758   3.52785   6.76611   1.62761   0.00000   5.132E-02   0.000E+00   9.487E-01
 371  7.75846882   0.692  -1.74836   3.52785   6.76644   1.62885   0.00000   5.183E-02   0.000E+00   9.482E-01
 372  7.75971626   0.692  -1.74914   3.52785   6.76678   1.63010   0.00000   5.234E-02   0.000E+00   9.477E-01
 373  7.76096013   0.692  -1.74992   3.52785   6.76711   1.63135   0.00000   5.284E-02   0.000E+00   9.472E-01
 374  7.76220045   0.692  -1.75070   3.52786   6.76744   1.63259   0.00000   5.335E-02   0.000E+00   9.466E-01
 375  7.76343723   0.692  -1.75148   3.52786   6.76778   1.63384   0.00000   5.386E-02   0.000E+00   9.461E-01
 376  7.76467050   0.692  -1.75227   3.52786   6.76811   1.63508   0.00000   5.437E-02   0.000E+00   9.456E-01
 377  7.76590028   0.692  -1.75305   3.52786   6.76845   1.63633   0.00000   5.488E-02   0.000E+00   9.451E-01
 378  7.76712658   0.692  -1.75383   3.52786   6.76878   1.63757   0.00000   5.539E-02   0.000E+00   9.446E-01
 379  7.76834944   0.692  -1.75461   3.52786   6.76912   1.63882   0.00000   5.590E-02   0.000E+00   9.441E-01
 380  7.76956886   0.692  -1.75539   3.52786   6.76945   1.64006   0.00000   5.641E-02   0.000E+00   9.436E-01
 381  7.77078486   0.692  -1.75617   3.52786   6.76979   1.64131   0.00000   5.691E-02   0.000E+00   9.431E-01
 382  7.77199747   0.692  -1.75696   3.52786   6.77012   1.64255   0.00000   5.742E-02   0.000E+00   9.426E-01
 383  7.77320671   0.692  -1.75774   3.52786   6.77045   1.64380   0.00000   5.793E-02   0.000E+00   9.421E-01
 384  7.77441258   0.692  -1.75852   3.52786   6.77079   1.64504   0.00000   5.844E-02   0.000E+00   9.416E-01
 385  7.77561512   0.692  -1.75930   3.52786   6.77112   1.64629   0.00000   5.895E-02   0.000E+00   9.411E-01
 386  7.77681434   0.692  -1.76008   3.52787   6.77146   1.64753   0.00000   5.946E-02   0.000E+00   9.405E-01
 387  7.77801025   0.692  -1.76086   3.52787   6.77179   1.64878   0.00000   5.997E-02   0.000E+00   9.400E-01
 388  7.77920288   0.692  -1.76165   3.52787   6.77213   1.65002   0.00000   6.047E-02   0.000E+00   9.395E-01
 389  7.78039224   0.692  -1.76243   3.52787   6.77246   1.65127   0.00000   6.098E-02   0.000E+00   9.390E-01
 390  7.78157836   0.692  -1.76321   3.52787   6.77280   1.65251   0.00000   6.149E-02   0.000E+00   9.385E-01
 391  7.78276125   0.692  -1.76399   3.52787   6.77313   1.65376   0.00000   6.200E-02   0.000E+00   9.380E-01
 392  7.87365148   0.692  -1.81974   3.52802   6.79736   1.74322   0.00000   1.235E-01   0.000E+00   8.765E-01
 393  7.94877267   0.692  -1.86199   3.52821   6.81658   1.81059   0.00000   2.072E-01   0.000E+00   7.928E-01
 394  8.01279601   0.692  -1.89463   3.52837   6.83227   1.86078   0.00000   3.067E-01   0.000E+00   6.933E-01
 395  8.06858238   0.692  -1.91967   3.52848   6.84533   1.89722   0.00000   4.134E-01   0.000E+00   5.866E-01
 396  8.11801168   0.692  -1.93896   3.52856   6.85612   1.92302   0.00000   5.184E-01   0.000E+00   4.816E-01
 397  8.16238565   0.692  -1.95318   3.52859   6.86470   1.94005   0.00000   6.131E-01   0.000E+00   3.869E-01
 398  8.20264308   0.691  -1.96332   3.52860   6.87139   1.95093   0.00000   6.917E-01   0.000E+00   3.083E-01
 399  8.23948332   0.691  -1.97104   3.52861   6.87645   1.95938   0.00000   7.573E-01   0.000E+00   2.427E-01
 400  8.27344138   0.691  -1.97638   3.52863   6.87972   1.96583   0.00000   8.090E-01   0.000E+00   1.910E-01
 401  8.30493569   0.691  -1.98061   3.52865   6.88214   1.97120   0.00000   8.494E-01   0.000E+00   1.506E-01
 402  8.33429970   0.692  -1.98327   3.52866   6.88335   1.97511   0.00000   8.742E-01   0.000E+00   1.257E-01
 403  8.36180344   0.692  -1.98594   3.52867   6.88456   1.97901   0.00000   8.991E-01   0.000E+00   1.009E-01
 404  8.38766863   0.692  -1.98794   3.52868   6.88548   1.98198   0.00000   9.186E-01   0.000E+00   8.134E-02
 405  8.41207957   0.692  -1.98896   3.52869   6.88597   1.98353   0.00000   9.301E-01   0.000E+00   6.991E-02
 406  8.43519113   0.692  -1.98997   3.52870   6.88646   1.98508   0.00000   9.415E-01   0.000E+00   5.847E-02
 407  8.45713467   0.692  -1.99098   3.52870   6.88695   1.98663   0.00000   9.530E-01   0.000E+00   4.704E-02
 408  8.47802260   0.692  -1.99200   3.52871   6.88744   1.98818   0.00000   9.645E-01   0.000E+00   3.560E-02
 409  8.49795183   0.692  -1.99238   3.52871   6.88762   1.98876   0.00000   9.691E-01   0.000E+00   3.099E-02
 410  8.51700652   0.692  -1.99266   3.52872   6.88776   1.98919   0.00000   9.726E-01   0.000E+00   2.740E-02
 411  8.53526020   0.692  -1.99294   3.52872   6.88790   1.98963   0.00000   9.761E-01   0.000E+00   2.382E-02
 412  8.55277752   0.692  -1.99322   3.52872   6.88804   1.99007   0.00000   9.797E-01   0.000E+00   2.024E-02
 413  8.56961558   0.692  -1.99351   3.52872   6.88818   1.99050   0.00000   9.832E-01   0.000E+00   1.665E-02
 414  8.58582511   0.692  -1.99379   3.52873   6.88832   1.99094   0.00000   9.867E-01   0.000E+00   1.307E-02
 415  8.60145133   0.692  -1.99405   3.52873   6.88845   1.99134   0.00000   9.901E-01   0.000E+00   9.688E-03
 416  8.61653479   0.692  -1.99408   3.52873   6.88847   1.99139   0.00000   9.909E-01   0.000E+00   8.842E-03
 417  8.63111193   0.692  -1.99411   3.52873   6.88849   1.99145   0.00000   9.918E-01   0.000E+00   7.997E-03
 418  8.64521562   0.692  -1.99414   3.52873   6.88851   1.99150   0.00000   9.927E-01   0.000E+00   7.151E-03
 419  8.65887567   0.692  -1.99417   3.52873   6.88853   1.99155   0.00000   9.936E-01   0.000E+00   6.305E-03
 420  8.67211914   0.692  -1.99420   3.52873   6.88855   1.99160   0.00000   9.945E-01   0.000E+00   5.460E-03
 421  8.68497068   0.692  -1.99423   3.52874   6.88858   1.99165   0.00000   9.954E-01   0.000E+00   4.614E-03
 422  8.69745282   0.692  -1.99426   3.52874   6.88860   1.99170   0.00000   9.962E-01   0.000E+00   3.768E-03
 423  8.70958621   0.692  -1.99429   3.52874   6.88862   1.99175   0.00000   9.971E-01   0.000E+00   2.922E-03
 424  8.72138981   0.692  -1.99432   3.52874   6.88864   1.99180   0.00000   9.980E-01   0.000E+00   2.077E-03
 425  8.73288107   0.692  -1.99435   3.52874   6.88866   1.99185   0.00000   9.989E-01   0.000E+00   1.231E-03
 426  8.74407610   0.692  -1.99431   3.52874   6.88865   1.99181   0.00000   9.991E-01   0.000E+00   9.734E-04
 427  8.75498979   0.692  -1.99427   3.52874   6.88863   1.99175   0.00000   9.993E-01   0.000E+00   7.955E-04
 428  8.76563593   0.692  -1.99423   3.52874   6.88862   1.99169   0.00000   9.994E-01   0.000E+00   6.176E-04
 429  8.77602732   0.692  -1.99418   3.52874   6.88861   1.99163   0.00000   9.995E-01   0.000E+00   4.398E-04
 430  8.78617588   0.692  -1.99414   3.52874   6.88859   1.99157   0.00000   9.997E-01   0.000E+00   2.619E-04
 431  8.79609269   0.692  -1.99410   3.52874   6.88858   1.99151   0.00000   9.998E-01   0.000E+00   8.403E-05
 432  8.80578811   0.692  -1.99405   3.52874   6.88856   1.99145   0.00000   1.000E+00   0.000E+00  -9.384E-05
 433  8.81527180   0.691  -1.99401   3.52875   6.88855   1.99139   0.00000   1.000E+00   0.000E+00  -2.717E-04
 434  8.82455281   0.691  -1.99397   3.52875   6.88853   1.99133   0.00000   1.000E+00   0.000E+00  -4.496E-04
 435  8.83363962   0.691  -1.99392   3.52875   6.88852   1.99127   0.00000   1.000E+00   0.000E+00  -6.274E-04
 436  8.84254020   0.691  -1.99388   3.52875   6.88851   1.99121   0.00000   1.001E+00   0.000E+00  -8.053E-04
 437  8.85126203   0.691  -1.99384   3.52875   6.88849   1.99116   0.00000   1.001E+00   0.000E+00  -9.832E-04
 438  8.85981214   0.691  -1.99380   3.52875   6.88848   1.99110   0.00000   1.001E+00   0.000E+00  -1.161E-03
 439  8.86819717   0.691  -1.99375   3.52875   6.88846   1.99104   0.00000   1.001E+00   0.000E+00  -1.339E-03
 440  8.87642336   0.691  -1.99369   3.52875   6.88844   1.99095   0.00000   1.001E+00   0.000E+00  -1.434E-03
 441  8.88449664   0.691  -1.99362   3.52875   6.88842   1.99085   0.00000   1.001E+00   0.000E+00  -1.495E-03
 442  8.89242257   0.691  -1.99355   3.52875   6.88839   1.99075   0.00000   1.001E+00   0.000E+00  -1.557E-03
 443  8.90020644   0.691  -1.99349   3.52875   6.88837   1.99065   0.00000   1.001E+00   0.000E+00  -1.618E-03
 444  8.90785325   0.691  -1.99342   3.52875   6.88834   1.99055   0.00000   1.001E+00   0.000E+00  -1.679E-03
 445  8.91536774   0.691  -1.99335   3.52875   6.88831   1.99046   0.00000   1.001E+00   0.000E+00  -1.741E-03
 446  8.92275443   0.691  -1.99328   3.52875   6.88829   1.99036   0.00000   1.001E+00   0.000E+00  -1.802E-03
 447  8.93001757   0.691  -1.99321   3.52876   6.88826   1.99026   0.00000   1.002E+00   0.000E+00  -1.864E-03
 448  8.93716125   0.691  -1.99314   3.52876   6.88824   1.99016   0.00000   1.002E+00   0.000E+00  -1.925E-03
 449  8.94418931   0.691  -1.99308   3.52876   6.88821   1.99006   0.00000   1.002E+00   0.000E+00  -1.986E-03
 450  8.95110545   0.691  -1.99301   3.52876   6.88819   1.98996   0.00000   1.002E+00   0.000E+00  -2.048E-03
 451  8.95791318   0.691  -1.99294   3.52876   6.88816   1.98986   0.00000   1.002E+00   0.000E+00  -2.109E-03
 452  8.96461584   0.691  -1.99287   3.52876   6.88814   1.98976   0.00000   1.002E+00   0.000E+00  -2.171E-03
 453  8.97121662   0.691  -1.99280   3.52876   6.88811   1.98966   0.00000   1.002E+00   0.000E+00  -2.232E-03
 454  8.97771858   0.691  -1.99272   3.52876   6.88808   1.98955   0.00000   1.002E+00   0.000E+00  -2.279E-03
 455  8.98412463   0.691  -1.99264   3.52876   6.88805   1.98943   0.00000   1.002E+00   0.000E+00  -2.315E-03
 456  8.99043756   0.691  -1.99256   3.52876   6.88802   1.98931   0.00000   1.002E+00   0.000E+00  -2.350E-03
 457  8.99666004   0.691  -1.99248   3.52876   6.88798   1.98919   0.00000   1.002E+00   0.000E+00  -2.385E-03
 458  9.00279462   0.691  -1.99239   3.52876   6.88795   1.98907   0.00000   1.002E+00   0.000E+00  -2.420E-03
 459  9.00884375   0.691  -1.99231   3.52876   6.88792   1.98895   0.00000   1.002E+00   0.000E+00  -2.456E-03
 460  9.01480978   0.691  -1.99223   3.52876   6.88788   1.98883   0.00000   1.002E+00   0.000E+00  -2.491E-03
 461  9.02069497   0.691  -1.99215   3.52876   6.88785   1.98871   0.00000   1.003E+00   0.000E+00  -2.526E-03
 462  9.02650147   0.691  -1.99206   3.52876   6.88782   1.98859   0.00000   1.003E+00   0.000E+00  -2.562E-03
 463  9.03223136   0.691  -1.99198   3.52876   6.88778   1.98847   0.00000   1.003E+00   0.000E+00  -2.597E-03
 464  9.03788663   0.691  -1.99190   3.52876   6.88775   1.98835   0.00000   1.003E+00   0.000E+00  -2.632E-03
 465  9.04346921   0.691  -1.99182   3.52876   6.88772   1.98823   0.00000   1.003E+00   0.000E+00  -2.667E-03
 466  9.04898094   0.691  -1.99173   3.52876   6.88768   1.98811   0.00000   1.003E+00   0.000E+00  -2.703E-03
 467  9.05442360   0.691  -1.99165   3.52876   6.88765   1.98799   0.00000   1.003E+00   0.000E+00  -2.738E-03
 468  9.05979889   0.691  -1.99156   3.52876   6.88762   1.98787   0.00000   1.003E+00   0.000E+00  -2.769E-03
 469  9.06510846   0.691  -1.99147   3.52876   6.88758   1.98773   0.00000   1.003E+00   0.000E+00  -2.793E-03
 470  9.07035390   0.691  -1.99138   3.52876   6.88754   1.98760   0.00000   1.003E+00   0.000E+00  -2.817E-03
 471  9.07553674   0.691  -1.99129   3.52876   6.88750   1.98746   0.00000   1.003E+00   0.000E+00  -2.841E-03
 472  9.08065846   0.691  -1.99119   3.52876   6.88747   1.98732   0.00000   1.003E+00   0.000E+00  -2.865E-03
 473  9.08572048   0.691  -1.99110   3.52876   6.88743   1.98719   0.00000   1.003E+00   0.000E+00  -2.889E-03
 474  9.09072418   0.691  -1.99101   3.52876   6.88739   1.98705   0.00000   1.003E+00   0.000E+00  -2.913E-03
 475  9.09567088   0.691  -1.99091   3.52877   6.88735   1.98691   0.00000   1.003E+00   0.000E+00  -2.937E-03
 476  9.10056188   0.691  -1.99082   3.52877   6.88732   1.98678   0.00000   1.003E+00   0.000E+00  -2.961E-03
 477  9.10539840   0.691  -1.99073   3.52877   6.88728   1.98664   0.00000   1.003E+00   0.000E+00  -2.985E-03
 478  9.11018166   0.691  -1.99063   3.52877   6.88724   1.98651   0.00000   1.003E+00   0.000E+00  -3.009E-03
 479  9.11491281   0.691  -1.99054   3.52877   6.88720   1.98637   0.00000   1.003E+00   0.000E+00  -3.033E-03
 480  9.11959297   0.691  -1.99045   3.52877   6.88717   1.98623   0.00000   1.003E+00   0.000E+00  -3.057E-03
 481  9.12422323   0.691  -1.99035   3.52877   6.88713   1.98610   0.00000   1.003E+00   0.000E+00  -3.081E-03
 482  9.12880465   0.691  -1.99026   3.52877   6.88709   1.98596   0.00000   1.003E+00   0.000E+00  -3.103E-03
 483  9.13333824   0.691  -1.99016   3.52877   6.88705   1.98581   0.00000   1.003E+00   0.000E+00  -3.119E-03
 484  9.13782499   0.691  -1.99006   3.52877   6.88701   1.98567   0.00000   1.003E+00   0.000E+00  -3.134E-03
 485  9.14226587   0.691  -1.98996   3.52877   6.88697   1.98552   0.00000   1.003E+00   0.000E+00  -3.150E-03
 486  9.14666179   0.691  -1.98986   3.52877   6.88693   1.98537   0.00000   1.003E+00   0.000E+00  -3.165E-03
 487  9.15101367   0.691  -1.98976   3.52877   6.88689   1.98523   0.00000   1.003E+00   0.000E+00  -3.181E-03
 488  9.15532236   0.691  -1.98966   3.52877   6.88685   1.98508   0.00000   1.003E+00   0.000E+00  -3.196E-03
 489  9.15958874   0.691  -1.98956   3.52877   6.88680   1.98494   0.00000   1.003E+00   0.000E+00  -3.212E-03
 490  9.16381360   0.691  -1.98946   3.52877   6.88676   1.98479   0.00000   1.003E+00   0.000E+00  -3.227E-03
 491  9.16799776   0.691  -1.98936   3.52877   6.88672   1.98464   0.00000   1.003E+00   0.000E+00  -3.243E-03
 492  9.17214200   0.691  -1.98926   3.52877   6.88668   1.98450   0.00000   1.003E+00   0.000E+00  -3.259E-03
 493  9.17624706   0.691  -1.98916   3.52877   6.88664   1.98435   0.00000   1.003E+00   0.000E+00  -3.274E-03
 494  9.18031368   0.691  -1.98906   3.52877   6.88660   1.98421   0.00000   1.003E+00   0.000E+00  -3.290E-03
 495  9.18434258   0.691  -1.98897   3.52877   6.88656   1.98406   0.00000   1.003E+00   0.000E+00  -3.305E-03
 496  9.18833444   0.691  -1.98887   3.52877   6.88652   1.98391   0.00000   1.003E+00   0.000E+00  -3.320E-03
 497  9.19228995   0.691  -1.98876   3.52877   6.88647   1.98376   0.00000   1.003E+00   0.000E+00  -3.330E-03
 498  9.19620976   0.691  -1.98866   3.52877   6.88643   1.98361   0.00000   1.003E+00   0.000E+00  -3.339E-03
 499  9.20009450   0.691  -1.98855   3.52877   6.88639   1.98345   0.00000   1.003E+00   0.000E+00  -3.348E-03
 500  9.20394480   0.691  -1.98845   3.52877   6.88634   1.98330   0.00000   1.003E+00   0.000E+00  -3.357E-03
 501  9.20776127   0.691  -1.98834   3.52877   6.88630   1.98314   0.00000   1.003E+00   0.000E+00  -3.366E-03
 502  9.21154449   0.691  -1.98824   3.52877   6.88626   1.98299   0.00000   1.003E+00   0.000E+00  -3.375E-03
 503  9.21529504   0.691  -1.98813   3.52877   6.88621   1.98284   0.00000   1.003E+00   0.000E+00  -3.385E-03
 504  9.21901347   0.691  -1.98803   3.52878   6.88617   1.98268   0.00000   1.003E+00   0.000E+00  -3.394E-03
 505  9.22270034   0.691  -1.98793   3.52878   6.88612   1.98253   0.00000   1.003E+00   0.000E+00  -3.403E-03
 506  9.22635617   0.691  -1.98782   3.52878   6.88608   1.98237   0.00000   1.003E+00   0.000E+00  -3.412E-03
 507  9.22998149   0.691  -1.98772   3.52878   6.88604   1.98222   0.00000   1.003E+00   0.000E+00  -3.421E-03
 508  9.23357679   0.690  -1.98761   3.52878   6.88599   1.98207   0.00000   1.003E+00   0.000E+00  -3.430E-03
 509  9.23714257   0.690  -1.98751   3.52878   6.88595   1.98191   0.00000   1.003E+00   0.000E+00  -3.440E-03
 510  9.24067932   0.690  -1.98740   3.52878   6.88591   1.98176   0.00000   1.003E+00   0.000E+00  -3.449E-03
 511  9.24418749   0.690  -1.98730   3.52878   6.88586   1.98160   0.00000   1.003E+00   0.000E+00  -3.454E-03
 512  9.24766756   0.690  -1.98719   3.52878   6.88582   1.98144   0.00000   1.003E+00   0.000E+00  -3.458E-03
 513  9.25111995   0.690  -1.98708   3.52878   6.88577   1.98129   0.00000   1.003E+00   0.000E+00  -3.462E-03
 514  9.25454513   0.690  -1.98698   3.52878   6.88573   1.98113   0.00000   1.003E+00   0.000E+00  -3.466E-03
 515  9.25794349   0.690  -1.98687   3.52878   6.88568   1.98097   0.00000   1.003E+00   0.000E+00  -3.471E-03
 516  9.26131548   0.690  -1.98676   3.52878   6.88564   1.98082   0.00000   1.003E+00   0.000E+00  -3.475E-03
 517  9.26466148   0.690  -1.98666   3.52878   6.88559   1.98066   0.00000   1.003E+00   0.000E+00  -3.479E-03
 518  9.26798190   0.690  -1.98655   3.52878   6.88555   1.98050   0.00000   1.003E+00   0.000E+00  -3.483E-03
 519  9.27127713   0.690  -1.98644   3.52878   6.88551   1.98034   0.00000   1.003E+00   0.000E+00  -3.488E-03
 520  9.27454754   0.690  -1.98634   3.52878   6.88546   1.98019   0.00000   1.003E+00   0.000E+00  -3.492E-03
 521  9.27779351   0.690  -1.98623   3.52878   6.88542   1.98003   0.00000   1.003E+00   0.000E+00  -3.496E-03
 522  9.28101539   0.690  -1.98612   3.52878   6.88537   1.97987   0.00000   1.003E+00   0.000E+00  -3.500E-03
 523  9.28421356   0.690  -1.98602   3.52878   6.88533   1.97971   0.00000   1.003E+00   0.000E+00  -3.505E-03
 524  9.28738834   0.690  -1.98591   3.52878   6.88528   1.97956   0.00000   1.003E+00   0.000E+00  -3.509E-03
 525  9.29054008   0.690  -1.98580   3.52878   6.88524   1.97940   0.00000   1.003E+00   0.000E+00  -3.510E-03
 526  9.29366911   0.690  -1.98570   3.52878   6.88519   1.97924   0.00000   1.003E+00   0.000E+00  -3.510E-03
 527  9.29677577   0.690  -1.98559   3.52878   6.88515   1.97908   0.00000   1.003E+00   0.000E+00  -3.510E-03
 528  9.29986035   0.690  -1.98548   3.52878   6.88511   1.97892   0.00000   1.003E+00   0.000E+00  -3.510E-03
 529  9.30292318   0.690  -1.98538   3.52878   6.88506   1.97877   0.00000   1.003E+00   0.000E+00  -3.510E-03
 530  9.30596457   0.690  -1.98527   3.52878   6.88502   1.97861   0.00000   1.003E+00   0.000E+00  -3.510E-03
 531  9.30898480   0.690  -1.98517   3.52878   6.88497   1.97845   0.00000   1.003E+00   0.000E+00  -3.510E-03
 532  9.31198417   0.690  -1.98506   3.52879   6.88493   1.97829   0.00000   1.003E+00   0.000E+00  -3.510E-03
 533  9.31496297   0.690  -1.98495   3.52879   6.88488   1.97813   0.00000   1.003E+00   0.000E+00  -3.510E-03
 534  9.31792148   0.690  -1.98485   3.52879   6.88484   1.97798   0.00000   1.003E+00   0.000E+00  -3.510E-03
 535  9.32085997   0.690  -1.98474   3.52879   6.88479   1.97782   0.00000   1.003E+00   0.000E+00  -3.510E-03
 536  9.32377871   0.690  -1.98463   3.52879   6.88475   1.97766   0.00000   1.003E+00   0.000E+00  -3.510E-03
 537  9.32667797   0.690  -1.98453   3.52879   6.88470   1.97750   0.00000   1.003E+00   0.000E+00  -3.510E-03
 538  9.32955800   0.690  -1.98442   3.52879   6.88466   1.97734   0.00000   1.003E+00   0.000E+00  -3.510E-03
 539  9.33241906   0.690  -1.98431   3.52879   6.88462   1.97719   0.00000   1.003E+00   0.000E+00  -3.508E-03
 540  9.33526139   0.690  -1.98421   3.52879   6.88457   1.97703   0.00000   1.003E+00   0.000E+00  -3.506E-03
 541  9.33808524   0.690  -1.98410   3.52879   6.88453   1.97687   0.00000   1.003E+00   0.000E+00  -3.503E-03
 542  9.34089085   0.690  -1.98399   3.52879   6.88448   1.97672   0.00000   1.003E+00   0.000E+00  -3.500E-03
 543  9.34367845   0.690  -1.98389   3.52879   6.88444   1.97656   0.00000   1.003E+00   0.000E+00  -3.497E-03
 544  9.34644827   0.690  -1.98378   3.52879   6.88439   1.97640   0.00000   1.003E+00   0.000E+00  -3.494E-03
 545  9.34920054   0.690  -1.98367   3.52879   6.88435   1.97625   0.00000   1.003E+00   0.000E+00  -3.492E-03
 546  9.35193547   0.690  -1.98357   3.52879   6.88430   1.97609   0.00000   1.003E+00   0.000E+00  -3.489E-03
 547  9.35465329   0.690  -1.98346   3.52879   6.88426   1.97593   0.00000   1.003E+00   0.000E+00  -3.486E-03
 548  9.35735421   0.690  -1.98335   3.52879   6.88422   1.97578   0.00000   1.003E+00   0.000E+00  -3.483E-03
 549  9.36003844   0.690  -1.98325   3.52879   6.88417   1.97562   0.00000   1.003E+00   0.000E+00  -3.480E-03
 550  9.36270617   0.690  -1.98314   3.52879   6.88413   1.97546   0.00000   1.003E+00   0.000E+00  -3.477E-03
 551  9.36535762   0.690  -1.98303   3.52879   6.88408   1.97531   0.00000   1.003E+00   0.000E+00  -3.475E-03
 552  9.36799298   0.690  -1.98293   3.52879   6.88404   1.97515   0.00000   1.003E+00   0.000E+00  -3.472E-03
 553  9.37061244   0.690  -1.98282   3.52879   6.88399   1.97499   0.00000   1.003E+00   0.000E+00  -3.468E-03
 554  9.37321620   0.690  -1.98272   3.52879   6.88395   1.97484   0.00000   1.003E+00   0.000E+00  -3.463E-03
 555  9.37580445   0.690  -1.98261   3.52879   6.88391   1.97469   0.00000   1.003E+00   0.000E+00  -3.458E-03
 556  9.37837735   0.690  -1.98251   3.52879   6.88386   1.97453   0.00000   1.003E+00   0.000E+00  -3.453E-03
 557  9.38093511   0.690  -1.98240   3.52879   6.88382   1.97438   0.00000   1.003E+00   0.000E+00  -3.448E-03
 558  9.38347789   0.690  -1.98230   3.52879   6.88377   1.97422   0.00000   1.003E+00   0.000E+00  -3.443E-03
 559  9.38600587   0.690  -1.98219   3.52879   6.88373   1.97407   0.00000   1.003E+00   0.000E+00  -3.439E-03
 560  9.38851922   0.690  -1.98209   3.52879   6.88369   1.97392   0.00000   1.003E+00   0.000E+00  -3.434E-03
 561  9.39101810   0.690  -1.98199   3.52879   6.88364   1.97376   0.00000   1.003E+00   0.000E+00  -3.429E-03
 562  9.39350269   0.690  -1.98188   3.52879   6.88360   1.97361   0.00000   1.003E+00   0.000E+00  -3.424E-03
 563  9.39597315   0.690  -1.98178   3.52879   6.88356   1.97345   0.00000   1.003E+00   0.000E+00  -3.419E-03
 564  9.39842963   0.690  -1.98167   3.52879   6.88351   1.97330   0.00000   1.003E+00   0.000E+00  -3.414E-03
 565  9.40087230   0.690  -1.98157   3.52879   6.88347   1.97315   0.00000   1.003E+00   0.000E+00  -3.409E-03
 566  9.40330131   0.690  -1.98146   3.52879   6.88342   1.97299   0.00000   1.003E+00   0.000E+00  -3.404E-03
 567  9.40571680   0.690  -1.98136   3.52879   6.88338   1.97284   0.00000   1.003E+00   0.000E+00  -3.399E-03
 568  9.40811894   0.690  -1.98126   3.52879   6.88334   1.97269   0.00000   1.003E+00   0.000E+00  -3.392E-03
 569  9.41050786   0.690  -1.98116   3.52879   6.88330   1.97254   0.00000   1.003E+00   0.000E+00  -3.384E-03
 570  9.41288371   0.690  -1.98105   3.52879   6.88325   1.97239   0.00000   1.003E+00   0.000E+00  -3.377E-03
 571  9.41524664   0.690  -1.98095   3.52879   6.88321   1.97224   0.00000   1.003E+00   0.000E+00  -3.370E-03
 572  9.41759678   0.690  -1.98085   3.52879   6.88317   1.97208   0.00000   1.003E+00   0.000E+00  -3.363E-03
 573  9.41993427   0.690  -1.98075   3.52879   6.88312   1.97193   0.00000   1.003E+00   0.000E+00  -3.356E-03
 574  9.42225924   0.690  -1.98065   3.52880   6.88308   1.97178   0.00000   1.003E+00   0.000E+00  -3.349E-03
 575  9.42457184   0.690  -1.98055   3.52880   6.88304   1.97163   0.00000   1.003E+00   0.000E+00  -3.342E-03
 576  9.42687219   0.690  -1.98044   3.52880   6.88299   1.97148   0.00000   1.003E+00   0.000E+00  -3.335E-03
 577  9.42916041   0.690  -1.98034   3.52880   6.88295   1.97133   0.00000   1.003E+00   0.000E+00  -3.328E-03
 578  9.43143665   0.690  -1.98024   3.52880   6.88291   1.97118   0.00000   1.003E+00   0.000E+00  -3.321E-03
 579  9.43370101   0.690  -1.98014   3.52880   6.88286   1.97103   0.00000   1.003E+00   0.000E+00  -3.314E-03
 580  9.43595363   0.690  -1.98004   3.52880   6.88282   1.97088   0.00000   1.003E+00   0.000E+00  -3.307E-03
 581  9.43819463   0.690  -1.97994   3.52880   6.88278   1.97072   0.00000   1.003E+00   0.000E+00  -3.300E-03
 582  9.44042412   0.690  -1.97984   3.52880   6.88274   1.97058   0.00000   1.003E+00   0.000E+00  -3.293E-03
 583  9.44264223   0.690  -1.97974   3.52880   6.88269   1.97043   0.00000   1.003E+00   0.000E+00  -3.287E-03
 584  9.44484906   0.690  -1.97964   3.52880   6.88265   1.97028   0.00000   1.003E+00   0.000E+00  -3.281E-03
 585  9.44704474   0.690  -1.97954   3.52880   6.88261   1.97013   0.00000   1.003E+00   0.000E+00  -3.274E-03
 586  9.44922937   0.690  -1.97944   3.52880   6.88256   1.96998   0.00000   1.003E+00   0.000E+00  -3.268E-03
 587  9.45140307   0.690  -1.97934   3.52880   6.88252   1.96984   0.00000   1.003E+00   0.000E+00  -3.262E-03
 588  9.45356594   0.690  -1.97924   3.52880   6.88248   1.96969   0.00000   1.003E+00   0.000E+00  -3.255E-03
 589  9.45571810   0.690  -1.97914   3.52880   6.88243   1.96954   0.00000   1.003E+00   0.000E+00  -3.249E-03
 590  9.45785964   0.690  -1.97904   3.52880   6.88239   1.96939   0.00000   1.003E+00   0.000E+00  -3.243E-03
 591  9.45999067   0.690  -1.97894   3.52880   6.88235   1.96924   0.00000   1.003E+00   0.000E+00  -3.236E-03
 592  9.46211130   0.689  -1.97884   3.52880   6.88230   1.96909   0.00000   1.003E+00   0.000E+00  -3.230E-03
 593  9.46422162   0.689  -1.97874   3.52880   6.88226   1.96895   0.00000   1.003E+00   0.000E+00  -3.224E-03
 594  9.46632174   0.689  -1.97864   3.52880   6.88222   1.96880   0.00000   1.003E+00   0.000E+00  -3.217E-03
 595  9.46841175   0.689  -1.97854   3.52880   6.88218   1.96865   0.00000   1.003E+00   0.000E+00  -3.211E-03
 596  9.47049175   0.689  -1.97845   3.52880   6.88214   1.96851   0.00000   1.003E+00   0.000E+00  -3.202E-03
 597  9.47256184   0.689  -1.97835   3.52880   6.88209   1.96836   0.00000   1.003E+00   0.000E+00  -3.193E-03
 598  9.47462211   0.689  -1.97825   3.52880   6.88205   1.96822   0.00000   1.003E+00   0.000E+00  -3.184E-03
 599  9.47667265   0.689  -1.97816   3.52880   6.88201   1.96808   0.00000   1.003E+00   0.000E+00  -3.175E-03
 600  9.47871355   0.689  -1.97806   3.52880   6.88197   1.96794   0.00000   1.003E+00   0.000E+00  -3.165E-03
 601  9.48074491   0.689  -1.97796   3.52880   6.88193   1.96780   0.00000   1.003E+00   0.000E+00  -3.156E-03
 602  9.48276681   0.689  -1.97787   3.52880   6.88189   1.96766   0.00000   1.003E+00   0.000E+00  -3.147E-03
 603  9.48477934   0.689  -1.97777   3.52880   6.88185   1.96751   0.00000   1.003E+00   0.000E+00  -3.138E-03
 604  9.48678258   0.689  -1.97767   3.52880   6.88181   1.96737   0.00000   1.003E+00   0.000E+00  -3.129E-03
 605  9.48877663   0.689  -1.97758   3.52880   6.88177   1.96723   0.00000   1.003E+00   0.000E+00  -3.119E-03
 606  9.49076157   0.689  -1.97748   3.52880   6.88173   1.96709   0.00000   1.003E+00   0.000E+00  -3.110E-03
 607  9.49273747   0.689  -1.97738   3.52880   6.88169   1.96695   0.00000   1.003E+00   0.000E+00  -3.101E-03
 608  9.49470443   0.689  -1.97729   3.52880   6.88165   1.96680   0.00000   1.003E+00   0.000E+00  -3.092E-03
 609  9.49666251   0.689  -1.97719   3.52880   6.88161   1.96666   0.00000   1.003E+00   0.000E+00  -3.083E-03
 610  9.49861181   0.689  -1.97710   3.52880   6.88157   1.96652   0.00000   1.003E+00   0.000E+00  -3.075E-03
 611  9.50055240   0.689  -1.97700   3.52880   6.88153   1.96638   0.00000   1.003E+00   0.000E+00  -3.067E-03
 612  9.50248436   0.689  -1.97691   3.52880   6.88149   1.96625   0.00000   1.003E+00   0.000E+00  -3.059E-03
 613  9.50440776   0.689  -1.97682   3.52880   6.88145   1.96611   0.00000   1.003E+00   0.000E+00  -3.051E-03
 614  9.50632267   0.689  -1.97673   3.52880   6.88141   1.96597   0.00000   1.003E+00   0.000E+00  -3.044E-03
 615  9.50822919   0.689  -1.97663   3.52880   6.88137   1.96583   0.00000   1.003E+00   0.000E+00  -3.036E-03
 616  9.51012737   0.689  -1.97654   3.52880   6.88134   1.96569   0.00000   1.003E+00   0.000E+00  -3.028E-03
 617  9.51201728   0.689  -1.97645   3.52881   6.88130   1.96555   0.00000   1.003E+00   0.000E+00  -3.020E-03
 618  9.51389901   0.689  -1.97636   3.52881   6.88126   1.96542   0.00000   1.003E+00   0.000E+00  -3.012E-03
 619  9.51577263   0.689  -1.97626   3.52881   6.88122   1.96528   0.00000   1.003E+00   0.000E+00  -3.005E-03
 620  9.51763819   0.689  -1.97617   3.52881   6.88118   1.96514   0.00000   1.003E+00   0.000E+00  -2.997E-03
 621  9.51949577   0.689  -1.97608   3.52881   6.88114   1.96500   0.00000   1.003E+00   0.000E+00  -2.989E-03
 622  9.52134545   0.689  -1.97599   3.52881   6.88110   1.96486   0.00000   1.003E+00   0.000E+00  -2.981E-03
 623  9.52318728   0.689  -1.97589   3.52881   6.88106   1.96472   0.00000   1.003E+00   0.000E+00  -2.974E-03
 624  9.52502133   0.689  -1.97580   3.52881   6.88102   1.96459   0.00000   1.003E+00   0.000E+00  -2.965E-03
 625  9.52684766   0.689  -1.97571   3.52881   6.88098   1.96446   0.00000   1.003E+00   0.000E+00  -2.957E-03
 626  9.52866635   0.689  -1.97562   3.52881   6.88095   1.96433   0.00000   1.003E+00   0.000E+00  -2.949E-03
 627  9.53047746   0.689  -1.97553   3.52881   6.88091   1.96419   0.00000   1.003E+00   0.000E+00  -2.940E-03
 628  9.53228104   0.689  -1.97544   3.52881   6.88087   1.96406   0.00000   1.003E+00   0.000E+00  -2.932E-03
 629  9.53407717   0.689  -1.97535   3.52881   6.88083   1.96393   0.00000   1.003E+00   0.000E+00  -2.923E-03
 630  9.53586589   0.689  -1.97526   3.52881   6.88080   1.96380   0.00000   1.003E+00   0.000E+00  -2.915E-03
 631  9.53764728   0.689  -1.97517   3.52881   6.88076   1.96367   0.00000   1.003E+00   0.000E+00  -2.906E-03
 632  9.53942140   0.689  -1.97508   3.52881   6.88072   1.96353   0.00000   1.003E+00   0.000E+00  -2.898E-03
 633  9.54118829   0.689  -1.97499   3.52881   6.88068   1.96340   0.00000   1.003E+00   0.000E+00  -2.889E-03
 634  9.54294803   0.689  -1.97490   3.52881   6.88065   1.96327   0.00000   1.003E+00   0.000E+00  -2.881E-03
 635  9.54470066   0.689  -1.97481   3.52881   6.88061   1.96314   0.00000   1.003E+00   0.000E+00  -2.872E-03
 636  9.54644625   0.689  -1.97472   3.52881   6.88057   1.96301   0.00000   1.003E+00   0.000E+00  -2.864E-03
 637  9.54818485   0.689  -1.97463   3.52881   6.88053   1.96287   0.00000   1.003E+00   0.000E+00  -2.855E-03
 638  9.54991652   0.689  -1.97454   3.52881   6.88050   1.96274   0.00000   1.003E+00   0.000E+00  -2.847E-03
 639  9.55164131   0.689  -1.97445   3.52881   6.88046   1.96262   0.00000   1.003E+00   0.000E+00  -2.838E-03
 640  9.55335928   0.689  -1.97436   3.52881   6.88042   1.96249   0.00000   1.003E+00   0.000E+00  -2.830E-03
 641  9.55507048   0.689  -1.97428   3.52881   6.88039   1.96236   0.00000   1.003E+00   0.000E+00  -2.821E-03
 642  9.55677496   0.689  -1.97419   3.52881   6.88035   1.96224   0.00000   1.003E+00   0.000E+00  -2.813E-03
 643  9.55847278   0.689  -1.97410   3.52881   6.88032   1.96211   0.00000   1.003E+00   0.000E+00  -2.805E-03
 644  9.56016399   0.689  -1.97402   3.52881   6.88028   1.96198   0.00000   1.003E+00   0.000E+00  -2.796E-03
 645  9.56184864   0.689  -1.97393   3.52882   6.88024   1.96185   0.00000   1.003E+00   0.000E+00  -2.788E-03
 646  9.56352678   0.689  -1.97384   3.52882   6.88021   1.96173   0.00000   1.003E+00   0.000E+00  -2.779E-03
 647  9.56519846   0.689  -1.97376   3.52882   6.88017   1.96160   0.00000   1.003E+00   0.000E+00  -2.771E-03
 648  9.56686373   0.689  -1.97367   3.52882   6.88014   1.96147   0.00000   1.003E+00   0.000E+00  -2.762E-03
 649  9.56852264   0.689  -1.97358   3.52882   6.88010   1.96135   0.00000   1.003E+00   0.000E+00  -2.754E-03
 650  9.57017523   0.689  -1.97350   3.52882   6.88006   1.96122   0.00000   1.003E+00   0.000E+00  -2.745E-03
 651  9.57182156   0.689  -1.97341   3.52882   6.88003   1.96109   0.00000   1.003E+00   0.000E+00  -2.737E-03
 652  9.57346168   0.689  -1.97332   3.52882   6.87999   1.96097   0.00000   1.003E+00   0.000E+00  -2.728E-03
 653  9.57509562   0.689  -1.97324   3.52882   6.87996   1.96084   0.00000   1.003E+00   0.000E+00  -2.721E-03
 654  9.57672344   0.689  -1.97316   3.52882   6.87992   1.96072   0.00000   1.003E+00   0.000E+00  -2.713E-03
 655  9.57834518   0.689  -1.97307   3.52882   6.87989   1.96060   0.00000   1.003E+00   0.000E+00  -2.705E-03
 656  9.57996089   0.689  -1.97299   3.52882   6.87985   1.96047   0.00000   1.003E+00   0.000E+00  -2.697E-03
 657  9.58157060   0.689  -1.97291   3.52882   6.87982   1.96035   0.00000   1.003E+00   0.000E+00  -2.690E-03
 658  9.58317438   0.689  -1.97282   3.52882   6.87979   1.96023   0.00000   1.003E+00   0.000E+00  -2.682E-03
 659  9.58477225   0.689  -1.97274   3.52882   6.87975   1.96011   0.00000   1.003E+00   0.000E+00  -2.674E-03
 660  9.58636427   0.689  -1.97266   3.52882   6.87972   1.95998   0.00000   1.003E+00   0.000E+00  -2.666E-03
 661  9.58795047   0.689  -1.97257   3.52882   6.87968   1.95986   0.00000   1.003E+00   0.000E+00  -2.659E-03
 662  9.58953090   0.689  -1.97249   3.52882   6.87965   1.95974   0.00000   1.003E+00   0.000E+00  -2.651E-03
 663  9.59110559   0.689  -1.97241   3.52882   6.87961   1.95961   0.00000   1.003E+00   0.000E+00  -2.643E-03
 664  9.59267460   0.689  -1.97232   3.52882   6.87958   1.95949   0.00000   1.003E+00   0.000E+00  -2.635E-03
 665  9.59423797   0.689  -1.97224   3.52882   6.87954   1.95937   0.00000   1.003E+00   0.000E+00  -2.628E-03
 666  9.59579572   0.689  -1.97216   3.52882   6.87951   1.95925   0.00000   1.003E+00   0.000E+00  -2.620E-03
 667  9.59734790   0.689  -1.97208   3.52882   6.87948   1.95913   0.00000   1.003E+00   0.000E+00  -2.612E-03
 668  9.59889456   0.689  -1.97200   3.52882   6.87944   1.95901   0.00000   1.003E+00   0.000E+00  -2.604E-03
 669  9.60043573   0.689  -1.97192   3.52882   6.87941   1.95889   0.00000   1.003E+00   0.000E+00  -2.596E-03
 670  9.60197145   0.689  -1.97184   3.52882   6.87938   1.95877   0.00000   1.003E+00   0.000E+00  -2.589E-03
 671  9.60350176   0.689  -1.97176   3.52882   6.87934   1.95866   0.00000   1.003E+00   0.000E+00  -2.581E-03
 672  9.60502670   0.689  -1.97167   3.52882   6.87931   1.95854   0.00000   1.003E+00   0.000E+00  -2.573E-03
 673  9.60654630   0.689  -1.97159   3.52882   6.87928   1.95842   0.00000   1.003E+00   0.000E+00  -2.565E-03
 674  9.60806060   0.689  -1.97151   3.52882   6.87924   1.95830   0.00000   1.002E+00   0.000E+00  -2.558E-03
 675  9.60956964   0.689  -1.97143   3.52882   6.87921   1.95819   0.00000   1.002E+00   0.000E+00  -2.550E-03
 676  9.61107345   0.689  -1.97135   3.52882   6.87918   1.95807   0.00000   1.002E+00   0.000E+00  -2.542E-03
 677  9.61257207   0.689  -1.97127   3.52882   6.87914   1.95795   0.00000   1.002E+00   0.000E+00  -2.534E-03
 678  9.61406555   0.689  -1.97119   3.52882   6.87911   1.95783   0.00000   1.002E+00   0.000E+00  -2.527E-03
 679  9.61555390   0.689  -1.97111   3.52882   6.87908   1.95771   0.00000   1.002E+00   0.000E+00  -2.519E-03
 680  9.61703717   0.689  -1.97103   3.52882   6.87904   1.95760   0.00000   1.002E+00   0.000E+00  -2.511E-03
 681  9.61851539   0.689  -1.97095   3.52882   6.87901   1.95748   0.00000   1.002E+00   0.000E+00  -2.503E-03
 682  9.61998860   0.689  -1.97088   3.52882   6.87898   1.95737   0.00000   1.002E+00   0.000E+00  -2.496E-03
 683  9.62145682   0.689  -1.97080   3.52882   6.87895   1.95726   0.00000   1.002E+00   0.000E+00  -2.488E-03
 684  9.62292010   0.689  -1.97072   3.52882   6.87891   1.95714   0.00000   1.002E+00   0.000E+00  -2.480E-03
 685  9.62437847   0.689  -1.97065   3.52882   6.87888   1.95703   0.00000   1.002E+00   0.000E+00  -2.472E-03
 686  9.62583195   0.688  -1.97057   3.52882   6.87885   1.95692   0.00000   1.002E+00   0.000E+00  -2.464E-03
 687  9.62728059   0.688  -1.97049   3.52882   6.87882   1.95681   0.00000   1.002E+00   0.000E+00  -2.457E-03
 688  9.62872441   0.688  -1.97042   3.52883   6.87878   1.95669   0.00000   1.002E+00   0.000E+00  -2.449E-03
 689  9.63016344   0.688  -1.97034   3.52883   6.87875   1.95658   0.00000   1.002E+00   0.000E+00  -2.441E-03
 690  9.63159773   0.688  -1.97026   3.52883   6.87872   1.95647   0.00000   1.002E+00   0.000E+00  -2.433E-03
 691  9.63302729   0.688  -1.97018   3.52883   6.87869   1.95635   0.00000   1.002E+00   0.000E+00  -2.426E-03
 692  9.63445216   0.688  -1.97011   3.52883   6.87865   1.95624   0.00000   1.002E+00   0.000E+00  -2.418E-03
 693  9.63587237   0.688  -1.97003   3.52883   6.87862   1.95613   0.00000   1.002E+00   0.000E+00  -2.410E-03
 694  9.63728796   0.688  -1.96995   3.52883   6.87859   1.95601   0.00000   1.002E+00   0.000E+00  -2.402E-03
 695  9.63869894   0.688  -1.96988   3.52883   6.87856   1.95590   0.00000   1.002E+00   0.000E+00  -2.395E-03
 696  9.64010536   0.688  -1.96980   3.52883   6.87853   1.95580   0.00000   1.002E+00   0.000E+00  -2.388E-03
 697  9.64150723   0.688  -1.96973   3.52883   6.87850   1.95569   0.00000   1.002E+00   0.000E+00  -2.381E-03
 698  9.64290460   0.688  -1.96966   3.52883   6.87847   1.95558   0.00000   1.002E+00   0.000E+00  -2.374E-03
 699  9.64429748   0.688  -1.96958   3.52883   6.87844   1.95547   0.00000   1.002E+00   0.000E+00  -2.367E-03
 700  9.64568591   0.688  -1.96951   3.52883   6.87841   1.95536   0.00000   1.002E+00   0.000E+00  -2.360E-03
 701  9.64706992   0.688  -1.96943   3.52883   6.87838   1.95525   0.00000   1.002E+00   0.000E+00  -2.353E-03
 702  9.64844952   0.688  -1.96936   3.52883   6.87835   1.95514   0.00000   1.002E+00   0.000E+00  -2.346E-03
 703  9.64982476   0.688  -1.96929   3.52883   6.87832   1.95503   0.00000   1.002E+00   0.000E+00  -2.339E-03
 704  9.65119566   0.688  -1.96921   3.52883   6.87829   1.95493   0.00000   1.002E+00   0.000E+00  -2.332E-03
 705  9.65256225   0.688  -1.96914   3.52883   6.87826   1.95482   0.00000   1.002E+00   0.000E+00  -2.325E-03
 706  9.65392455   0.688  -1.96906   3.52883   6.87823   1.95471   0.00000   1.002E+00   0.000E+00  -2.317E-03
 707  9.65528259   0.688  -1.96899   3.52883   6.87819   1.95460   0.00000   1.002E+00   0.000E+00  -2.310E-03
 708  9.65663639   0.688  -1.96892   3.52883   6.87816   1.95449   0.00000   1.002E+00   0.000E+00  -2.303E-03
 709  9.65798599   0.688  -1.96884   3.52883   6.87813   1.95438   0.00000   1.002E+00   0.000E+00  -2.296E-03
 710  9.65933141   0.688  -1.96877   3.52883   6.87810   1.95428   0.00000   1.002E+00   0.000E+00  -2.289E-03
 711  9.66067267   0.688  -1.96870   3.52883   6.87808   1.95417   0.00000   1.002E+00   0.000E+00  -2.282E-03
 712  9.66200980   0.688  -1.96863   3.52883   6.87805   1.95407   0.00000   1.002E+00   0.000E+00  -2.275E-03
 713  9.66334283   0.688  -1.96855   3.52883   6.87802   1.95396   0.00000   1.002E+00   0.000E+00  -2.268E-03
 714  9.66467178   0.688  -1.96848   3.52883   6.87799   1.95386   0.00000   1.002E+00   0.000E+00  -2.261E-03
 715  9.66599667   0.688  -1.96841   3.52883   6.87796   1.95375   0.00000   1.002E+00   0.000E+00  -2.254E-03
 716  9.66731754   0.688  -1.96834   3.52883   6.87793   1.95365   0.00000   1.002E+00   0.000E+00  -2.247E-03
 717  9.66863440   0.688  -1.96827   3.52883   6.87790   1.95354   0.00000   1.002E+00   0.000E+00  -2.240E-03
 718  9.66994728   0.688  -1.96819   3.52883   6.87787   1.95344   0.00000   1.002E+00   0.000E+00  -2.233E-03
 719  9.67125620   0.688  -1.96812   3.52883   6.87784   1.95333   0.00000   1.002E+00   0.000E+00  -2.226E-03
 720  9.67256119   0.688  -1.96805   3.52883   6.87781   1.95323   0.00000   1.002E+00   0.000E+00  -2.219E-03
 721  9.67386227   0.688  -1.96798   3.52883   6.87778   1.95312   0.00000   1.002E+00   0.000E+00  -2.212E-03
 722  9.67515946   0.688  -1.96791   3.52883   6.87775   1.95302   0.00000   1.002E+00   0.000E+00  -2.205E-03
 723  9.67645279   0.688  -1.96784   3.52883   6.87772   1.95291   0.00000   1.002E+00   0.000E+00  -2.198E-03
 724  9.67774229   0.688  -1.96777   3.52883   6.87769   1.95281   0.00000   1.002E+00   0.000E+00  -2.191E-03
 725  9.67902796   0.688  -1.96770   3.52883   6.87766   1.95271   0.00000   1.002E+00   0.000E+00  -2.185E-03
 726  9.68030984   0.688  -1.96763   3.52883   6.87764   1.95261   0.00000   1.002E+00   0.000E+00  -2.179E-03
 727  9.68158794   0.688  -1.96756   3.52883   6.87761   1.95251   0.00000   1.002E+00   0.000E+00  -2.172E-03
 728  9.68286230   0.688  -1.96749   3.52883   6.87758   1.95241   0.00000   1.002E+00   0.000E+00  -2.166E-03
 729  9.68413292   0.688  -1.96742   3.52883   6.87755   1.95231   0.00000   1.002E+00   0.000E+00  -2.160E-03
 730  9.68539985   0.688  -1.96736   3.52884   6.87752   1.95221   0.00000   1.002E+00   0.000E+00  -2.153E-03
 731  9.68666308   0.688  -1.96729   3.52884   6.87749   1.95211   0.00000   1.002E+00   0.000E+00  -2.147E-03
 732  9.68792265   0.688  -1.96722   3.52884   6.87747   1.95201   0.00000   1.002E+00   0.000E+00  -2.141E-03
 733  9.68917858   0.688  -1.96715   3.52884   6.87744   1.95191   0.00000   1.002E+00   0.000E+00  -2.134E-03
 734  9.69043089   0.688  -1.96708   3.52884   6.87741   1.95181   0.00000   1.002E+00   0.000E+00  -2.128E-03
 735  9.69167959   0.688  -1.96701   3.52884   6.87738   1.95171   0.00000   1.002E+00   0.000E+00  -2.121E-03
 736  9.69292472   0.688  -1.96695   3.52884   6.87735   1.95161   0.00000   1.002E+00   0.000E+00  -2.115E-03
 737  9.69416629   0.688  -1.96688   3.52884   6.87732   1.95151   0.00000   1.002E+00   0.000E+00  -2.109E-03
 738  9.69540432   0.688  -1.96681   3.52884   6.87730   1.95141   0.00000   1.002E+00   0.000E+00  -2.103E-03
 739  9.69663883   0.688  -1.96674   3.52884   6.87727   1.95132   0.00000   1.002E+00   0.000E+00  -2.098E-03
 740  9.69786983   0.688  -1.96668   3.52884   6.87724   1.95122   0.00000   1.002E+00   0.000E+00  -2.092E-03
 741  9.69909736   0.688  -1.96661   3.52884   6.87722   1.95112   0.00000   1.002E+00   0.000E+00  -2.086E-03
 742  9.70032143   0.688  -1.96655   3.52884   6.87719   1.95102   0.00000   1.002E+00   0.000E+00  -2.081E-03
 743  9.70154206   0.688  -1.96648   3.52884   6.87716   1.95093   0.00000   1.002E+00   0.000E+00  -2.075E-03
 744  9.70275927   0.688  -1.96641   3.52884   6.87714   1.95083   0.00000   1.002E+00   0.000E+00  -2.069E-03
 745  9.70397308   0.688  -1.96635   3.52884   6.87711   1.95073   0.00000   1.002E+00   0.000E+00  -2.064E-03
 746  9.70518350   0.688  -1.96628   3.52884   6.87708   1.95063   0.00000   1.002E+00   0.000E+00  -2.058E-03
 747  9.70639056   0.688  -1.96621   3.52884   6.87706   1.95054   0.00000   1.002E+00   0.000E+00  -2.052E-03
 748  9.70759428   0.688  -1.96615   3.52884   6.87703   1.95044   0.00000   1.002E+00   0.000E+00  -2.047E-03
 749  9.70879466   0.688  -1.96608   3.52884   6.87700   1.95034   0.00000   1.002E+00   0.000E+00  -2.041E-03
 750  9.70999174   0.688  -1.96601   3.52884   6.87698   1.95025   0.00000   1.002E+00   0.000E+00  -2.036E-03
 751  9.71118553   0.688  -1.96595   3.52884   6.87695   1.95015   0.00000   1.002E+00   0.000E+00  -2.030E-03
 752  9.71237604   0.688  -1.96588   3.52884   6.87692   1.95005   0.00000   1.002E+00   0.000E+00  -2.023E-03
 753  9.71356331   0.688  -1.96582   3.52884   6.87690   1.94996   0.00000   1.002E+00   0.000E+00  -2.017E-03
 754  9.71474733   0.688  -1.96576   3.52884   6.87687   1.94987   0.00000   1.002E+00   0.000E+00  -2.011E-03
 755  9.71592813   0.688  -1.96569   3.52884   6.87684   1.94978   0.00000   1.002E+00   0.000E+00  -2.004E-03
 756  9.71710574   0.688  -1.96563   3.52884   6.87682   1.94968   0.00000   1.002E+00   0.000E+00  -1.998E-03
 757  9.71828015   0.688  -1.96556   3.52884   6.87679   1.94959   0.00000   1.002E+00   0.000E+00  -1.992E-03
 758  9.71945141   0.688  -1.96550   3.52884   6.87677   1.94950   0.00000   1.002E+00   0.000E+00  -1.985E-03
 759  9.72061951   0.688  -1.96543   3.52885   6.87674   1.94940   0.00000   1.002E+00   0.000E+00  -1.979E-03
 760  9.72178447   0.688  -1.96537   3.52885   6.87671   1.94931   0.00000   1.002E+00   0.000E+00  -1.973E-03
 761  9.72294632   0.688  -1.96531   3.52885   6.87669   1.94922   0.00000   1.002E+00   0.000E+00  -1.966E-03
 762  9.72410507   0.688  -1.96524   3.52885   6.87666   1.94912   0.00000   1.002E+00   0.000E+00  -1.960E-03
 763  9.72526074   0.688  -1.96518   3.52885   6.87664   1.94903   0.00000   1.002E+00   0.000E+00  -1.954E-03
 764  9.72641334   0.688  -1.96511   3.52885   6.87661   1.94894   0.00000   1.002E+00   0.000E+00  -1.947E-03
 765  9.72756289   0.688  -1.96505   3.52885   6.87658   1.94884   0.00000   1.002E+00   0.000E+00  -1.941E-03
 766  9.72870941   0.688  -1.96499   3.52885   6.87656   1.94875   0.00000   1.002E+00   0.000E+00  -1.936E-03
 767  9.72985290   0.688  -1.96493   3.52885   6.87653   1.94866   0.00000   1.002E+00   0.000E+00  -1.931E-03
 768  9.73099339   0.688  -1.96486   3.52885   6.87651   1.94858   0.00000   1.002E+00   0.000E+00  -1.926E-03
 769  9.73213090   0.688  -1.96480   3.52885   6.87648   1.94849   0.00000   1.002E+00   0.000E+00  -1.921E-03
 770  9.73326543   0.688  -1.96474   3.52885   6.87646   1.94840   0.00000   1.002E+00   0.000E+00  -1.916E-03
 771  9.73439701   0.688  -1.96468   3.52885   6.87644   1.94831   0.00000   1.002E+00   0.000E+00  -1.911E-03
 772  9.73552565   0.688  -1.96462   3.52885   6.87641   1.94822   0.00000   1.002E+00   0.000E+00  -1.906E-03
 773  9.73665136   0.688  -1.96456   3.52885   6.87639   1.94813   0.00000   1.002E+00   0.000E+00  -1.901E-03
 774  9.73777416   0.688  -1.96450   3.52885   6.87636   1.94804   0.00000   1.002E+00   0.000E+00  -1.896E-03
 775  9.73889407   0.688  -1.96443   3.52885   6.87634   1.94795   0.00000   1.002E+00   0.000E+00  -1.891E-03
 776  9.74001109   0.688  -1.96437   3.52885   6.87631   1.94786   0.00000   1.002E+00   0.000E+00  -1.886E-03
 777  9.74112525   0.688  -1.96431   3.52885   6.87629   1.94778   0.00000   1.002E+00   0.000E+00  -1.881E-03
 778  9.74223656   0.688  -1.96425   3.52885   6.87626   1.94769   0.00000   1.002E+00   0.000E+00  -1.876E-03
 779  9.74334504   0.688  -1.96419   3.52885   6.87624   1.94760   0.00000   1.002E+00   0.000E+00  -1.872E-03
 780  9.74445069   0.688  -1.96413   3.52885   6.87621   1.94751   0.00000   1.002E+00   0.000E+00  -1.866E-03
 781  9.74555353   0.688  -1.96407   3.52885   6.87619   1.94742   0.00000   1.002E+00   0.000E+00  -1.860E-03
 782  9.74665358   0.688  -1.96401   3.52885   6.87617   1.94734   0.00000   1.002E+00   0.000E+00  -1.855E-03
 783  9.74775085   0.688  -1.96395   3.52885   6.87614   1.94725   0.00000   1.002E+00   0.000E+00  -1.849E-03
 784  9.74884535   0.688  -1.96389   3.52885   6.87612   1.94716   0.00000   1.002E+00   0.000E+00  -1.844E-03
 785  9.74993711   0.688  -1.96383   3.52885   6.87609   1.94708   0.00000   1.002E+00   0.000E+00  -1.838E-03
 786  9.75102612   0.688  -1.96377   3.52885   6.87607   1.94699   0.00000   1.002E+00   0.000E+00  -1.832E-03
 787  9.75211241   0.688  -1.96371   3.52886   6.87605   1.94690   0.00000   1.002E+00   0.000E+00  -1.827E-03
 788  9.75319600   0.688  -1.96365   3.52886   6.87602   1.94682   0.00000   1.002E+00   0.000E+00  -1.821E-03
 789  9.75427688   0.688  -1.96360   3.52886   6.87600   1.94673   0.00000   1.002E+00   0.000E+00  -1.815E-03
 790  9.75535508   0.688  -1.96354   3.52886   6.87597   1.94664   0.00000   1.002E+00   0.000E+00  -1.810E-03
 791  9.75643061   0.687  -1.96348   3.52886   6.87595   1.94656   0.00000   1.002E+00   0.000E+00  -1.804E-03
 792  9.75750349   0.687  -1.96342   3.52886   6.87593   1.94647   0.00000   1.002E+00   0.000E+00  -1.798E-03
 793  9.75857372   0.687  -1.96336   3.52886   6.87590   1.94638   0.00000   1.002E+00   0.000E+00  -1.793E-03
 794  9.75964131   0.687  -1.96330   3.52886   6.87588   1.94630   0.00000   1.002E+00   0.000E+00  -1.787E-03
 795  9.76070630   0.687  -1.96324   3.52886   6.87585   1.94621   0.00000   1.002E+00   0.000E+00  -1.782E-03
 796  9.76176867   0.687  -1.96318   3.52886   6.87583   1.94613   0.00000   1.002E+00   0.000E+00  -1.778E-03
 797  9.76282846   0.687  -1.96313   3.52886   6.87581   1.94605   0.00000   1.002E+00   0.000E+00  -1.773E-03
 798  9.76388566   0.687  -1.96307   3.52886   6.87578   1.94596   0.00000   1.002E+00   0.000E+00  -1.768E-03
 799  9.76494030   0.687  -1.96301   3.52886   6.87576   1.94588   0.00000   1.002E+00   0.000E+00  -1.763E-03
 800  9.76599238   0.687  -1.96295   3.52886   6.87574   1.94580   0.00000   1.002E+00   0.000E+00  -1.758E-03
 801  9.76704192   0.687  -1.96289   3.52886   6.87571   1.94571   0.00000   1.002E+00   0.000E+00  -1.753E-03
 802  9.76808892   0.687  -1.96284   3.52886   6.87569   1.94563   0.00000   1.002E+00   0.000E+00  -1.748E-03
 803  9.76913342   0.687  -1.96278   3.52886   6.87567   1.94555   0.00000   1.002E+00   0.000E+00  -1.743E-03
 804  9.77017540   0.687  -1.96272   3.52886   6.87564   1.94546   0.00000   1.002E+00   0.000E+00  -1.738E-03
 805  9.77121489   0.687  -1.96266   3.52886   6.87562   1.94538   0.00000   1.002E+00   0.000E+00  -1.733E-03
 806  9.77225190   0.687  -1.96261   3.52886   6.87560   1.94530   0.00000   1.002E+00   0.000E+00  -1.728E-03
 807  9.77328644   0.687  -1.96255   3.52886   6.87558   1.94521   0.00000   1.002E+00   0.000E+00  -1.723E-03
 808  9.77431852   0.687  -1.96249   3.52886   6.87555   1.94513   0.00000   1.002E+00   0.000E+00  -1.718E-03
 809  9.77534815   0.687  -1.96244   3.52886   6.87553   1.94505   0.00000   1.002E+00   0.000E+00  -1.713E-03
 810  9.77637535   0.687  -1.96238   3.52886   6.87551   1.94497   0.00000   1.002E+00   0.000E+00  -1.708E-03
 811  9.77740012   0.687  -1.96233   3.52886   6.87549   1.94489   0.00000   1.002E+00   0.000E+00  -1.703E-03
 812  9.77842248   0.687  -1.96227   3.52886   6.87546   1.94481   0.00000   1.002E+00   0.000E+00  -1.698E-03
 813  9.77944244   0.687  -1.96222   3.52886   6.87544   1.94473   0.00000   1.002E+00   0.000E+00  -1.694E-03
 814  9.78046001   0.687  -1.96216   3.52886   6.87542   1.94465   0.00000   1.002E+00   0.000E+00  -1.689E-03
 815  9.78147521   0.687  -1.96211   3.52886   6.87540   1.94457   0.00000   1.002E+00   0.000E+00  -1.684E-03
 816  9.78248803   0.687  -1.96205   3.52886   6.87538   1.94449   0.00000   1.002E+00   0.000E+00  -1.679E-03
 817  9.78349850   0.687  -1.96200   3.52886   6.87536   1.94441   0.00000   1.002E+00   0.000E+00  -1.674E-03
 818  9.78450662   0.687  -1.96194   3.52886   6.87533   1.94433   0.00000   1.002E+00   0.000E+00  -1.669E-03
 819  9.78551241   0.687  -1.96188   3.52886   6.87531   1.94425   0.00000   1.002E+00   0.000E+00  -1.664E-03
 820  9.78651587   0.687  -1.96183   3.52886   6.87529   1.94417   0.00000   1.002E+00   0.000E+00  -1.659E-03
 821  9.78751702   0.687  -1.96177   3.52886   6.87527   1.94409   0.00000   1.002E+00   0.000E+00  -1.654E-03
 822  9.78851587   0.687  -1.96172   3.52886   6.87525   1.94401   0.00000   1.002E+00   0.000E+00  -1.649E-03
 823  9.78951243   0.687  -1.96167   3.52886   6.87522   1.94393   0.00000   1.002E+00   0.000E+00  -1.645E-03
 824  9.79050670   0.687  -1.96161   3.52886   6.87520   1.94385   0.00000   1.002E+00   0.000E+00  -1.641E-03
 825  9.79149870   0.687  -1.96156   3.52886   6.87518   1.94377   0.00000   1.002E+00   0.000E+00  -1.637E-03
 826  9.79248845   0.687  -1.96151   3.52886   6.87516   1.94370   0.00000   1.002E+00   0.000E+00  -1.632E-03
 827  9.79347594   0.687  -1.96145   3.52886   6.87514   1.94362   0.00000   1.002E+00   0.000E+00  -1.628E-03
 828  9.79446119   0.687  -1.96140   3.52886   6.87512   1.94354   0.00000   1.002E+00   0.000E+00  -1.624E-03
 829  9.79544421   0.687  -1.96134   3.52887   6.87510   1.94346   0.00000   1.002E+00   0.000E+00  -1.620E-03
 830  9.79642501   0.687  -1.96129   3.52887   6.87508   1.94338   0.00000   1.002E+00   0.000E+00  -1.615E-03
 831  9.79740360   0.687  -1.96124   3.52887   6.87506   1.94331   0.00000   1.002E+00   0.000E+00  -1.611E-03
 832  9.79837999   0.687  -1.96118   3.52887   6.87503   1.94323   0.00000   1.002E+00   0.000E+00  -1.607E-03
 833  9.79935420   0.687  -1.96113   3.52887   6.87501   1.94315   0.00000   1.002E+00   0.000E+00  -1.603E-03
 834  9.80032622   0.687  -1.96108   3.52887   6.87499   1.94307   0.00000   1.002E+00   0.000E+00  -1.598E-03
 835  9.80129607   0.687  -1.96102   3.52887   6.87497   1.94300   0.00000   1.002E+00   0.000E+00  -1.594E-03
 836  9.80226376   0.687  -1.96097   3.52887   6.87495   1.94292   0.00000   1.002E+00   0.000E+00  -1.590E-03
 837  9.80322929   0.687  -1.96092   3.52887   6.87493   1.94284   0.00000   1.002E+00   0.000E+00  -1.586E-03
 838  9.80419269   0.687  -1.96087   3.52887   6.87491   1.94277   0.00000   1.002E+00   0.000E+00  -1.581E-03
 839  9.80515395   0.687  -1.96081   3.52887   6.87489   1.94269   0.00000   1.002E+00   0.000E+00  -1.577E-03
 840  9.80611309   0.687  -1.96076   3.52887   6.87487   1.94262   0.00000   1.002E+00   0.000E+00  -1.573E-03
 841  9.80707012   0.687  -1.96071   3.52887   6.87485   1.94254   0.00000   1.002E+00   0.000E+00  -1.569E-03
 842  9.80802504   0.687  -1.96066   3.52887   6.87483   1.94247   0.00000   1.002E+00   0.000E+00  -1.565E-03
 843  9.80897787   0.687  -1.96061   3.52887   6.87481   1.94239   0.00000   1.002E+00   0.000E+00  -1.560E-03
 844  9.80992861   0.687  -1.96056   3.52887   6.87479   1.94232   0.00000   1.002E+00   0.000E+00  -1.556E-03
 845  9.81087728   0.687  -1.96051   3.52887   6.87477   1.94225   0.00000   1.002E+00   0.000E+00  -1.552E-03
 846  9.81182387   0.687  -1.96045   3.52887   6.87474   1.94217   0.00000   1.002E+00   0.000E+00  -1.548E-03
 847  9.81276841   0.687  -1.96040   3.52887   6.87472   1.94210   0.00000   1.002E+00   0.000E+00  -1.543E-03
 848  9.81371090   0.687  -1.96035   3.52887   6.87470   1.94202   0.00000   1.002E+00   0.000E+00  -1.539E-03
 849  9.81465135   0.687  -1.96030   3.52887   6.87468   1.94195   0.00000   1.002E+00   0.000E+00  -1.535E-03
 850  9.81558976   0.687  -1.96025   3.52887   6.87466   1.94187   0.00000   1.002E+00   0.000E+00  -1.531E-03
 851  9.81652616   0.687  -1.96020   3.52887   6.87464   1.94180   0.00000   1.002E+00   0.000E+00  -1.526E-03
 852  9.81746053   0.687  -1.96015   3.52887   6.87462   1.94173   0.00000   1.002E+00   0.000E+00  -1.522E-03
 853  9.81839291   0.687  -1.96010   3.52887   6.87460   1.94165   0.00000   1.002E+00   0.000E+00  -1.518E-03
 854  9.81932328   0.687  -1.96005   3.52887   6.87458   1.94158   0.00000   1.002E+00   0.000E+00  -1.514E-03
 855  9.82025167   0.687  -1.96000   3.52887   6.87456   1.94151   0.00000   1.002E+00   0.000E+00  -1.509E-03
 856  9.82117807   0.687  -1.95995   3.52887   6.87454   1.94144   0.00000   1.002E+00   0.000E+00  -1.505E-03
 857  9.82210250   0.687  -1.95990   3.52887   6.87452   1.94137   0.00000   1.002E+00   0.000E+00  -1.501E-03
 858  9.82302497   0.687  -1.95985   3.52888   6.87450   1.94129   0.00000   1.001E+00   0.000E+00  -1.497E-03
 859  9.82394549   0.687  -1.95980   3.52888   6.87449   1.94122   0.00000   1.001E+00   0.000E+00  -1.493E-03
 860  9.82486405   0.687  -1.95975   3.52888   6.87447   1.94115   0.00000   1.001E+00   0.000E+00  -1.488E-03
 861  9.82578068   0.687  -1.95970   3.52888   6.87445   1.94108   0.00000   1.001E+00   0.000E+00  -1.484E-03
 862  9.82669538   0.687  -1.95965   3.52888   6.87443   1.94101   0.00000   1.001E+00   0.000E+00  -1.480E-03
 863  9.82760816   0.687  -1.95961   3.52888   6.87441   1.94093   0.00000   1.001E+00   0.000E+00  -1.476E-03
 864  9.82851902   0.687  -1.95956   3.52888   6.87439   1.94086   0.00000   1.001E+00   0.000E+00  -1.471E-03
 865  9.82942797   0.687  -1.95951   3.52888   6.87437   1.94079   0.00000   1.001E+00   0.000E+00  -1.468E-03
 866  9.83033503   0.687  -1.95946   3.52888   6.87435   1.94072   0.00000   1.001E+00   0.000E+00  -1.464E-03
 867  9.83124019   0.687  -1.95941   3.52888   6.87433   1.94065   0.00000   1.001E+00   0.000E+00  -1.461E-03
 868  9.83214348   0.687  -1.95936   3.52888   6.87431   1.94058   0.00000   1.001E+00   0.000E+00  -1.457E-03
 869  9.83304489   0.687  -1.95932   3.52888   6.87429   1.94051   0.00000   1.001E+00   0.000E+00  -1.453E-03
 870  9.83394443   0.687  -1.95927   3.52888   6.87428   1.94044   0.00000   1.001E+00   0.000E+00  -1.450E-03
 871  9.83484211   0.687  -1.95922   3.52888   6.87426   1.94037   0.00000   1.001E+00   0.000E+00  -1.446E-03
 872  9.83573794   0.687  -1.95917   3.52888   6.87424   1.94030   0.00000   1.001E+00   0.000E+00  -1.443E-03
 873  9.83663193   0.687  -1.95912   3.52888   6.87422   1.94023   0.00000   1.001E+00   0.000E+00  -1.439E-03
 874  9.83752408   0.687  -1.95908   3.52888   6.87420   1.94016   0.00000   1.001E+00   0.000E+00  -1.436E-03
 875  9.83841440   0.687  -1.95903   3.52888   6.87418   1.94009   0.00000   1.001E+00   0.000E+00  -1.432E-03
 876  9.83930290   0.687  -1.95898   3.52888   6.87417   1.94002   0.00000   1.001E+00   0.000E+00  -1.429E-03
 877  9.84018958   0.687  -1.95893   3.52888   6.87415   1.93995   0.00000   1.001E+00   0.000E+00  -1.425E-03
 878  9.84107446   0.687  -1.95888   3.52888   6.87413   1.93988   0.00000   1.001E+00   0.000E+00  -1.422E-03
 879  9.84195754   0.687  -1.95884   3.52888   6.87411   1.93982   0.00000   1.001E+00   0.000E+00  -1.418E-03
 880  9.84283883   0.687  -1.95879   3.52888   6.87409   1.93975   0.00000   1.001E+00   0.000E+00  -1.415E-03
 881  9.84371833   0.687  -1.95874   3.52888   6.87407   1.93968   0.00000   1.001E+00   0.000E+00  -1.411E-03
 882  9.84459606   0.687  -1.95870   3.52888   6.87406   1.93961   0.00000   1.001E+00   0.000E+00  -1.408E-03
 883  9.84547201   0.687  -1.95865   3.52888   6.87404   1.93955   0.00000   1.001E+00   0.000E+00  -1.404E-03
 884  9.84634620   0.687  -1.95860   3.52888   6.87402   1.93948   0.00000   1.001E+00   0.000E+00  -1.401E-03
 885  9.84721864   0.687  -1.95856   3.52888   6.87400   1.93941   0.00000   1.001E+00   0.000E+00  -1.397E-03
 886  9.84808932   0.687  -1.95851   3.52889   6.87398   1.93935   0.00000   1.001E+00   0.000E+00  -1.393E-03
 887  9.84895827   0.687  -1.95846   3.52889   6.87396   1.93928   0.00000   1.001E+00   0.000E+00  -1.390E-03
 888  9.84982548   0.687  -1.95842   3.52889   6.87395   1.93921   0.00000   1.001E+00   0.000E+00  -1.386E-03
 889  9.85069096   0.687  -1.95837   3.52889   6.87393   1.93914   0.00000   1.001E+00   0.000E+00  -1.383E-03
 890  9.85155472   0.687  -1.95832   3.52889   6.87391   1.93908   0.00000   1.001E+00   0.000E+00  -1.379E-03
 891  9.85241676   0.687  -1.95828   3.52889   6.87389   1.93901   0.00000   1.001E+00   0.000E+00  -1.376E-03
 892  9.85327710   0.687  -1.95823   3.52889   6.87387   1.93894   0.00000   1.001E+00   0.000E+00  -1.372E-03
 893  9.85413574   0.687  -1.95818   3.52889   6.87385   1.93888   0.00000   1.001E+00   0.000E+00  -1.369E-03
 894  9.85499268   0.687  -1.95814   3.52889   6.87384   1.93881   0.00000   1.001E+00   0.000E+00  -1.365E-03
 895  9.85584793   0.687  -1.95809   3.52889   6.87382   1.93875   0.00000   1.001E+00   0.000E+00  -1.362E-03
 896  9.85670151   0.687  -1.95805   3.52889   6.87380   1.93868   0.00000   1.001E+00   0.000E+00  -1.358E-03
 897  9.85755341   0.687  -1.95800   3.52889   6.87378   1.93862   0.00000   1.001E+00   0.000E+00  -1.355E-03
 898  9.85840364   0.687  -1.95796   3.52889   6.87377   1.93855   0.00000   1.001E+00   0.000E+00  -1.351E-03
 899  9.85925221   0.687  -1.95791   3.52889   6.87375   1.93849   0.00000   1.001E+00   0.000E+00  -1.348E-03
 900  9.86009913   0.687  -1.95787   3.52889   6.87373   1.93842   0.00000   1.001E+00   0.000E+00  -1.344E-03
 901  9.86094439   0.687  -1.95782   3.52889   6.87371   1.93836   0.00000   1.001E+00   0.000E+00  -1.341E-03
 902  9.86178802   0.687  -1.95778   3.52889   6.87370   1.93829   0.00000   1.001E+00   0.000E+00  -1.337E-03
 903  9.86263001   0.687  -1.95773   3.52889   6.87368   1.93823   0.00000   1.001E+00   0.000E+00  -1.333E-03
 904  9.86347037   0.687  -1.95769   3.52889   6.87366   1.93816   0.00000   1.001E+00   0.000E+00  -1.330E-03
 905  9.86430911   0.687  -1.95764   3.52889   6.87364   1.93810   0.00000   1.001E+00   0.000E+00  -1.326E-03
 906  9.86514623   0.687  -1.95760   3.52889   6.87362   1.93803   0.00000   1.001E+00   0.000E+00  -1.323E-03
 907  9.86598174   0.686  -1.95755   3.52889   6.87361   1.93797   0.00000   1.001E+00   0.000E+00  -1.319E-03
 908  9.86681564   0.686  -1.95751   3.52889   6.87359   1.93791   0.00000   1.001E+00   0.000E+00  -1.316E-03
 909  9.86764795   0.686  -1.95746   3.52889   6.87357   1.93784   0.00000   1.001E+00   0.000E+00  -1.312E-03
 910  9.86847867   0.686  -1.95742   3.52889   6.87356   1.93778   0.00000   1.001E+00   0.000E+00  -1.309E-03
 911  9.86930780   0.686  -1.95738   3.52889   6.87354   1.93772   0.00000   1.001E+00   0.000E+00  -1.305E-03
 912  9.87013535   0.686  -1.95733   3.52889   6.87353   1.93765   0.00000   1.001E+00   0.000E+00  -1.302E-03
 913  9.87096132   0.686  -1.95729   3.52889   6.87351   1.93759   0.00000   1.001E+00   0.000E+00  -1.298E-03
 914  9.87178573   0.686  -1.95725   3.52890   6.87349   1.93753   0.00000   1.001E+00   0.000E+00  -1.295E-03
 915  9.87260858   0.686  -1.95720   3.52890   6.87348   1.93747   0.00000   1.001E+00   0.000E+00  -1.291E-03
 916  9.87342987   0.686  -1.95716   3.52890   6.87346   1.93740   0.00000   1.001E+00   0.000E+00  -1.288E-03
 917  9.87424961   0.686  -1.95711   3.52890   6.87344   1.93734   0.00000   1.001E+00   0.000E+00  -1.284E-03
 918  9.87506780   0.686  -1.95707   3.52890   6.87343   1.93728   0.00000   1.001E+00   0.000E+00  -1.281E-03
 919  9.87588446   0.686  -1.95703   3.52890   6.87341   1.93721   0.00000   1.001E+00   0.000E+00  -1.277E-03
 920  9.87669958   0.686  -1.95698   3.52890   6.87340   1.93715   0.00000   1.001E+00   0.000E+00  -1.273E-03
 921  9.87751318   0.686  -1.95694   3.52890   6.87338   1.93709   0.00000   1.001E+00   0.000E+00  -1.270E-03
 922  9.87832526   0.686  -1.95690   3.52890   6.87336   1.93703   0.00000   1.001E+00   0.000E+00  -1.267E-03
 923  9.87913582   0.686  -1.95686   3.52890   6.87335   1.93697   0.00000   1.001E+00   0.000E+00  -1.264E-03
 924  9.87994487   0.686  -1.95681   3.52890   6.87333   1.93691   0.00000   1.001E+00   0.000E+00  -1.261E-03
 925  9.88075241   0.686  -1.95677   3.52890   6.87331   1.93685   0.00000   1.001E+00   0.000E+00  -1.259E-03
 926  9.88155846   0.686  -1.95673   3.52890   6.87330   1.93679   0.00000   1.001E+00   0.000E+00  -1.256E-03
 927  9.88236301   0.686  -1.95669   3.52890   6.87328   1.93673   0.00000   1.001E+00   0.000E+00  -1.253E-03
 928  9.88316608   0.686  -1.95665   3.52890   6.87327   1.93666   0.00000   1.001E+00   0.000E+00  -1.250E-03
 929  9.88396766   0.686  -1.95661   3.52890   6.87325   1.93660   0.00000   1.001E+00   0.000E+00  -1.247E-03
 930  9.88476777   0.686  -1.95656   3.52890   6.87323   1.93654   0.00000   1.001E+00   0.000E+00  -1.245E-03
 931  9.88556640   0.686  -1.95652   3.52890   6.87322   1.93648   0.00000   1.001E+00   0.000E+00  -1.242E-03
 932  9.88636357   0.686  -1.95648   3.52890   6.87320   1.93642   0.00000   1.001E+00   0.000E+00  -1.239E-03
 933  9.88715928   0.686  -1.95644   3.52890   6.87318   1.93636   0.00000   1.001E+00   0.000E+00  -1.236E-03
 934  9.88795354   0.686  -1.95640   3.52890   6.87317   1.93630   0.00000   1.001E+00   0.000E+00  -1.233E-03
 935  9.88874634   0.686  -1.95636   3.52890   6.87315   1.93624   0.00000   1.001E+00   0.000E+00  -1.230E-03
 936  9.88953770   0.686  -1.95632   3.52890   6.87314   1.93618   0.00000   1.001E+00   0.000E+00  -1.228E-03
 937  9.89032762   0.686  -1.95627   3.52890   6.87312   1.93612   0.00000   1.001E+00   0.000E+00  -1.225E-03
 938  9.89111611   0.686  -1.95623   3.52890   6.87311   1.93606   0.00000   1.001E+00   0.000E+00  -1.222E-03
 939  9.89190316   0.686  -1.95619   3.52890   6.87309   1.93600   0.00000   1.001E+00   0.000E+00  -1.219E-03
 940  9.89268880   0.686  -1.95615   3.52890   6.87307   1.93594   0.00000   1.001E+00   0.000E+00  -1.216E-03
 941  9.89347301   0.686  -1.95611   3.52890   6.87306   1.93588   0.00000   1.001E+00   0.000E+00  -1.213E-03
 942  9.89425581   0.686  -1.95607   3.52890   6.87304   1.93582   0.00000   1.001E+00   0.000E+00  -1.211E-03
 943  9.89503720   0.686  -1.95603   3.52891   6.87303   1.93576   0.00000   1.001E+00   0.000E+00  -1.208E-03
 944  9.89581719   0.686  -1.95599   3.52891   6.87301   1.93571   0.00000   1.001E+00   0.000E+00  -1.205E-03
 945  9.89659578   0.686  -1.95595   3.52891   6.87300   1.93565   0.00000   1.001E+00   0.000E+00  -1.202E-03
 946  9.89737298   0.686  -1.95591   3.52891   6.87298   1.93559   0.00000   1.001E+00   0.000E+00  -1.199E-03
 947  9.89814879   0.686  -1.95587   3.52891   6.87297   1.93553   0.00000   1.001E+00   0.000E+00  -1.197E-03
 948  9.89892322   0.686  -1.95582   3.52891   6.87295   1.93547   0.00000   1.001E+00   0.000E+00  -1.194E-03
 949  9.89969626   0.686  -1.95578   3.52891   6.87294   1.93541   0.00000   1.001E+00   0.000E+00  -1.191E-03
 950  9.90046794   0.686  -1.95574   3.52891   6.87292   1.93535   0.00000   1.001E+00   0.000E+00  -1.188E-03
 951  9.90123824   0.686  -1.95570   3.52891   6.87290   1.93530   0.00000   1.001E+00   0.000E+00  -1.185E-03
 952  9.90200718   0.686  -1.95566   3.52891   6.87289   1.93524   0.00000   1.001E+00   0.000E+00  -1.182E-03
 953  9.90277477   0.686  -1.95562   3.52891   6.87287   1.93518   0.00000   1.001E+00   0.000E+00  -1.180E-03
 954  9.90354099   0.686  -1.95559   3.52891   6.87286   1.93513   0.00000   1.001E+00   0.000E+00  -1.177E-03
 955  9.90430587   0.686  -1.95555   3.52891   6.87284   1.93507   0.00000   1.001E+00   0.000E+00  -1.174E-03
 956  9.90506941   0.686  -1.95551   3.52891   6.87283   1.93501   0.00000   1.001E+00   0.000E+00  -1.171E-03
 957  9.90583160   0.686  -1.95547   3.52891   6.87281   1.93496   0.00000   1.001E+00   0.000E+00  -1.168E-03
 958  9.90659246   0.686  -1.95543   3.52891   6.87280   1.93490   0.00000   1.001E+00   0.000E+00  -1.166E-03
 959  9.90735199   0.686  -1.95539   3.52891   6.87278   1.93484   0.00000   1.001E+00   0.000E+00  -1.163E-03
 960  9.90811019   0.686  -1.95535   3.52891   6.87276   1.93479   0.00000   1.001E+00   0.000E+00  -1.160E-03
 961  9.90886707   0.686  -1.95531   3.52891   6.87275   1.93473   0.00000   1.001E+00   0.000E+00  -1.157E-03
 962  9.90962263   0.686  -1.95527   3.52891   6.87273   1.93467   0.00000   1.001E+00   0.000E+00  -1.154E-03
 963  9.91037688   0.686  -1.95523   3.52891   6.87272   1.93462   0.00000   1.001E+00   0.000E+00  -1.151E-03
 964  9.91112983   0.686  -1.95519   3.52891   6.87270   1.93456   0.00000   1.001E+00   0.000E+00  -1.149E-03
 965  9.91188147   0.686  -1.95515   3.52891   6.87269   1.93451   0.00000   1.001E+00   0.000E+00  -1.146E-03
 966  9.91263181   0.686  -1.95511   3.52891   6.87267   1.93445   0.00000   1.001E+00   0.000E+00  -1.143E-03
 967  9.91338086   0.686  -1.95507   3.52891   6.87266   1.93440   0.00000   1.001E+00   0.000E+00  -1.140E-03
 968  9.91412861   0.686  -1.95503   3.52891   6.87265   1.93434   0.00000   1.001E+00   0.000E+00  -1.137E-03
 969  9.91487509   0.686  -1.95500   3.52891   6.87263   1.93429   0.00000   1.001E+00   0.000E+00  -1.134E-03
 970  9.91562028   0.686  -1.95496   3.52891   6.87262   1.93423   0.00000   1.001E+00   0.000E+00  -1.132E-03
 971  9.91636419   0.686  -1.95492   3.52892   6.87260   1.93418   0.00000   1.001E+00   0.000E+00  -1.129E-03
 972  9.91710684   0.686  -1.95488   3.52892   6.87259   1.93412   0.00000   1.001E+00   0.000E+00  -1.126E-03
 973  9.91784821   0.686  -1.95484   3.52892   6.87258   1.93407   0.00000   1.001E+00   0.000E+00  -1.123E-03
 974  9.91858832   0.686  -1.95480   3.52892   6.87256   1.93401   0.00000   1.001E+00   0.000E+00  -1.120E-03
 975  9.91932718   0.686  -1.95476   3.52892   6.87255   1.93396   0.00000   1.001E+00   0.000E+00  -1.118E-03
 976  9.92006478   0.686  -1.95472   3.52892   6.87253   1.93390   0.00000   1.001E+00   0.000E+00  -1.115E-03
 977  9.92080112   0.686  -1.95469   3.52892   6.87252   1.93385   0.00000   1.001E+00   0.000E+00  -1.112E-03
 978  9.92153622   0.686  -1.95465   3.52892   6.87251   1.93379   0.00000   1.001E+00   0.000E+00  -1.109E-03
 979  9.92227008   0.686  -1.95461   3.52892   6.87249   1.93374   0.00000   1.001E+00   0.000E+00  -1.106E-03
 980  9.92300270   0.686  -1.95457   3.52892   6.87248   1.93368   0.00000   1.001E+00   0.000E+00  -1.103E-03
 981  9.92373409   0.686  -1.95454   3.52892   6.87246   1.93363   0.00000   1.001E+00   0.000E+00  -1.101E-03
 982  9.92446425   0.686  -1.95450   3.52892   6.87245   1.93358   0.00000   1.001E+00   0.000E+00  -1.098E-03
 983  9.92519318   0.686  -1.95446   3.52892   6.87243   1.93352   0.00000   1.001E+00   0.000E+00  -1.095E-03
 984  9.92592089   0.686  -1.95442   3.52892   6.87242   1.93347   0.00000   1.001E+00   0.000E+00  -1.092E-03
 985  9.92664739   0.686  -1.95439   3.52892   6.87241   1.93342   0.00000   1.001E+00   0.000E+00  -1.089E-03
 986  9.92737267   0.686  -1.95435   3.52892   6.87239   1.93336   0.00000   1.001E+00   0.000E+00  -1.086E-03
 987  9.92809674   0.686  -1.95431   3.52892   6.87238   1.93331   0.00000   1.001E+00   0.000E+00  -1.084E-03
 988  9.92881960   0.686  -1.95427   3.52892   6.87236   1.93326   0.00000   1.001E+00   0.000E+00  -1.081E-03
 989  9.92954127   0.686  -1.95424   3.52892   6.87235   1.93320   0.00000   1.001E+00   0.000E+00  -1.078E-03
 990  9.93026173   0.686  -1.95420   3.52892   6.87234   1.93315   0.00000   1.001E+00   0.000E+00  -1.075E-03
 991  9.93098101   0.686  -1.95416   3.52892   6.87232   1.93309   0.00000   1.001E+00   0.000E+00  -1.072E-03
 992  9.93169909   0.686  -1.95412   3.52892   6.87231   1.93304   0.00000   1.001E+00   0.000E+00  -1.070E-03
 993  9.93241599   0.686  -1.95409   3.52892   6.87229   1.93299   0.00000   1.001E+00   0.000E+00  -1.068E-03
 994  9.93313171   0.686  -1.95405   3.52892   6.87228   1.93294   0.00000   1.001E+00   0.000E+00  -1.065E-03
 995  9.93384625   0.686  -1.95402   3.52892   6.87227   1.93289   0.00000   1.001E+00   0.000E+00  -1.063E-03
 996  9.93455962   0.686  -1.95398   3.52892   6.87225   1.93283   0.00000   1.001E+00   0.000E+00  -1.061E-03
 997  9.93527181   0.686  -1.95394   3.52892   6.87224   1.93278   0.00000   1.001E+00   0.000E+00  -1.059E-03
 998  9.93598285   0.686  -1.95391   3.52892   6.87223   1.93273   0.00000   1.001E+00   0.000E+00  -1.057E-03
 999  9.93669271   0.686  -1.95387   3.52893   6.87221   1.93268   0.00000   1.001E+00   0.000E+00  -1.055E-03
1000  9.93740142   0.686  -1.95384   3.52893   6.87220   1.93263   0.00000   1.001E+00   0.000E+00  -1.053E-03
1001  9.93810898   0.686  -1.95380   3.52893   6.87219   1.93258   0.00000   1.001E+00   0.000E+00  -1.051E-03
1002  9.93881538   0.686  -1.95376   3.52893   6.87217   1.93253   0.00000   1.001E+00   0.000E+00  -1.048E-03
1003  9.93952064   0.686  -1.95373   3.52893   6.87216   1.93247   0.00000   1.001E+00   0.000E+00  -1.046E-03
1004  9.94022476   0.686  -1.95369   3.52893   6.87215   1.93242   0.00000   1.001E+00   0.000E+00  -1.044E-03
1005  9.94092773   0.686  -1.95366   3.52893   6.87213   1.93237   0.00000   1.001E+00   0.000E+00  -1.042E-03
1006  9.94162957   0.686  -1.95362   3.52893   6.87212   1.93232   0.00000   1.001E+00   0.000E+00  -1.040E-03
1007  9.94233028   0.686  -1.95359   3.52893   6.87211   1.93227   0.00000   1.001E+00   0.000E+00  -1.037E-03
1008  9.94302985   0.686  -1.95355   3.52893   6.87209   1.93222   0.00000   1.001E+00   0.000E+00  -1.034E-03
1009  9.94372831   0.686  -1.95352   3.52893   6.87208   1.93217   0.00000   1.001E+00   0.000E+00  -1.032E-03
1010  9.94442564   0.686  -1.95348   3.52893   6.87207   1.93212   0.00000   1.001E+00   0.000E+00  -1.029E-03
1011  9.94512185   0.686  -1.95345   3.52893   6.87205   1.93207   0.00000   1.001E+00   0.000E+00  -1.026E-03
1012  9.94581695   0.686  -1.95341   3.52893   6.87204   1.93202   0.00000   1.001E+00   0.000E+00  -1.023E-03
1013  9.94651094   0.686  -1.95338   3.52893   6.87203   1.93197   0.00000   1.001E+00   0.000E+00  -1.020E-03
1014  9.94720382   0.686  -1.95334   3.52893   6.87201   1.93192   0.00000   1.001E+00   0.000E+00  -1.017E-03
1015  9.94789559   0.686  -1.95331   3.52893   6.87200   1.93187   0.00000   1.001E+00   0.000E+00  -1.015E-03
1016  9.94858627   0.686  -1.95327   3.52893   6.87199   1.93182   0.00000   1.001E+00   0.000E+00  -1.012E-03
1017  9.94927585   0.686  -1.95324   3.52893   6.87197   1.93177   0.00000   1.001E+00   0.000E+00  -1.009E-03
1018  9.94996434   0.686  -1.95320   3.52893   6.87196   1.93172   0.00000   1.001E+00   0.000E+00  -1.006E-03
1019  9.95065173   0.686  -1.95317   3.52893   6.87195   1.93167   0.00000   1.001E+00   0.000E+00  -1.003E-03
1020  9.95133804   0.686  -1.95314   3.52893   6.87193   1.93162   0.00000   1.001E+00   0.000E+00  -1.000E-03
1021  9.95202327   0.686  -1.95310   3.52893   6.87192   1.93157   0.00000   1.001E+00   0.000E+00  -9.983E-04
1022  9.95270742   0.686  -1.95307   3.52893   6.87191   1.93152   0.00000   1.001E+00   0.000E+00  -9.962E-04
1023  9.95339049   0.686  -1.95303   3.52893   6.87190   1.93147   0.00000   1.001E+00   0.000E+00  -9.942E-04
1024  9.95407249   0.686  -1.95300   3.52893   6.87188   1.93143   0.00000   1.001E+00   0.000E+00  -9.921E-04
1025  9.95475342   0.686  -1.95296   3.52893   6.87187   1.93138   0.00000   1.001E+00   0.000E+00  -9.901E-04
1026  9.95543329   0.686  -1.95293   3.52893   6.87186   1.93133   0.00000   1.001E+00   0.000E+00  -9.880E-04
1027  9.95611209   0.686  -1.95289   3.52893   6.87185   1.93128   0.00000   1.001E+00   0.000E+00  -9.860E-04
1028  9.95678983   0.686  -1.95286   3.52894   6.87184   1.93123   0.00000   1.001E+00   0.000E+00  -9.840E-04
1029  9.95746652   0.686  -1.95282   3.52894   6.87182   1.93119   0.00000   1.001E+00   0.000E+00  -9.819E-04
1030  9.95814215   0.686  -1.95279   3.52894   6.87181   1.93114   0.00000   1.001E+00   0.000E+00  -9.799E-04
1031  9.95881674   0.686  -1.95276   3.52894   6.87180   1.93109   0.00000   1.001E+00   0.000E+00  -9.778E-04
1032  9.95949028   0.686  -1.95272   3.52894   6.87179   1.93104   0.00000   1.001E+00   0.000E+00  -9.758E-04
1033  9.96016277   0.686  -1.95269   3.52894   6.87178   1.93099   0.00000   1.001E+00   0.000E+00  -9.737E-04
1034  9.96083423   0.686  -1.95265   3.52894   6.87176   1.93095   0.00000   1.001E+00   0.000E+00  -9.717E-04
1035  9.96150465   0.685  -1.95262   3.52894   6.87175   1.93090   0.00000   1.001E+00   0.000E+00  -9.696E-04
1036  9.96217403   0.685  -1.95258   3.52894   6.87174   1.93085   0.00000   1.001E+00   0.000E+00  -9.675E-04
1037  9.96284239   0.685  -1.95255   3.52894   6.87173   1.93080   0.00000   1.001E+00   0.000E+00  -9.653E-04
1038  9.96350972   0.685  -1.95252   3.52894   6.87172   1.93076   0.00000   1.001E+00   0.000E+00  -9.632E-04
1039  9.96417602   0.685  -1.95249   3.52894   6.87170   1.93071   0.00000   1.001E+00   0.000E+00  -9.611E-04
1040  9.96484131   0.685  -1.95245   3.52894   6.87169   1.93066   0.00000   1.001E+00   0.000E+00  -9.590E-04
1041  9.96550557   0.685  -1.95242   3.52894   6.87168   1.93061   0.00000   1.001E+00   0.000E+00  -9.569E-04
1042  9.96616882   0.685  -1.95239   3.52894   6.87167   1.93057   0.00000   1.001E+00   0.000E+00  -9.548E-04
1043  9.96683107   0.685  -1.95235   3.52894   6.87166   1.93052   0.00000   1.001E+00   0.000E+00  -9.526E-04
1044  9.96749230   0.685  -1.95232   3.52894   6.87164   1.93047   0.00000   1.001E+00   0.000E+00  -9.505E-04
1045  9.96815252   0.685  -1.95229   3.52894   6.87163   1.93043   0.00000   1.001E+00   0.000E+00  -9.484E-04
1046  9.96881175   0.685  -1.95225   3.52894   6.87162   1.93038   0.00000   1.001E+00   0.000E+00  -9.463E-04
1047  9.96946998   0.685  -1.95222   3.52894   6.87161   1.93033   0.00000   1.001E+00   0.000E+00  -9.442E-04
1048  9.97012721   0.685  -1.95219   3.52894   6.87160   1.93028   0.00000   1.001E+00   0.000E+00  -9.421E-04
1049  9.97078344   0.685  -1.95215   3.52894   6.87158   1.93024   0.00000   1.001E+00   0.000E+00  -9.399E-04
1050  9.97143869   0.685  -1.95212   3.52894   6.87157   1.93019   0.00000   1.001E+00   0.000E+00  -9.378E-04
1051  9.97209295   0.685  -1.95209   3.52894   6.87156   1.93015   0.00000   1.001E+00   0.000E+00  -9.357E-04
1052  9.97274622   0.685  -1.95206   3.52894   6.87155   1.93010   0.00000   1.001E+00   0.000E+00  -9.336E-04
1053  9.97339852   0.685  -1.95203   3.52894   6.87154   1.93005   0.00000   1.001E+00   0.000E+00  -9.315E-04
1054  9.97404983   0.685  -1.95200   3.52894   6.87152   1.93001   0.00000   1.001E+00   0.000E+00  -9.293E-04
1055  9.97470017   0.685  -1.95196   3.52894   6.87151   1.92996   0.00000   1.001E+00   0.000E+00  -9.272E-04
1056  9.97534954   0.685  -1.95193   3.52895   6.87150   1.92992   0.00000   1.001E+00   0.000E+00  -9.251E-04
1057  9.97599794   0.685  -1.95190   3.52895   6.87149   1.92987   0.00000   1.001E+00   0.000E+00  -9.230E-04
1058  9.97664537   0.685  -1.95187   3.52895   6.87148   1.92982   0.00000   1.001E+00   0.000E+00  -9.209E-04
1059  9.97729184   0.685  -1.95184   3.52895   6.87146   1.92978   0.00000   1.001E+00   0.000E+00  -9.188E-04
1060  9.97793735   0.685  -1.95180   3.52895   6.87145   1.92973   0.00000   1.001E+00   0.000E+00  -9.166E-04
1061  9.97858190   0.685  -1.95177   3.52895   6.87144   1.92969   0.00000   1.001E+00   0.000E+00  -9.145E-04
1062  9.97922549   0.685  -1.95174   3.52895   6.87143   1.92964   0.00000   1.001E+00   0.000E+00  -9.124E-04
1063  9.97986813   0.685  -1.95171   3.52895   6.87142   1.92960   0.00000   1.001E+00   0.000E+00  -9.103E-04
1064  9.98050983   0.685  -1.95168   3.52895   6.87140   1.92955   0.00000   1.001E+00   0.000E+00  -9.083E-04
1065  9.98115057   0.685  -1.95165   3.52895   6.87139   1.92951   0.00000   1.001E+00   0.000E+00  -9.062E-04
1066  9.98179037   0.685  -1.95162   3.52895   6.87138   1.92946   0.00000   1.001E+00   0.000E+00  -9.042E-04
1067  9.98242923   0.685  -1.95159   3.52895   6.87137   1.92942   0.00000   1.001E+00   0.000E+00  -9.021E-04
1068  9.98306716   0.685  -1.95155   3.52895   6.87136   1.92938   0.00000   1.001E+00   0.000E+00  -9.001E-04
1069  9.98370414   0.685  -1.95152   3.52895   6.87135   1.92933   0.00000   1.001E+00   0.000E+00  -8.980E-04
1070  9.98434020   0.685  -1.95149   3.52895   6.87134   1.92929   0.00000   1.001E+00   0.000E+00  -8.960E-04
1071  9.98497532   0.685  -1.95146   3.52895   6.87133   1.92925   0.00000   1.001E+00   0.000E+00  -8.939E-04
1072  9.98560951   0.685  -1.95143   3.52895   6.87131   1.92920   0.00000   1.001E+00   0.000E+00  -8.919E-04
1073  9.98624279   0.685  -1.95140   3.52895   6.87130   1.92916   0.00000   1.001E+00   0.000E+00  -8.898E-04
1074  9.98687513   0.685  -1.95137   3.52895   6.87129   1.92911   0.00000   1.001E+00   0.000E+00  -8.878E-04
1075  9.98750656   0.685  -1.95134   3.52895   6.87128   1.92907   0.00000   1.001E+00   0.000E+00  -8.858E-04
1076  9.98813708   0.685  -1.95131   3.52895   6.87127   1.92903   0.00000   1.001E+00   0.000E+00  -8.837E-04
1077  9.98876668   0.685  -1.95127   3.52895   6.87126   1.92898   0.00000   1.001E+00   0.000E+00  -8.829E-04
1078  9.98939536   0.685  -1.95124   3.52895   6.87125   1.92893   0.00000   1.001E+00   0.000E+00  -8.885E-04
1079  9.99002314   0.685  -1.95121   3.52895   6.87123   1.92888   0.00000   1.001E+00   0.000E+00  -8.941E-04
1080  9.99065001   0.685  -1.95117   3.52895   6.87122   1.92884   0.00000   1.001E+00   0.000E+00  -8.997E-04
1081  9.99127598   0.685  -1.95114   3.52895   6.87121   1.92879   0.00000   1.001E+00   0.000E+00  -9.052E-04
1082  9.99190105   0.685  -1.95110   3.52895   6.87119   1.92874   0.00000   1.001E+00   0.000E+00  -9.108E-04
1083  9.99252522   0.685  -1.95107   3.52895   6.87118   1.92869   0.00000   1.001E+00   0.000E+00  -9.164E-04
1084  9.99314850   0.685  -1.95104   3.52896   6.87117   1.92864   0.00000   1.001E+00   0.000E+00  -9.220E-04
1085  9.99377088   0.685  -1.95100   3.52896   6.87116   1.92859   0.00000   1.001E+00   0.000E+00  -9.275E-04
1086  9.99439237   0.685  -1.95097   3.52896   6.87114   1.92854   0.00000   1.001E+00   0.000E+00  -9.331E-04
1087  9.99501297   0.685  -1.95094   3.52896   6.87113   1.92849   0.00000   1.001E+00   0.000E+00  -9.387E-04
1088  9.99563268   0.685  -1.95090   3.52896   6.87112   1.92845   0.00000   1.001E+00   0.000E+00  -9.443E-04
1089  9.99625152   0.685  -1.95087   3.52896   6.87111   1.92840   0.00000   1.001E+00   0.000E+00  -9.498E-04
1090  9.99686947   0.685  -1.95083   3.52896   6.87109   1.92835   0.00000   1.001E+00   0.000E+00  -9.554E-04
1091  9.99748655   0.685  -1.95080   3.52896   6.87108   1.92830   0.00000   1.001E+00   0.000E+00  -9.610E-04
