 # M = 0.80 Mo, Y = 0.2700, Z = 2.00000E-02, alpha = 1.68, X_D = 4.0E-05
 # Solar Mixture: Asplund et al. (2005)         
 # ------------------------------------------------------------------------------------------------------------
 # NMD   LOG AGE    Xc      LOG L     LOG TE    LOG Tc   LOG RHOc    M-CC       L-PP       L-CNO       L-GRA
 #        (yr)              (Lo)        (K)       (K)   (gr/cm^3)    (Mo)        (L)         (L)         (L)
 # ------------------------------------------------------------------------------------------------------------
   1  4.99183377   0.710   0.85039   3.62050   6.09801  -1.24724   0.00000   9.280E-01   0.000E+00   7.190E-02
   2  5.11309731   0.710   0.84322   3.62068   6.10181  -1.23583   0.00000   9.306E-01   0.000E+00   6.909E-02
   3  5.20778719   0.710   0.83659   3.62084   6.10533  -1.22526   0.00000   9.339E-01   0.000E+00   6.581E-02
   4  5.28548201   0.710   0.83054   3.62098   6.10854  -1.21564   0.00000   9.378E-01   0.000E+00   6.201E-02
   5  5.35136395   0.710   0.82466   3.62112   6.11165  -1.20627   0.00000   9.414E-01   0.000E+00   5.853E-02
   6  5.40855554   0.710   0.81954   3.62125   6.11438  -1.19808   0.00000   9.436E-01   0.000E+00   5.647E-02
   7  5.45908454   0.710   0.81441   3.62137   6.11711  -1.18988   0.00000   9.458E-01   0.000E+00   5.441E-02
   8  5.50434257   0.710   0.80928   3.62150   6.11984  -1.18169   0.00000   9.479E-01   0.000E+00   5.235E-02
   9  5.54532618   0.710   0.80434   3.62161   6.12244  -1.17386   0.00000   9.477E-01   0.000E+00   5.240E-02
  10  5.58277354   0.710   0.79942   3.62172   6.12505  -1.16605   0.00000   9.475E-01   0.000E+00   5.251E-02
  11  5.61724674   0.710   0.79449   3.62183   6.12765  -1.15823   0.00000   9.472E-01   0.000E+00   5.262E-02
  12  5.64918363   0.710   0.78950   3.62195   6.13028  -1.15033   0.00000   9.466E-01   0.000E+00   5.306E-02
  13  5.67893199   0.710   0.78435   3.62207   6.13301  -1.14215   0.00000   9.451E-01   0.000E+00   5.457E-02
  14  5.70677261   0.710   0.77920   3.62218   6.13573  -1.13396   0.00000   9.436E-01   0.000E+00   5.608E-02
  15  5.73293552   0.710   0.77405   3.62230   6.13845  -1.12578   0.00000   9.420E-01   0.000E+00   5.759E-02
  16  5.75761146   0.710   0.76868   3.62242   6.14129  -1.11726   0.00000   9.400E-01   0.000E+00   5.967E-02
  17  5.78096042   0.710   0.76287   3.62255   6.14435  -1.10806   0.00000   9.371E-01   0.000E+00   6.287E-02
  18  5.80311785   0.710   0.75706   3.62267   6.14741  -1.09887   0.00000   9.341E-01   0.000E+00   6.607E-02
  19  5.82419949   0.710   0.75126   3.62280   6.15047  -1.08967   0.00000   9.311E-01   0.000E+00   6.927E-02
  20  5.84430498   0.710   0.74477   3.62294   6.15388  -1.07943   0.00000   9.263E-01   0.000E+00   7.414E-02
  21  5.86352073   0.710   0.73787   3.62308   6.15751  -1.06852   0.00000   9.202E-01   0.000E+00   8.005E-02
  22  5.88192217   0.710   0.73097   3.62322   6.16114  -1.05762   0.00000   9.141E-01   0.000E+00   8.596E-02
  23  5.89957551   0.710   0.72354   3.62337   6.16503  -1.04592   0.00000   9.066E-01   0.000E+00   9.342E-02
  24  5.91653922   0.710   0.71499   3.62353   6.16950  -1.03251   0.00000   8.958E-01   0.000E+00   1.042E-01
  25  5.93286515   0.710   0.70643   3.62369   6.17397  -1.01910   0.00000   8.850E-01   0.000E+00   1.150E-01
  26  5.94859952   0.710   0.69668   3.62386   6.17905  -1.00383   0.00000   8.697E-01   0.000E+00   1.303E-01
  27  5.96378373   0.710   0.68592   3.62405   6.18465  -0.98699   0.00000   8.506E-01   0.000E+00   1.494E-01
  28  5.97845493   0.710   0.67434   3.62425   6.19067  -0.96891   0.00000   8.274E-01   0.000E+00   1.726E-01
  29  5.99264666   0.710   0.66075   3.62448   6.19771  -0.94775   0.00000   7.939E-01   0.000E+00   2.061E-01
  30  6.00638929   0.710   0.64551   3.62471   6.20559  -0.92412   0.00000   7.501E-01   0.000E+00   2.499E-01
  31  6.01971035   0.710   0.62835   3.62495   6.21442  -0.89761   0.00000   6.939E-01   0.000E+00   3.061E-01
  32  6.03263495   0.710   0.60790   3.62521   6.22488  -0.86620   0.00000   6.136E-01   0.000E+00   3.864E-01
  33  6.04518600   0.710   0.58440   3.62546   6.23682  -0.83034   0.00000   5.104E-01   0.000E+00   4.896E-01
  34  6.05738449   0.710   0.55772   3.62569   6.25032  -0.78987   0.00000   3.878E-01   0.000E+00   6.122E-01
  35  6.06924969   0.710   0.52851   3.62588   6.26500  -0.74585   0.00000   2.615E-01   0.000E+00   7.385E-01
  36  6.08079933   0.710   0.49810   3.62601   6.28012  -0.70049   0.00000   1.530E-01   0.000E+00   8.470E-01
  37  6.09204975   0.710   0.46798   3.62605   6.29502  -0.65589   0.00000   8.007E-02   0.000E+00   9.199E-01
  38  6.10301608   0.710   0.43896   3.62602   6.30918  -0.61341   0.00000   3.693E-02   0.000E+00   9.631E-01
  39  6.11371231   0.710   0.41200   3.62593   6.32223  -0.57426   0.00000   1.822E-02   0.000E+00   9.818E-01
  40  6.12415141   0.710   0.38670   3.62578   6.33435  -0.53791   0.00000   8.493E-03   0.000E+00   9.915E-01
  41  6.13434547   0.710   0.36307   3.62559   6.34556  -0.50426   0.00000   4.000E-03   0.000E+00   9.960E-01
  42  6.16124963   0.710   0.30561   3.62490   6.37235  -0.42377   0.00000   0.000E+00   0.000E+00   1.000E+00
  43  6.18658389   0.710   0.25659   3.62404   6.39468  -0.35671   0.00000   0.000E+00   0.000E+00   1.000E+00
  44  6.21052139   0.710   0.21379   3.62313   6.41390  -0.29900   0.00000   0.000E+00   0.000E+00   1.000E+00
  45  6.23320814   0.710   0.17601   3.62222   6.43065  -0.24868   0.00000   0.000E+00   0.000E+00   1.000E+00
  46  6.25476839   0.710   0.14225   3.62133   6.44548  -0.20413   0.00000   0.000E+00   0.000E+00   1.000E+00
  47  6.27530872   0.710   0.11159   3.62046   6.45882  -0.16404   0.00000   0.000E+00   0.000E+00   1.000E+00
  48  6.29492129   0.710   0.08364   3.61964   6.47094  -0.12763   0.00000   0.000E+00   0.000E+00   1.000E+00
  49  6.31368630   0.710   0.05799   3.61887   6.48202  -0.09432   0.00000   0.000E+00   0.000E+00   1.000E+00
  50  6.33167399   0.710   0.03431   3.61813   6.49220  -0.06373   0.00000   0.000E+00   0.000E+00   1.000E+00
  51  6.34894619   0.710   0.01229   3.61743   6.50167  -0.03528   0.00000   0.000E+00   0.000E+00   1.000E+00
  52  6.36555767   0.710  -0.00832   3.61677   6.51050  -0.00874   0.00000   0.000E+00   0.000E+00   1.000E+00
  53  6.38155710   0.710  -0.02763   3.61614   6.51876   0.01608   0.00000   0.000E+00   0.000E+00   1.000E+00
  54  6.39698799   0.710  -0.04582   3.61554   6.52652   0.03939   0.00000   0.000E+00   0.000E+00   1.000E+00
  55  6.41188937   0.710  -0.06295   3.61497   6.53383   0.06138   0.00000   0.000E+00   0.000E+00   1.000E+00
  56  6.42629638   0.710  -0.07920   3.61443   6.54076   0.08220   0.00000   0.000E+00   0.000E+00   1.000E+00
  57  6.44024076   0.710  -0.09470   3.61390   6.54735   0.10201   0.00000   0.000E+00   0.000E+00   1.000E+00
  58  6.45375130   0.710  -0.10946   3.61341   6.55365   0.12094   0.00000   0.000E+00   0.000E+00   1.000E+00
  59  6.46685420   0.710  -0.12346   3.61293   6.55959   0.13881   0.00000   0.000E+00   0.000E+00   1.000E+00
  60  6.47957332   0.710  -0.13684   3.61247   6.56527   0.15590   0.00000   0.000E+00   0.000E+00   1.000E+00
  61  6.49193052   0.710  -0.14975   3.61203   6.57076   0.17239   0.00000   0.000E+00   0.000E+00   1.000E+00
  62  6.50394581   0.710  -0.16212   3.61161   6.57601   0.18818   0.00000   0.000E+00   0.000E+00   1.000E+00
  63  6.51563762   0.710  -0.17392   3.61120   6.58101   0.20322   0.00000   0.000E+00   0.000E+00   1.000E+00
  64  6.52702290   0.710  -0.18544   3.61080   6.58590   0.21791   0.00000   0.000E+00   0.000E+00   1.000E+00
  65  6.53811732   0.710  -0.19639   3.61042   6.59054   0.23186   0.00000   0.000E+00   0.000E+00   1.000E+00
  66  6.54893537   0.710  -0.20705   3.61004   6.59506   0.24543   0.00000   0.000E+00   0.000E+00   1.000E+00
  67  6.55949048   0.710  -0.21732   3.60969   6.59941   0.25854   0.00000   0.000E+00   0.000E+00   1.000E+00
  68  6.56979514   0.710  -0.22724   3.60934   6.60359   0.27119   0.00000   0.000E+00   0.000E+00   1.000E+00
  69  6.57986095   0.710  -0.23693   3.60899   6.60764   0.28356   0.00000   0.000E+00   0.000E+00   1.000E+00
  70  6.58969873   0.710  -0.24622   3.60867   6.61146   0.29552   0.00000   0.000E+00   0.000E+00   1.000E+00
  71  6.59931860   0.710  -0.25532   3.60835   6.61517   0.30728   0.00000   0.000E+00   0.000E+00   1.000E+00
  72  6.60872999   0.710  -0.26408   3.60804   6.61869   0.31868   0.00000   0.000E+00   0.000E+00   1.000E+00
  73  6.61794174   0.710  -0.27264   3.60774   6.62209   0.32984   0.00000   0.000E+00   0.000E+00   1.000E+00
  74  6.62696216   0.710  -0.28098   3.60745   6.62537   0.34078   0.00000   0.000E+00   0.000E+00   1.000E+00
  75  6.63579903   0.710  -0.28902   3.60716   6.62849   0.35139   0.00000   0.000E+00   0.000E+00   1.000E+00
  76  6.64445967   0.710  -0.29702   3.60688   6.63160   0.36197   0.00000   0.000E+00   0.000E+00   1.000E+00
  77  6.65295097   0.710  -0.30457   3.60662   6.63446   0.37206   0.00000   0.000E+00   0.000E+00   1.000E+00
  78  6.66127943   0.710  -0.31211   3.60635   6.63733   0.38214   0.00000   0.000E+00   0.000E+00   1.000E+00
  79  6.66945117   0.710  -0.31939   3.60609   6.64006   0.39195   0.00000   0.000E+00   0.000E+00   1.000E+00
  80  6.67747199   0.710  -0.32647   3.60584   6.64269   0.40154   0.00000   0.000E+00   0.000E+00   1.000E+00
  81  6.68534736   0.710  -0.33355   3.60559   6.64532   0.41113   0.00000   0.000E+00   0.000E+00   1.000E+00
  82  6.69308246   0.710  -0.34022   3.60536   6.64777   0.42029   0.00000   0.000E+00   0.000E+00   1.000E+00
  83  6.70068220   0.710  -0.34686   3.60513   6.65019   0.42941   0.00000   0.000E+00   0.000E+00   1.000E+00
  84  6.70815123   0.710  -0.35345   3.60490   6.65260   0.43849   0.00000   0.000E+00   0.000E+00   1.000E+00
  85  6.71549398   0.710  -0.35966   3.60468   6.65483   0.44718   0.00000   0.000E+00   0.000E+00   1.000E+00
  86  6.72271464   0.710  -0.36588   3.60446   6.65707   0.45586   0.00000   0.000E+00   0.000E+00   1.000E+00
  87  6.72981722   0.710  -0.37206   3.60424   6.65929   0.46452   0.00000   0.000E+00   0.000E+00   1.000E+00
  88  6.73680550   0.710  -0.37788   3.60404   6.66135   0.47278   0.00000   0.000E+00   0.000E+00   1.000E+00
  89  6.74368311   0.710  -0.38370   3.60384   6.66341   0.48105   0.00000   0.000E+00   0.000E+00   1.000E+00
  90  6.75045350   0.710  -0.38952   3.60365   6.66547   0.48932   0.00000   0.000E+00   0.000E+00   1.000E+00
  91  6.75711996   0.710  -0.39500   3.60346   6.66740   0.49725   0.00000   0.000E+00   0.000E+00   1.000E+00
  92  6.76368564   0.710  -0.40043   3.60327   6.66930   0.50512   0.00000   0.000E+00   0.000E+00   1.000E+00
  93  6.77015354   0.710  -0.40585   3.60309   6.67121   0.51300   0.00000   0.000E+00   0.000E+00   1.000E+00
  94  6.77652652   0.710  -0.41113   3.60291   6.67305   0.52071   0.00000   0.000E+00   0.000E+00   1.000E+00
  95  6.78280733   0.710  -0.41620   3.60274   6.67482   0.52820   0.00000   0.000E+00   0.000E+00   1.000E+00
  96  6.78899860   0.710  -0.42127   3.60257   6.67658   0.53570   0.00000   0.000E+00   0.000E+00   1.000E+00
  97  6.79510285   0.710  -0.42634   3.60240   6.67835   0.54319   0.00000   0.000E+00   0.000E+00   1.000E+00
  98  6.80112248   0.710  -0.43114   3.60224   6.68002   0.55042   0.00000   0.000E+00   0.000E+00   1.000E+00
  99  6.80705982   0.710  -0.43586   3.60209   6.68166   0.55755   0.00000   0.000E+00   0.000E+00   1.000E+00
 100  6.81291709   0.710  -0.44058   3.60193   6.68330   0.56469   0.00000   0.000E+00   0.000E+00   1.000E+00
 101  6.81869641   0.710  -0.44530   3.60178   6.68494   0.57183   0.00000   0.000E+00   0.000E+00   1.000E+00
 102  6.82439982   0.710  -0.44975   3.60164   6.68649   0.57869   0.00000   0.000E+00   0.000E+00   1.000E+00
 103  6.83002931   0.710  -0.45414   3.60150   6.68801   0.58548   0.00000   0.000E+00   0.000E+00   1.000E+00
 104  6.83558676   0.710  -0.45853   3.60137   6.68953   0.59228   0.00000   0.000E+00   0.000E+00   1.000E+00
 105  6.84107399   0.710  -0.46292   3.60123   6.69106   0.59908   0.00000   0.000E+00   0.000E+00   1.000E+00
 106  6.84649276   0.710  -0.46712   3.60110   6.69252   0.60569   0.00000   0.000E+00   0.000E+00   1.000E+00
 107  6.85184474   0.710  -0.47118   3.60098   6.69394   0.61216   0.00000   0.000E+00   0.000E+00   1.000E+00
 108  6.85713158   0.710  -0.47524   3.60085   6.69535   0.61863   0.00000   0.000E+00   0.000E+00   1.000E+00
 109  6.86235482   0.710  -0.47931   3.60073   6.69677   0.62510   0.00000   0.000E+00   0.000E+00   1.000E+00
 110  6.86751600   0.710  -0.48337   3.60061   6.69819   0.63156   0.00000   0.000E+00   0.000E+00   1.000E+00
 111  6.87261656   0.710  -0.48713   3.60050   6.69951   0.63773   0.00000   0.000E+00   0.000E+00   1.000E+00
 112  6.87765791   0.710  -0.49090   3.60039   6.70083   0.64389   0.00000   0.000E+00   0.000E+00   1.000E+00
 113  6.88264141   0.710  -0.49467   3.60029   6.70216   0.65005   0.00000   0.000E+00   0.000E+00   1.000E+00
 114  6.88756837   0.710  -0.49843   3.60018   6.70348   0.65621   0.00000   0.000E+00   0.000E+00   1.000E+00
 115  6.89244006   0.710  -0.50218   3.60007   6.70479   0.66235   0.00000   0.000E+00   0.000E+00   1.000E+00
 116  6.89725771   0.710  -0.50565   3.59998   6.70601   0.66819   0.00000   0.000E+00   0.000E+00   1.000E+00
 117  6.90202251   0.710  -0.50913   3.59988   6.70723   0.67403   0.00000   0.000E+00   0.000E+00   1.000E+00
 118  6.90673559   0.710  -0.51261   3.59979   6.70845   0.67988   0.00000   0.000E+00   0.000E+00   1.000E+00
 119  6.91139808   0.710  -0.51609   3.59970   6.70968   0.68572   0.00000   0.000E+00   0.000E+00   1.000E+00
 120  6.91601104   0.710  -0.51957   3.59960   6.71090   0.69157   0.00000   0.000E+00   0.000E+00   1.000E+00
 121  6.92057552   0.710  -0.52282   3.59952   6.71206   0.69721   0.00000   1.348E-04   0.000E+00   9.999E-01
 122  6.92509252   0.710  -0.52602   3.59944   6.71322   0.70280   0.00000   3.088E-04   0.000E+00   9.997E-01
 123  6.92956303   0.710  -0.52921   3.59937   6.71437   0.70838   0.00000   4.827E-04   0.000E+00   9.995E-01
 124  6.93398799   0.710  -0.53240   3.59929   6.71552   0.71397   0.00000   6.566E-04   0.000E+00   9.993E-01
 125  6.93836832   0.710  -0.53559   3.59921   6.71668   0.71956   0.00000   8.306E-04   0.000E+00   9.992E-01
 126  6.94270490   0.710  -0.53878   3.59914   6.71783   0.72514   0.00000   1.000E-03   0.000E+00   9.990E-01
 127  6.94699861   0.710  -0.54170   3.59908   6.71890   0.73045   0.00000   1.000E-03   0.000E+00   9.990E-01
 128  6.95125029   0.710  -0.54462   3.59901   6.71998   0.73576   0.00000   1.000E-03   0.000E+00   9.990E-01
 129  6.95546075   0.710  -0.54754   3.59895   6.72106   0.74107   0.00000   1.000E-03   0.000E+00   9.990E-01
 130  6.95963078   0.710  -0.55046   3.59888   6.72214   0.74637   0.00000   1.000E-03   0.000E+00   9.990E-01
 131  6.96376115   0.710  -0.55338   3.59882   6.72321   0.75168   0.00000   1.000E-03   0.000E+00   9.990E-01
 132  6.96785260   0.710  -0.55631   3.59876   6.72429   0.75699   0.00000   1.000E-03   0.000E+00   9.990E-01
 133  6.97190588   0.710  -0.55901   3.59871   6.72531   0.76208   0.00000   1.000E-03   0.000E+00   9.990E-01
 134  6.97592167   0.710  -0.56168   3.59866   6.72632   0.76714   0.00000   1.000E-03   0.000E+00   9.990E-01
 135  6.97990067   0.710  -0.56434   3.59861   6.72733   0.77220   0.00000   1.000E-03   0.000E+00   9.990E-01
 136  6.98384354   0.710  -0.56701   3.59857   6.72835   0.77726   0.00000   1.000E-03   0.000E+00   9.990E-01
 137  6.98775094   0.710  -0.56968   3.59852   6.72936   0.78231   0.00000   1.000E-03   0.000E+00   9.990E-01
 138  6.99162350   0.710  -0.57235   3.59847   6.73037   0.78737   0.00000   1.000E-03   0.000E+00   9.990E-01
 139  6.99546183   0.710  -0.57493   3.59843   6.73136   0.79234   0.00000   1.000E-03   0.000E+00   9.990E-01
 140  6.99926653   0.710  -0.57736   3.59839   6.73232   0.79716   0.00000   1.000E-03   0.000E+00   9.990E-01
 141  7.00303819   0.710  -0.57979   3.59836   6.73327   0.80197   0.00000   1.000E-03   0.000E+00   9.990E-01
 142  7.00677738   0.710  -0.58222   3.59832   6.73423   0.80679   0.00000   1.000E-03   0.000E+00   9.990E-01
 143  7.01048465   0.710  -0.58465   3.59829   6.73518   0.81161   0.00000   1.000E-03   0.000E+00   9.990E-01
 144  7.01416054   0.710  -0.58708   3.59825   6.73614   0.81643   0.00000   1.000E-03   0.000E+00   9.990E-01
 145  7.01780558   0.710  -0.58951   3.59822   6.73710   0.82124   0.00000   1.000E-03   0.000E+00   9.990E-01
 146  7.02142028   0.710  -0.59182   3.59819   6.73802   0.82594   0.00000   1.000E-03   0.000E+00   9.990E-01
 147  7.02500514   0.710  -0.59403   3.59817   6.73893   0.83054   0.00000   1.000E-03   0.000E+00   9.990E-01
 148  7.02856066   0.710  -0.59624   3.59815   6.73983   0.83514   0.00000   1.000E-03   0.000E+00   9.990E-01
 149  7.03208730   0.710  -0.59844   3.59813   6.74074   0.83975   0.00000   1.000E-03   0.000E+00   9.990E-01
 150  7.03558553   0.710  -0.60065   3.59811   6.74164   0.84435   0.00000   1.000E-03   0.000E+00   9.990E-01
 151  7.03905581   0.710  -0.60286   3.59808   6.74254   0.84895   0.00000   1.000E-03   0.000E+00   9.990E-01
 152  7.04249858   0.710  -0.60507   3.59806   6.74345   0.85355   0.00000   1.000E-03   0.000E+00   9.990E-01
 153  7.04591428   0.710  -0.60721   3.59805   6.74434   0.85807   0.00000   1.049E-03   0.000E+00   9.990E-01
 154  7.04930332   0.710  -0.60921   3.59804   6.74519   0.86247   0.00000   1.182E-03   0.000E+00   9.988E-01
 155  7.05266611   0.710  -0.61121   3.59802   6.74605   0.86686   0.00000   1.315E-03   0.000E+00   9.987E-01
 156  7.05600307   0.710  -0.61322   3.59801   6.74691   0.87126   0.00000   1.447E-03   0.000E+00   9.986E-01
 157  7.05931459   0.710  -0.61522   3.59800   6.74777   0.87565   0.00000   1.580E-03   0.000E+00   9.984E-01
 158  7.06260104   0.710  -0.61722   3.59799   6.74863   0.88005   0.00000   1.713E-03   0.000E+00   9.983E-01
 159  7.06586281   0.710  -0.61923   3.59798   6.74948   0.88444   0.00000   1.846E-03   0.000E+00   9.982E-01
 160  7.06910027   0.710  -0.62123   3.59797   6.75034   0.88884   0.00000   1.979E-03   0.000E+00   9.980E-01
 161  7.07231377   0.710  -0.62307   3.59797   6.75117   0.89307   0.00000   2.000E-03   0.000E+00   9.980E-01
 162  7.07550367   0.710  -0.62489   3.59797   6.75198   0.89728   0.00000   2.000E-03   0.000E+00   9.980E-01
 163  7.07867031   0.710  -0.62670   3.59798   6.75280   0.90148   0.00000   2.000E-03   0.000E+00   9.980E-01
 164  7.08181402   0.710  -0.62851   3.59798   6.75362   0.90569   0.00000   2.000E-03   0.000E+00   9.980E-01
 165  7.08493515   0.710  -0.63033   3.59798   6.75444   0.90990   0.00000   2.000E-03   0.000E+00   9.980E-01
 166  7.08803400   0.710  -0.63214   3.59798   6.75526   0.91410   0.00000   2.000E-03   0.000E+00   9.980E-01
 167  7.09111090   0.710  -0.63395   3.59799   6.75607   0.91831   0.00000   2.000E-03   0.000E+00   9.980E-01
 168  7.09416615   0.710  -0.63576   3.59799   6.75689   0.92251   0.00000   2.000E-03   0.000E+00   9.980E-01
 169  7.09720006   0.710  -0.63740   3.59800   6.75768   0.92655   0.00000   2.116E-03   0.000E+00   9.979E-01
 170  7.10021292   0.710  -0.63903   3.59802   6.75846   0.93058   0.00000   2.237E-03   0.000E+00   9.978E-01
 171  7.10320502   0.710  -0.64066   3.59803   6.75924   0.93461   0.00000   2.358E-03   0.000E+00   9.976E-01
 172  7.10617665   0.710  -0.64229   3.59804   6.76003   0.93864   0.00000   2.479E-03   0.000E+00   9.975E-01
 173  7.10912809   0.710  -0.64392   3.59806   6.76081   0.94267   0.00000   2.601E-03   0.000E+00   9.974E-01
 174  7.11205960   0.710  -0.64555   3.59807   6.76159   0.94670   0.00000   2.722E-03   0.000E+00   9.973E-01
 175  7.11497146   0.710  -0.64718   3.59808   6.76238   0.95073   0.00000   2.843E-03   0.000E+00   9.972E-01
 176  7.11786392   0.710  -0.64881   3.59810   6.76316   0.95476   0.00000   2.964E-03   0.000E+00   9.970E-01
 177  7.12073725   0.710  -0.65032   3.59812   6.76392   0.95867   0.00000   3.000E-03   0.000E+00   9.970E-01
 178  7.12359169   0.710  -0.65179   3.59814   6.76467   0.96254   0.00000   3.000E-03   0.000E+00   9.970E-01
 179  7.12642750   0.710  -0.65325   3.59817   6.76543   0.96641   0.00000   3.000E-03   0.000E+00   9.970E-01
 180  7.12924490   0.710  -0.65471   3.59819   6.76618   0.97028   0.00000   3.000E-03   0.000E+00   9.970E-01
 181  7.13204415   0.710  -0.65617   3.59821   6.76693   0.97414   0.00000   3.000E-03   0.000E+00   9.970E-01
 182  7.13482547   0.710  -0.65764   3.59824   6.76768   0.97801   0.00000   3.000E-03   0.000E+00   9.970E-01
 183  7.13758909   0.710  -0.65910   3.59826   6.76843   0.98188   0.00000   3.000E-03   0.000E+00   9.970E-01
 184  7.14033524   0.710  -0.66056   3.59829   6.76919   0.98574   0.00000   3.000E-03   0.000E+00   9.970E-01
 185  7.14306413   0.710  -0.66201   3.59831   6.76994   0.98960   0.00000   3.012E-03   0.000E+00   9.970E-01
 186  7.14577598   0.710  -0.66331   3.59835   6.77066   0.99331   0.00000   3.123E-03   0.000E+00   9.969E-01
 187  7.14847100   0.710  -0.66461   3.59839   6.77138   0.99703   0.00000   3.235E-03   0.000E+00   9.968E-01
 188  7.15114940   0.710  -0.66591   3.59842   6.77211   1.00075   0.00000   3.346E-03   0.000E+00   9.967E-01
 189  7.15381138   0.710  -0.66721   3.59846   6.77283   1.00447   0.00000   3.458E-03   0.000E+00   9.965E-01
 190  7.15645715   0.710  -0.66851   3.59849   6.77356   1.00818   0.00000   3.569E-03   0.000E+00   9.964E-01
 191  7.15908690   0.710  -0.66982   3.59853   6.77428   1.01190   0.00000   3.681E-03   0.000E+00   9.963E-01
 192  7.16170082   0.710  -0.67112   3.59856   6.77500   1.01562   0.00000   3.793E-03   0.000E+00   9.962E-01
 193  7.16429909   0.710  -0.67242   3.59860   6.77573   1.01933   0.00000   3.904E-03   0.000E+00   9.961E-01
 194  7.16688192   0.710  -0.67370   3.59864   6.77645   1.02303   0.00000   4.015E-03   0.000E+00   9.960E-01
 195  7.16944948   0.710  -0.67486   3.59868   6.77715   1.02661   0.00000   4.122E-03   0.000E+00   9.959E-01
 196  7.17200195   0.710  -0.67601   3.59873   6.77784   1.03019   0.00000   4.230E-03   0.000E+00   9.958E-01
 197  7.17453950   0.710  -0.67717   3.59877   6.77854   1.03377   0.00000   4.337E-03   0.000E+00   9.957E-01
 198  7.17706231   0.710  -0.67832   3.59882   6.77924   1.03734   0.00000   4.444E-03   0.000E+00   9.956E-01
 199  7.17957055   0.710  -0.67947   3.59886   6.77994   1.04092   0.00000   4.551E-03   0.000E+00   9.954E-01
 200  7.18206439   0.710  -0.68063   3.59891   6.78064   1.04450   0.00000   4.659E-03   0.000E+00   9.953E-01
 201  7.18454399   0.710  -0.68178   3.59895   6.78134   1.04808   0.00000   4.766E-03   0.000E+00   9.952E-01
 202  7.18700952   0.710  -0.68294   3.59900   6.78204   1.05166   0.00000   4.873E-03   0.000E+00   9.951E-01
 203  7.18946112   0.710  -0.68409   3.59904   6.78273   1.05523   0.00000   4.981E-03   0.000E+00   9.950E-01
 204  7.19189897   0.710  -0.68513   3.59910   6.78342   1.05871   0.00000   5.085E-03   0.000E+00   9.949E-01
 205  7.19432320   0.710  -0.68614   3.59915   6.78409   1.06216   0.00000   5.188E-03   0.000E+00   9.948E-01
 206  7.19673398   0.710  -0.68715   3.59921   6.78477   1.06560   0.00000   5.291E-03   0.000E+00   9.947E-01
 207  7.19913145   0.710  -0.68816   3.59926   6.78545   1.06905   0.00000   5.395E-03   0.000E+00   9.946E-01
 208  7.20151576   0.710  -0.68917   3.59932   6.78613   1.07250   0.00000   5.498E-03   0.000E+00   9.945E-01
 209  7.20388705   0.710  -0.69018   3.59937   6.78681   1.07595   0.00000   5.602E-03   0.000E+00   9.944E-01
 210  7.20624546   0.710  -0.69119   3.59943   6.78748   1.07940   0.00000   5.705E-03   0.000E+00   9.943E-01
 211  7.20859113   0.710  -0.69220   3.59949   6.78816   1.08285   0.00000   5.808E-03   0.000E+00   9.942E-01
 212  7.21092421   0.710  -0.69321   3.59954   6.78884   1.08630   0.00000   5.912E-03   0.000E+00   9.941E-01
 213  7.21324481   0.710  -0.69420   3.59960   6.78952   1.08973   0.00000   6.014E-03   0.000E+00   9.940E-01
 214  7.21555308   0.710  -0.69507   3.59967   6.79017   1.09306   0.00000   6.114E-03   0.000E+00   9.939E-01
 215  7.21784915   0.710  -0.69595   3.59973   6.79083   1.09640   0.00000   6.214E-03   0.000E+00   9.938E-01
 216  7.22013315   0.710  -0.69682   3.59980   6.79149   1.09973   0.00000   6.314E-03   0.000E+00   9.937E-01
 217  7.22240519   0.710  -0.69769   3.59987   6.79215   1.10306   0.00000   6.414E-03   0.000E+00   9.936E-01
 218  7.22466541   0.710  -0.69857   3.59993   6.79281   1.10639   0.00000   6.513E-03   0.000E+00   9.935E-01
 219  7.22691393   0.710  -0.69944   3.60000   6.79347   1.10972   0.00000   6.613E-03   0.000E+00   9.934E-01
 220  7.22915086   0.710  -0.70032   3.60007   6.79413   1.11305   0.00000   6.713E-03   0.000E+00   9.933E-01
 221  7.23137634   0.710  -0.70119   3.60013   6.79478   1.11638   0.00000   6.813E-03   0.000E+00   9.932E-01
 222  7.23359047   0.710  -0.70206   3.60020   6.79544   1.11971   0.00000   6.913E-03   0.000E+00   9.931E-01
 223  7.23579336   0.710  -0.70292   3.60027   6.79610   1.12303   0.00000   7.012E-03   0.000E+00   9.930E-01
 224  7.23798514   0.710  -0.70367   3.60035   6.79674   1.12625   0.00000   7.108E-03   0.000E+00   9.929E-01
 225  7.24016591   0.710  -0.70442   3.60042   6.79739   1.12947   0.00000   7.205E-03   0.000E+00   9.928E-01
 226  7.24233579   0.710  -0.70517   3.60050   6.79803   1.13268   0.00000   7.301E-03   0.000E+00   9.927E-01
 227  7.24449488   0.710  -0.70591   3.60057   6.79867   1.13590   0.00000   7.398E-03   0.000E+00   9.926E-01
 228  7.24664329   0.710  -0.70666   3.60065   6.79932   1.13912   0.00000   7.494E-03   0.000E+00   9.925E-01
 229  7.24878112   0.710  -0.70741   3.60073   6.79996   1.14234   0.00000   7.591E-03   0.000E+00   9.924E-01
 230  7.25090848   0.710  -0.70816   3.60080   6.80060   1.14556   0.00000   7.687E-03   0.000E+00   9.923E-01
 231  7.25302548   0.710  -0.70891   3.60088   6.80125   1.14878   0.00000   7.784E-03   0.000E+00   9.922E-01
 232  7.25513220   0.710  -0.70965   3.60096   6.80189   1.15200   0.00000   7.880E-03   0.000E+00   9.921E-01
 233  7.25722875   0.710  -0.71040   3.60103   6.80254   1.15522   0.00000   7.977E-03   0.000E+00   9.920E-01
 234  7.25931523   0.710  -0.71105   3.60112   6.80317   1.15836   0.00000   8.142E-03   0.000E+00   9.919E-01
 235  7.26139173   0.710  -0.71167   3.60120   6.80380   1.16148   0.00000   8.329E-03   0.000E+00   9.917E-01
 236  7.26345835   0.710  -0.71228   3.60129   6.80443   1.16460   0.00000   8.516E-03   0.000E+00   9.915E-01
 237  7.26551519   0.710  -0.71290   3.60138   6.80507   1.16772   0.00000   8.703E-03   0.000E+00   9.913E-01
 238  7.26756233   0.710  -0.71352   3.60147   6.80570   1.17084   0.00000   8.890E-03   0.000E+00   9.911E-01
 239  7.26959986   0.710  -0.71413   3.60156   6.80633   1.17396   0.00000   9.077E-03   0.000E+00   9.909E-01
 240  7.27162788   0.710  -0.71475   3.60164   6.80696   1.17707   0.00000   9.264E-03   0.000E+00   9.907E-01
 241  7.27364648   0.710  -0.71537   3.60173   6.80759   1.18019   0.00000   9.451E-03   0.000E+00   9.905E-01
 242  7.27565573   0.710  -0.71599   3.60182   6.80823   1.18331   0.00000   9.638E-03   0.000E+00   9.904E-01
 243  7.27765573   0.710  -0.71660   3.60191   6.80886   1.18643   0.00000   9.825E-03   0.000E+00   9.902E-01
 244  7.27964657   0.710  -0.71721   3.60200   6.80949   1.18954   0.00000   1.001E-02   0.000E+00   9.900E-01
 245  7.28162831   0.710  -0.71770   3.60210   6.81011   1.19257   0.00000   1.010E-02   0.000E+00   9.899E-01
 246  7.28360106   0.710  -0.71820   3.60220   6.81073   1.19559   0.00000   1.019E-02   0.000E+00   9.898E-01
 247  7.28556489   0.710  -0.71869   3.60230   6.81135   1.19861   0.00000   1.028E-02   0.000E+00   9.897E-01
 248  7.28751987   0.710  -0.71918   3.60240   6.81197   1.20164   0.00000   1.037E-02   0.000E+00   9.896E-01
 249  7.28946610   0.710  -0.71968   3.60250   6.81259   1.20466   0.00000   1.046E-02   0.000E+00   9.895E-01
 250  7.29140364   0.710  -0.72017   3.60260   6.81321   1.20768   0.00000   1.055E-02   0.000E+00   9.894E-01
 251  7.29333258   0.710  -0.72066   3.60270   6.81383   1.21071   0.00000   1.064E-02   0.000E+00   9.894E-01
 252  7.29525299   0.710  -0.72115   3.60279   6.81445   1.21373   0.00000   1.073E-02   0.000E+00   9.893E-01
 253  7.29716494   0.710  -0.72165   3.60289   6.81507   1.21676   0.00000   1.082E-02   0.000E+00   9.892E-01
 254  7.29906851   0.710  -0.72214   3.60299   6.81569   1.21978   0.00000   1.091E-02   0.000E+00   9.891E-01
 255  7.30096378   0.710  -0.72263   3.60309   6.81631   1.22280   0.00000   1.101E-02   0.000E+00   9.890E-01
 256  7.30285081   0.710  -0.72300   3.60321   6.81692   1.22574   0.00000   1.118E-02   0.000E+00   9.888E-01
 257  7.30472967   0.710  -0.72337   3.60332   6.81753   1.22868   0.00000   1.136E-02   0.000E+00   9.886E-01
 258  7.30660045   0.710  -0.72375   3.60343   6.81814   1.23161   0.00000   1.154E-02   0.000E+00   9.885E-01
 259  7.30846320   0.710  -0.72412   3.60354   6.81876   1.23455   0.00000   1.171E-02   0.000E+00   9.883E-01
 260  7.31031799   0.710  -0.72449   3.60366   6.81937   1.23749   0.00000   1.189E-02   0.000E+00   9.881E-01
 261  7.31216489   0.710  -0.72487   3.60377   6.81998   1.24043   0.00000   1.207E-02   0.000E+00   9.879E-01
 262  7.31400398   0.710  -0.72524   3.60388   6.82059   1.24337   0.00000   1.224E-02   0.000E+00   9.878E-01
 263  7.31583531   0.710  -0.72561   3.60399   6.82121   1.24631   0.00000   1.242E-02   0.000E+00   9.876E-01
 264  7.31765895   0.710  -0.72599   3.60410   6.82182   1.24924   0.00000   1.260E-02   0.000E+00   9.874E-01
 265  7.31947496   0.710  -0.72636   3.60422   6.82243   1.25218   0.00000   1.277E-02   0.000E+00   9.872E-01
 266  7.32128341   0.710  -0.72673   3.60433   6.82304   1.25512   0.00000   1.295E-02   0.000E+00   9.871E-01
 267  7.32308437   0.710  -0.72702   3.60445   6.82365   1.25800   0.00000   1.318E-02   0.000E+00   9.868E-01
 268  7.32487788   0.710  -0.72727   3.60457   6.82426   1.26086   0.00000   1.344E-02   0.000E+00   9.866E-01
 269  7.32666402   0.710  -0.72753   3.60470   6.82486   1.26372   0.00000   1.370E-02   0.000E+00   9.863E-01
 270  7.32844284   0.710  -0.72778   3.60482   6.82547   1.26658   0.00000   1.396E-02   0.000E+00   9.860E-01
 271  7.33021441   0.710  -0.72803   3.60495   6.82607   1.26943   0.00000   1.421E-02   0.000E+00   9.858E-01
 272  7.33197878   0.710  -0.72829   3.60507   6.82668   1.27229   0.00000   1.447E-02   0.000E+00   9.855E-01
 273  7.33373601   0.710  -0.72854   3.60520   6.82728   1.27515   0.00000   1.473E-02   0.000E+00   9.853E-01
 274  7.33548616   0.710  -0.72880   3.60532   6.82789   1.27801   0.00000   1.499E-02   0.000E+00   9.850E-01
 275  7.33722929   0.710  -0.72905   3.60545   6.82849   1.28087   0.00000   1.525E-02   0.000E+00   9.848E-01
 276  7.33896544   0.710  -0.72930   3.60557   6.82910   1.28372   0.00000   1.550E-02   0.000E+00   9.845E-01
 277  7.34069469   0.710  -0.72956   3.60569   6.82970   1.28658   0.00000   1.576E-02   0.000E+00   9.842E-01
 278  7.34241707   0.710  -0.72980   3.60582   6.83031   1.28944   0.00000   1.602E-02   0.000E+00   9.840E-01
 279  7.34413265   0.710  -0.72994   3.60596   6.83091   1.29222   0.00000   1.627E-02   0.000E+00   9.837E-01
 280  7.34584148   0.710  -0.73009   3.60609   6.83151   1.29500   0.00000   1.652E-02   0.000E+00   9.835E-01
 281  7.34754362   0.710  -0.73023   3.60623   6.83211   1.29779   0.00000   1.677E-02   0.000E+00   9.832E-01
 282  7.34923911   0.710  -0.73037   3.60637   6.83271   1.30057   0.00000   1.703E-02   0.000E+00   9.830E-01
 283  7.35092800   0.710  -0.73052   3.60650   6.83331   1.30336   0.00000   1.728E-02   0.000E+00   9.827E-01
 284  7.35261035   0.710  -0.73066   3.60664   6.83391   1.30614   0.00000   1.753E-02   0.000E+00   9.825E-01
 285  7.35428621   0.710  -0.73081   3.60678   6.83451   1.30892   0.00000   1.778E-02   0.000E+00   9.822E-01
 286  7.35595563   0.710  -0.73095   3.60691   6.83511   1.31171   0.00000   1.803E-02   0.000E+00   9.820E-01
 287  7.35761866   0.710  -0.73109   3.60705   6.83571   1.31449   0.00000   1.828E-02   0.000E+00   9.817E-01
 288  7.35927534   0.710  -0.73124   3.60719   6.83631   1.31728   0.00000   1.854E-02   0.000E+00   9.815E-01
 289  7.36092573   0.710  -0.73138   3.60732   6.83691   1.32006   0.00000   1.879E-02   0.000E+00   9.812E-01
 290  7.36256987   0.710  -0.73150   3.60746   6.83751   1.32284   0.00000   1.904E-02   0.000E+00   9.810E-01
 291  7.36420780   0.710  -0.73153   3.60761   6.83811   1.32555   0.00000   1.928E-02   0.000E+00   9.807E-01
 292  7.36583959   0.710  -0.73156   3.60777   6.83871   1.32827   0.00000   1.953E-02   0.000E+00   9.805E-01
 293  7.36746526   0.710  -0.73159   3.60792   6.83931   1.33099   0.00000   1.978E-02   0.000E+00   9.802E-01
 294  7.36908487   0.710  -0.73161   3.60807   6.83990   1.33370   0.00000   2.002E-02   0.000E+00   9.800E-01
 295  7.37069847   0.710  -0.73164   3.60822   6.84050   1.33642   0.00000   2.027E-02   0.000E+00   9.797E-01
 296  7.37230609   0.710  -0.73167   3.60837   6.84110   1.33914   0.00000   2.051E-02   0.000E+00   9.795E-01
 297  7.37390779   0.710  -0.73169   3.60852   6.84170   1.34185   0.00000   2.076E-02   0.000E+00   9.792E-01
 298  7.37550359   0.710  -0.73172   3.60867   6.84230   1.34457   0.00000   2.101E-02   0.000E+00   9.790E-01
 299  7.37709356   0.710  -0.73175   3.60882   6.84289   1.34729   0.00000   2.125E-02   0.000E+00   9.787E-01
 300  7.37867772   0.710  -0.73177   3.60897   6.84349   1.35000   0.00000   2.150E-02   0.000E+00   9.785E-01
 301  7.38025613   0.710  -0.73180   3.60912   6.84409   1.35272   0.00000   2.174E-02   0.000E+00   9.783E-01
 302  7.38182882   0.710  -0.73183   3.60927   6.84469   1.35544   0.00000   2.199E-02   0.000E+00   9.780E-01
 303  7.38339584   0.710  -0.73176   3.60944   6.84528   1.35809   0.00000   2.231E-02   0.000E+00   9.777E-01
 304  7.38495723   0.710  -0.73168   3.60960   6.84588   1.36074   0.00000   2.263E-02   0.000E+00   9.774E-01
 305  7.38651302   0.710  -0.73160   3.60976   6.84648   1.36339   0.00000   2.295E-02   0.000E+00   9.770E-01
 306  7.38806325   0.710  -0.73153   3.60993   6.84707   1.36604   0.00000   2.327E-02   0.000E+00   9.767E-01
 307  7.38960798   0.710  -0.73145   3.61009   6.84767   1.36869   0.00000   2.359E-02   0.000E+00   9.764E-01
 308  7.39114722   0.710  -0.73138   3.61025   6.84827   1.37134   0.00000   2.392E-02   0.000E+00   9.761E-01
 309  7.39268104   0.710  -0.73130   3.61042   6.84886   1.37399   0.00000   2.424E-02   0.000E+00   9.758E-01
 310  7.39420945   0.710  -0.73122   3.61058   6.84946   1.37664   0.00000   2.456E-02   0.000E+00   9.754E-01
 311  7.39573250   0.710  -0.73115   3.61074   6.85006   1.37929   0.00000   2.488E-02   0.000E+00   9.751E-01
 312  7.39725024   0.710  -0.73107   3.61090   6.85065   1.38193   0.00000   2.520E-02   0.000E+00   9.748E-01
 313  7.39876268   0.710  -0.73099   3.61107   6.85125   1.38458   0.00000   2.552E-02   0.000E+00   9.745E-01
 314  7.40026988   0.710  -0.73092   3.61123   6.85185   1.38723   0.00000   2.584E-02   0.000E+00   9.742E-01
 315  7.40177186   0.710  -0.73079   3.61140   6.85244   1.38985   0.00000   2.616E-02   0.000E+00   9.738E-01
 316  7.40326867   0.710  -0.73061   3.61158   6.85304   1.39244   0.00000   2.648E-02   0.000E+00   9.735E-01
 317  7.40476034   0.710  -0.73043   3.61175   6.85364   1.39503   0.00000   2.679E-02   0.000E+00   9.732E-01
 318  7.40624690   0.710  -0.73025   3.61193   6.85423   1.39762   0.00000   2.711E-02   0.000E+00   9.729E-01
 319  7.40772839   0.710  -0.73007   3.61211   6.85483   1.40021   0.00000   2.742E-02   0.000E+00   9.726E-01
 320  7.40920484   0.710  -0.72989   3.61228   6.85542   1.40280   0.00000   2.774E-02   0.000E+00   9.723E-01
 321  7.41067629   0.710  -0.72971   3.61246   6.85602   1.40539   0.00000   2.805E-02   0.000E+00   9.719E-01
 322  7.41214277   0.710  -0.72953   3.61263   6.85662   1.40798   0.00000   2.837E-02   0.000E+00   9.716E-01
 323  7.41360432   0.710  -0.72935   3.61281   6.85721   1.41057   0.00000   2.868E-02   0.000E+00   9.713E-01
 324  7.41506096   0.710  -0.72917   3.61299   6.85781   1.41316   0.00000   2.900E-02   0.000E+00   9.710E-01
 325  7.41651274   0.710  -0.72899   3.61316   6.85841   1.41574   0.00000   2.931E-02   0.000E+00   9.707E-01
 326  7.41795968   0.710  -0.72881   3.61334   6.85900   1.41833   0.00000   2.963E-02   0.000E+00   9.704E-01
 327  7.41940181   0.710  -0.72863   3.61352   6.85960   1.42092   0.00000   2.994E-02   0.000E+00   9.701E-01
 328  7.42083917   0.710  -0.72838   3.61370   6.86019   1.42346   0.00000   3.032E-02   0.000E+00   9.697E-01
 329  7.42227179   0.710  -0.72810   3.61389   6.86079   1.42599   0.00000   3.071E-02   0.000E+00   9.693E-01
 330  7.42369970   0.710  -0.72783   3.61408   6.86139   1.42852   0.00000   3.110E-02   0.000E+00   9.689E-01
 331  7.42512293   0.710  -0.72756   3.61426   6.86198   1.43105   0.00000   3.150E-02   0.000E+00   9.685E-01
 332  7.42654151   0.710  -0.72728   3.61445   6.86258   1.43358   0.00000   3.189E-02   0.000E+00   9.681E-01
 333  7.42795547   0.710  -0.72701   3.61464   6.86318   1.43611   0.00000   3.228E-02   0.000E+00   9.677E-01
 334  7.42936485   0.710  -0.72673   3.61483   6.86377   1.43864   0.00000   3.267E-02   0.000E+00   9.673E-01
 335  7.43076966   0.710  -0.72646   3.61502   6.86437   1.44117   0.00000   3.307E-02   0.000E+00   9.669E-01
 336  7.43216995   0.710  -0.72619   3.61520   6.86497   1.44370   0.00000   3.346E-02   0.000E+00   9.665E-01
 337  7.43356573   0.710  -0.72591   3.61539   6.86556   1.44623   0.00000   3.385E-02   0.000E+00   9.662E-01
 338  7.43495705   0.710  -0.72564   3.61558   6.86616   1.44876   0.00000   3.424E-02   0.000E+00   9.658E-01
 339  7.43634392   0.710  -0.72536   3.61577   6.86675   1.45129   0.00000   3.463E-02   0.000E+00   9.654E-01
 340  7.43772637   0.710  -0.72509   3.61595   6.86735   1.45381   0.00000   3.503E-02   0.000E+00   9.650E-01
 341  7.43910444   0.710  -0.72472   3.61615   6.86795   1.45628   0.00000   3.550E-02   0.000E+00   9.645E-01
 342  7.44047815   0.710  -0.72436   3.61635   6.86855   1.45875   0.00000   3.597E-02   0.000E+00   9.640E-01
 343  7.44184753   0.710  -0.72400   3.61655   6.86915   1.46123   0.00000   3.644E-02   0.000E+00   9.636E-01
 344  7.44321260   0.710  -0.72364   3.61675   6.86974   1.46370   0.00000   3.691E-02   0.000E+00   9.631E-01
 345  7.44457340   0.710  -0.72328   3.61695   6.87034   1.46617   0.00000   3.738E-02   0.000E+00   9.626E-01
 346  7.44592995   0.710  -0.72292   3.61714   6.87094   1.46864   0.00000   3.785E-02   0.000E+00   9.621E-01
 347  7.44728227   0.710  -0.72256   3.61734   6.87154   1.47111   0.00000   3.832E-02   0.000E+00   9.617E-01
 348  7.44863039   0.710  -0.72219   3.61754   6.87214   1.47359   0.00000   3.879E-02   0.000E+00   9.612E-01
 349  7.44997434   0.710  -0.72183   3.61774   6.87273   1.47606   0.00000   3.926E-02   0.000E+00   9.607E-01
 350  7.45131415   0.710  -0.72147   3.61794   6.87333   1.47853   0.00000   3.974E-02   0.000E+00   9.603E-01
 351  7.45264984   0.710  -0.72111   3.61813   6.87393   1.48100   0.00000   4.021E-02   0.000E+00   9.598E-01
 352  7.45398143   0.710  -0.72075   3.61833   6.87453   1.48347   0.00000   4.068E-02   0.000E+00   9.593E-01
 353  7.45530895   0.710  -0.72036   3.61853   6.87513   1.48593   0.00000   4.115E-02   0.000E+00   9.589E-01
 354  7.45663242   0.710  -0.71991   3.61874   6.87573   1.48835   0.00000   4.162E-02   0.000E+00   9.584E-01
 355  7.45795188   0.710  -0.71947   3.61895   6.87632   1.49077   0.00000   4.209E-02   0.000E+00   9.579E-01
 356  7.45926733   0.710  -0.71902   3.61916   6.87692   1.49319   0.00000   4.256E-02   0.000E+00   9.574E-01
 357  7.46057882   0.710  -0.71858   3.61937   6.87752   1.49561   0.00000   4.303E-02   0.000E+00   9.570E-01
 358  7.46188635   0.710  -0.71813   3.61958   6.87812   1.49803   0.00000   4.350E-02   0.000E+00   9.565E-01
 359  7.46318997   0.710  -0.71768   3.61979   6.87872   1.50044   0.00000   4.397E-02   0.000E+00   9.560E-01
 360  7.46448968   0.710  -0.71724   3.62000   6.87932   1.50286   0.00000   4.444E-02   0.000E+00   9.556E-01
 361  7.46578551   0.710  -0.71679   3.62021   6.87992   1.50528   0.00000   4.491E-02   0.000E+00   9.551E-01
 362  7.46707748   0.710  -0.71634   3.62042   6.88052   1.50770   0.00000   4.538E-02   0.000E+00   9.546E-01
 363  7.46836563   0.710  -0.71590   3.62063   6.88112   1.51012   0.00000   4.585E-02   0.000E+00   9.542E-01
 364  7.46964997   0.710  -0.71545   3.62084   6.88172   1.51254   0.00000   4.632E-02   0.000E+00   9.537E-01
 365  7.47093051   0.710  -0.71500   3.62104   6.88232   1.51496   0.00000   4.679E-02   0.000E+00   9.532E-01
 366  7.47220730   0.710  -0.71451   3.62126   6.88292   1.51735   0.00000   4.730E-02   0.000E+00   9.527E-01
 367  7.47348034   0.710  -0.71399   3.62148   6.88352   1.51972   0.00000   4.785E-02   0.000E+00   9.522E-01
 368  7.47474966   0.710  -0.71346   3.62170   6.88412   1.52209   0.00000   4.840E-02   0.000E+00   9.516E-01
 369  7.47601528   0.710  -0.71293   3.62192   6.88473   1.52445   0.00000   4.894E-02   0.000E+00   9.511E-01
 370  7.47727723   0.710  -0.71241   3.62214   6.88533   1.52682   0.00000   4.949E-02   0.000E+00   9.505E-01
 371  7.47853551   0.710  -0.71188   3.62236   6.88593   1.52919   0.00000   5.004E-02   0.000E+00   9.500E-01
 372  7.47979017   0.710  -0.71136   3.62258   6.88654   1.53156   0.00000   5.059E-02   0.000E+00   9.494E-01
 373  7.48104120   0.710  -0.71083   3.62280   6.88714   1.53392   0.00000   5.114E-02   0.000E+00   9.489E-01
 374  7.48228865   0.710  -0.71030   3.62302   6.88774   1.53629   0.00000   5.168E-02   0.000E+00   9.483E-01
 375  7.48353252   0.710  -0.70978   3.62324   6.88835   1.53866   0.00000   5.223E-02   0.000E+00   9.478E-01
 376  7.48477284   0.710  -0.70925   3.62346   6.88895   1.54103   0.00000   5.278E-02   0.000E+00   9.472E-01
 377  7.48600963   0.710  -0.70872   3.62368   6.88955   1.54339   0.00000   5.333E-02   0.000E+00   9.467E-01
 378  7.48724290   0.710  -0.70820   3.62390   6.89016   1.54576   0.00000   5.388E-02   0.000E+00   9.461E-01
 379  7.48847269   0.710  -0.70761   3.62413   6.89076   1.54809   0.00000   5.449E-02   0.000E+00   9.455E-01
 380  7.48969900   0.710  -0.70701   3.62436   6.89137   1.55041   0.00000   5.511E-02   0.000E+00   9.449E-01
 381  7.49092186   0.710  -0.70642   3.62459   6.89197   1.55273   0.00000   5.574E-02   0.000E+00   9.443E-01
 382  7.49214128   0.710  -0.70582   3.62482   6.89258   1.55504   0.00000   5.636E-02   0.000E+00   9.436E-01
 383  7.49335729   0.710  -0.70522   3.62505   6.89319   1.55736   0.00000   5.699E-02   0.000E+00   9.430E-01
 384  7.49456990   0.710  -0.70462   3.62528   6.89379   1.55968   0.00000   5.762E-02   0.000E+00   9.424E-01
 385  7.49577914   0.710  -0.70402   3.62551   6.89440   1.56200   0.00000   5.824E-02   0.000E+00   9.418E-01
 386  7.49698502   0.710  -0.70342   3.62574   6.89501   1.56431   0.00000   5.887E-02   0.000E+00   9.411E-01
 387  7.49818756   0.710  -0.70282   3.62597   6.89561   1.56663   0.00000   5.950E-02   0.000E+00   9.405E-01
 388  7.49938678   0.710  -0.70222   3.62620   6.89622   1.56895   0.00000   6.012E-02   0.000E+00   9.399E-01
 389  7.50058270   0.710  -0.70162   3.62643   6.89683   1.57127   0.00000   6.075E-02   0.000E+00   9.393E-01
 390  7.50177534   0.710  -0.70102   3.62666   6.89743   1.57358   0.00000   6.137E-02   0.000E+00   9.386E-01
 391  7.50296471   0.710  -0.70042   3.62689   6.89804   1.57590   0.00000   6.200E-02   0.000E+00   9.380E-01
 392  7.50939518   0.710  -0.69675   3.62821   6.90137   1.58826   0.00000   6.586E-02   0.000E+00   9.341E-01
 393  7.51573183   0.710  -0.69307   3.62952   6.90471   1.60061   0.00000   6.972E-02   0.000E+00   9.303E-01
 394  7.52197734   0.710  -0.68913   3.63085   6.90792   1.61241   0.00000   7.351E-02   0.000E+00   9.265E-01
 395  7.52813432   0.710  -0.68490   3.63220   6.91108   1.62384   0.00000   7.765E-02   0.000E+00   9.223E-01
 396  7.53420522   0.710  -0.68052   3.63359   6.91425   1.63515   0.00000   8.197E-02   0.000E+00   9.180E-01
 397  7.54019243   0.710  -0.67599   3.63501   6.91743   1.64636   0.00000   8.542E-02   0.000E+00   9.146E-01
 398  7.54609822   0.710  -0.67138   3.63645   6.92061   1.65746   0.00000   9.002E-02   0.000E+00   9.100E-01
 399  7.55192478   0.710  -0.66660   3.63792   6.92382   1.66843   0.00000   9.470E-02   0.000E+00   9.053E-01
 400  7.55767420   0.710  -0.66170   3.63942   6.92703   1.67930   0.00000   9.954E-02   0.000E+00   9.005E-01
 401  7.56334850   0.710  -0.65669   3.64095   6.93027   1.69006   0.00000   1.045E-01   0.000E+00   8.955E-01
 402  7.56894962   0.710  -0.65158   3.64251   6.93352   1.70070   0.00000   1.096E-01   0.000E+00   8.904E-01
 403  7.57447942   0.710  -0.64640   3.64408   6.93678   1.71122   0.00000   1.147E-01   0.000E+00   8.853E-01
 404  7.57993969   0.710  -0.64116   3.64568   6.94006   1.72162   0.00000   1.209E-01   0.000E+00   8.791E-01
 405  7.58533216   0.710  -0.63591   3.64730   6.94335   1.73188   0.00000   1.262E-01   0.000E+00   8.738E-01
 406  7.59065850   0.710  -0.63069   3.64890   6.94667   1.74201   0.00000   1.325E-01   0.000E+00   8.675E-01
 407  7.59592031   0.710  -0.62564   3.65046   6.94999   1.75202   0.00000   1.386E-01   0.000E+00   8.614E-01
 408  7.60111912   0.710  -0.62070   3.65201   6.95333   1.76188   0.00000   1.459E-01   0.000E+00   8.541E-01
 409  7.60625644   0.710  -0.61591   3.65352   6.95669   1.77156   0.00000   1.531E-01   0.000E+00   8.469E-01
 410  7.61133370   0.710  -0.61119   3.65500   6.96005   1.78107   0.00000   1.603E-01   0.000E+00   8.397E-01
 411  7.61635228   0.710  -0.60664   3.65645   6.96343   1.79041   0.00000   1.681E-01   0.000E+00   8.319E-01
 412  7.62131354   0.710  -0.60218   3.65787   6.96682   1.79957   0.00000   1.766E-01   0.000E+00   8.234E-01
 413  7.62621876   0.710  -0.59767   3.65929   6.97022   1.80853   0.00000   1.846E-01   0.000E+00   8.145E-01
 414  7.63106919   0.710  -0.59333   3.66068   6.97363   1.81728   0.00000   1.943E-01   0.000E+00   8.057E-01
 415  7.63586605   0.710  -0.58886   3.66210   6.97707   1.82581   0.00000   2.035E-01   0.000E+00   7.965E-01
 416  7.64061050   0.710  -0.58444   3.66352   6.98052   1.83410   0.00000   2.135E-01   0.000E+00   7.865E-01
 417  7.64530369   0.710  -0.57992   3.66497   6.98400   1.84213   0.00000   2.238E-01   0.000E+00   7.760E-01
 418  7.64994669   0.710  -0.57554   3.66638   6.98752   1.84988   0.00000   2.348E-01   0.000E+00   7.652E-01
 419  7.65454059   0.710  -0.57114   3.66782   6.99108   1.85732   0.00000   2.461E-01   1.752E-04   7.531E-01
 420  7.65908640   0.710  -0.56700   3.66921   6.99470   1.86444   0.00000   2.588E-01   1.000E-03   7.409E-01
 421  7.66358512   0.710  -0.56285   3.67060   6.99838   1.87118   0.00000   2.716E-01   1.000E-03   7.274E-01
 422  7.66803772   0.710  -0.55904   3.67193   7.00214   1.87747   0.00000   2.859E-01   1.000E-03   7.131E-01
 423  7.67244513   0.710  -0.55530   3.67323   7.00599   1.88329   0.00000   3.012E-01   1.000E-03   6.978E-01
 424  7.67680826   0.710  -0.55184   3.67449   7.00994   1.88859   0.00000   3.177E-01   1.000E-03   6.813E-01
 425  7.68112799   0.710  -0.54863   3.67571   7.01402   1.89329   0.00000   3.357E-01   1.000E-03   6.626E-01
 426  7.68540518   0.710  -0.54553   3.67689   7.01822   1.89740   0.00017   3.552E-01   1.324E-03   6.435E-01
 427  7.68964065   0.710  -0.54285   3.67799   7.02242   1.90095   0.00225   3.761E-01   2.000E-03   6.219E-01
 428  7.69383522   0.710  -0.54029   3.67907   7.02649   1.90403   0.00524   3.989E-01   2.000E-03   5.991E-01
 429  7.69798966   0.710  -0.53806   3.68008   7.03036   1.90661   0.00952   4.235E-01   2.358E-03   5.741E-01
 430  7.70210474   0.710  -0.53624   3.68101   7.03399   1.90875   0.01447   4.491E-01   3.000E-03   5.479E-01
 431  7.70618119   0.710  -0.53472   3.68188   7.03744   1.91040   0.01901   4.769E-01   3.359E-03   5.197E-01
 432  7.71021973   0.710  -0.53348   3.68269   7.04068   1.91157   0.02233   5.061E-01   4.142E-03   4.897E-01
 433  7.71422107   0.710  -0.53280   3.68340   7.04376   1.91233   0.02851   5.359E-01   4.835E-03   4.593E-01
 434  7.71818587   0.710  -0.53278   3.68398   7.04650   1.91242   0.03321   5.662E-01   5.352E-03   4.284E-01
 435  7.72211481   0.710  -0.53297   3.68451   7.04914   1.91231   0.03743   5.967E-01   5.813E-03   3.975E-01
 436  7.72600852   0.710  -0.53396   3.68488   7.05139   1.91166   0.04195   6.257E-01   6.367E-03   3.679E-01
 437  7.72986763   0.710  -0.53551   3.68514   7.05337   1.91066   0.04666   6.537E-01   6.983E-03   3.393E-01
 438  7.73369275   0.710  -0.53705   3.68540   7.05536   1.90966   0.05138   6.817E-01   7.598E-03   3.107E-01
 439  7.73748447   0.710  -0.53874   3.68563   7.05720   1.90883   0.05445   7.013E-01   8.269E-03   2.904E-01
 440  7.74124338   0.710  -0.54070   3.68580   7.05876   1.90831   0.05463   7.064E-01   9.052E-03   2.846E-01
 441  7.74497003   0.710  -0.54278   3.68593   7.06025   1.90759   0.05786   7.322E-01   1.000E-02   2.578E-01
 442  7.74866498   0.710  -0.54517   3.68600   7.06155   1.90705   0.05818   7.406E-01   1.008E-02   2.484E-01
 443  7.75232875   0.710  -0.54786   3.68600   7.06277   1.90634   0.06211   7.623E-01   1.129E-02   2.267E-01
 444  7.75596187   0.710  -0.55081   3.68595   7.06387   1.90564   0.06211   7.792E-01   1.200E-02   2.091E-01
 445  7.75956485   0.710  -0.55402   3.68582   7.06486   1.90472   0.06211   8.013E-01   1.218E-02   1.857E-01
 446  7.76313819   0.710  -0.55748   3.68564   7.06577   1.90364   0.06565   8.220E-01   1.300E-02   1.650E-01
 447  7.76668237   0.710  -0.56114   3.68541   7.06654   1.90278   0.06637   8.283E-01   1.400E-02   1.587E-01
 448  7.77019785   0.710  -0.56497   3.68513   7.06724   1.90180   0.06637   8.478E-01   1.400E-02   1.377E-01
 449  7.77368511   0.710  -0.56892   3.68480   7.06785   1.90070   0.06637   8.664E-01   1.500E-02   1.192E-01
 450  7.77714459   0.710  -0.57300   3.68444   7.06838   1.89954   0.06637   8.830E-01   1.500E-02   1.015E-01
 451  7.78057673   0.710  -0.57718   3.68403   7.06884   1.89833   0.06637   8.985E-01   1.600E-02   8.594E-02
 452  7.78398196   0.710  -0.58142   3.68359   7.06921   1.89712   0.06637   9.116E-01   1.600E-02   7.171E-02
 453  7.78736070   0.709  -0.58569   3.68313   7.06952   1.89592   0.06637   9.244E-01   1.674E-02   5.883E-02
 454  7.79071335   0.709  -0.58997   3.68264   7.06973   1.89471   0.06637   9.363E-01   1.700E-02   4.698E-02
 455  7.79404032   0.709  -0.59422   3.68214   7.06991   1.89356   0.06211   9.460E-01   1.700E-02   3.625E-02
 456  7.79734200   0.709  -0.59842   3.68162   7.07002   1.89250   0.06211   9.545E-01   1.712E-02   2.803E-02
 457  7.80061876   0.709  -0.60253   3.68110   7.07010   1.89152   0.06211   9.618E-01   1.800E-02   2.026E-02
 458  7.80387099   0.709  -0.60655   3.68058   7.07013   1.89061   0.06084   9.690E-01   1.800E-02   1.307E-02
 459  7.80709904   0.709  -0.61044   3.68006   7.07013   1.88976   0.06020   9.756E-01   1.800E-02   6.217E-03
 460  7.81030328   0.709  -0.61419   3.67955   7.07009   1.88898   0.05786   9.814E-01   1.800E-02   4.786E-04
 461  7.81348405   0.709  -0.61777   3.67905   7.07002   1.88827   0.05786   9.869E-01   1.800E-02  -4.604E-03
 462  7.81664169   0.709  -0.62119   3.67856   7.06993   1.88764   0.05540   9.912E-01   1.800E-02  -9.514E-03
 463  7.81977654   0.709  -0.62442   3.67809   7.06981   1.88707   0.05445   9.948E-01   1.800E-02  -1.326E-02
 464  7.82288892   0.709  -0.62747   3.67764   7.06968   1.88657   0.05445   9.989E-01   1.800E-02  -1.674E-02
 465  7.82597916   0.709  -0.63030   3.67721   7.06954   1.88612   0.05126   1.002E+00   1.800E-02  -1.988E-02
 466  7.82904756   0.709  -0.63295   3.67680   7.06938   1.88573   0.05126   1.005E+00   1.800E-02  -2.233E-02
 467  7.83209444   0.709  -0.63538   3.67642   7.06921   1.88539   0.05083   1.006E+00   1.800E-02  -2.479E-02
 468  7.83512009   0.709  -0.63759   3.67606   7.06904   1.88509   0.04829   1.009E+00   1.800E-02  -2.690E-02
 469  7.83812481   0.709  -0.63962   3.67573   7.06886   1.88484   0.04829   1.010E+00   1.800E-02  -2.835E-02
 470  7.84110888   0.709  -0.64144   3.67543   7.06868   1.88461   0.04697   1.012E+00   1.800E-02  -2.991E-02
 471  7.84407258   0.709  -0.64308   3.67515   7.06849   1.88442   0.04531   1.013E+00   1.800E-02  -3.102E-02
 472  7.84701620   0.709  -0.64454   3.67489   7.06831   1.88425   0.04473   1.014E+00   1.781E-02  -3.159E-02
 473  7.84994000   0.709  -0.64584   3.67466   7.06813   1.88411   0.04247   1.015E+00   1.705E-02  -3.235E-02
 474  7.85284425   0.709  -0.64692   3.67446   7.06795   1.88401   0.04233   1.015E+00   1.700E-02  -3.234E-02
 475  7.85572921   0.709  -0.64789   3.67427   7.06777   1.88393   0.04183   1.015E+00   1.700E-02  -3.243E-02
 476  7.85859513   0.709  -0.64871   3.67411   7.06759   1.88384   0.04059   1.016E+00   1.700E-02  -3.275E-02
 477  7.86144226   0.709  -0.64939   3.67397   7.06742   1.88377   0.03963   1.016E+00   1.700E-02  -3.288E-02
 478  7.86427084   0.709  -0.64995   3.67384   7.06726   1.88371   0.03893   1.016E+00   1.700E-02  -3.284E-02
 479  7.86708112   0.709  -0.65048   3.67372   7.06710   1.88365   0.03822   1.016E+00   1.698E-02  -3.278E-02
 480  7.86987334   0.709  -0.65077   3.67364   7.06695   1.88359   0.03736   1.016E+00   1.670E-02  -3.256E-02
 481  7.87264772   0.709  -0.65106   3.67356   7.06680   1.88353   0.03649   1.016E+00   1.642E-02  -3.233E-02
 482  7.87540448   0.709  -0.65136   3.67348   7.06665   1.88347   0.03563   1.016E+00   1.614E-02  -3.211E-02
 483  7.87814386   0.709  -0.65153   3.67342   7.06650   1.88342   0.03478   1.016E+00   1.600E-02  -3.178E-02
 484  7.88086607   0.709  -0.65160   3.67338   7.06637   1.88337   0.03395   1.015E+00   1.600E-02  -3.133E-02
 485  7.88357132   0.709  -0.65166   3.67333   7.06623   1.88332   0.03312   1.015E+00   1.600E-02  -3.088E-02
 486  7.88625982   0.709  -0.65173   3.67329   7.06609   1.88328   0.03229   1.015E+00   1.600E-02  -3.043E-02
 487  7.88893178   0.709  -0.65179   3.67325   7.06596   1.88323   0.03146   1.014E+00   1.600E-02  -2.999E-02
 488  7.89158740   0.709  -0.65184   3.67321   7.06582   1.88318   0.03067   1.014E+00   1.598E-02  -2.956E-02
 489  7.89422689   0.709  -0.65180   3.67318   7.06571   1.88311   0.03011   1.014E+00   1.586E-02  -2.929E-02
 490  7.89685043   0.709  -0.65176   3.67316   7.06559   1.88305   0.02956   1.013E+00   1.574E-02  -2.902E-02
 491  7.89945821   0.709  -0.65172   3.67314   7.06547   1.88298   0.02900   1.013E+00   1.561E-02  -2.874E-02
 492  7.90205043   0.709  -0.65168   3.67312   7.06535   1.88291   0.02845   1.013E+00   1.549E-02  -2.847E-02
 493  7.90462727   0.709  -0.65163   3.67310   7.06523   1.88285   0.02789   1.013E+00   1.536E-02  -2.820E-02
 494  7.90718891   0.709  -0.65159   3.67307   7.06512   1.88278   0.02734   1.012E+00   1.524E-02  -2.792E-02
 495  7.90973553   0.709  -0.65155   3.67305   7.06500   1.88271   0.02678   1.012E+00   1.511E-02  -2.765E-02
 496  7.91226730   0.709  -0.65151   3.67303   7.06488   1.88264   0.02624   1.012E+00   1.499E-02  -2.739E-02
 497  7.91478440   0.709  -0.65147   3.67301   7.06478   1.88254   0.02587   1.012E+00   1.491E-02  -2.726E-02
 498  7.91728699   0.709  -0.65143   3.67299   7.06468   1.88243   0.02550   1.012E+00   1.483E-02  -2.712E-02
 499  7.91977525   0.709  -0.65140   3.67297   7.06458   1.88233   0.02513   1.012E+00   1.475E-02  -2.699E-02
 500  7.92224933   0.709  -0.65136   3.67295   7.06447   1.88223   0.02476   1.012E+00   1.466E-02  -2.686E-02
 501  7.92470940   0.709  -0.65133   3.67293   7.06437   1.88212   0.02439   1.012E+00   1.458E-02  -2.673E-02
 502  7.92715561   0.709  -0.65129   3.67291   7.06427   1.88202   0.02402   1.012E+00   1.450E-02  -2.659E-02
 503  7.92958811   0.709  -0.65125   3.67290   7.06417   1.88192   0.02365   1.012E+00   1.441E-02  -2.646E-02
 504  7.93200707   0.709  -0.65122   3.67288   7.06407   1.88181   0.02328   1.012E+00   1.433E-02  -2.633E-02
 505  7.93441263   0.709  -0.65118   3.67286   7.06397   1.88171   0.02291   1.012E+00   1.425E-02  -2.620E-02
 506  7.93680494   0.709  -0.65114   3.67284   7.06386   1.88161   0.02254   1.012E+00   1.417E-02  -2.607E-02
 507  7.93918415   0.709  -0.65111   3.67282   7.06376   1.88150   0.02217   1.012E+00   1.408E-02  -2.593E-02
 508  7.94155039   0.709  -0.65107   3.67280   7.06366   1.88140   0.02180   1.012E+00   1.400E-02  -2.580E-02
 509  7.94390381   0.709  -0.65105   3.67278   7.06358   1.88131   0.02151   1.012E+00   1.394E-02  -2.555E-02
 510  7.94624454   0.709  -0.65103   3.67277   7.06349   1.88122   0.02123   1.012E+00   1.389E-02  -2.530E-02
 511  7.94857273   0.709  -0.65102   3.67275   7.06341   1.88114   0.02094   1.011E+00   1.383E-02  -2.506E-02
 512  7.95088850   0.709  -0.65100   3.67273   7.06332   1.88105   0.02065   1.011E+00   1.378E-02  -2.481E-02
 513  7.95319199   0.709  -0.65098   3.67272   7.06324   1.88096   0.02036   1.011E+00   1.372E-02  -2.456E-02
 514  7.95548332   0.709  -0.65096   3.67270   7.06315   1.88087   0.02008   1.011E+00   1.367E-02  -2.431E-02
 515  7.95776263   0.709  -0.65095   3.67268   7.06307   1.88078   0.01979   1.010E+00   1.361E-02  -2.406E-02
 516  7.96003004   0.709  -0.65093   3.67267   7.06298   1.88069   0.01950   1.010E+00   1.356E-02  -2.381E-02
 517  7.96228567   0.709  -0.65091   3.67265   7.06290   1.88061   0.01921   1.010E+00   1.350E-02  -2.357E-02
 518  7.96452965   0.709  -0.65089   3.67263   7.06282   1.88052   0.01893   1.010E+00   1.345E-02  -2.332E-02
 519  7.96676209   0.709  -0.65088   3.67262   7.06273   1.88043   0.01864   1.010E+00   1.339E-02  -2.307E-02
 520  7.96898312   0.709  -0.65086   3.67260   7.06265   1.88034   0.01835   1.009E+00   1.334E-02  -2.282E-02
 521  7.97119285   0.709  -0.65084   3.67258   7.06256   1.88025   0.01806   1.009E+00   1.328E-02  -2.257E-02
 522  7.97339138   0.709  -0.65082   3.67257   7.06248   1.88016   0.01778   1.009E+00   1.323E-02  -2.232E-02
 523  7.97557885   0.709  -0.65081   3.67255   7.06239   1.88008   0.01749   1.009E+00   1.317E-02  -2.208E-02
 524  7.97775535   0.709  -0.65079   3.67254   7.06231   1.87999   0.01720   1.008E+00   1.312E-02  -2.183E-02
 525  7.97992100   0.709  -0.65077   3.67252   7.06222   1.87990   0.01691   1.008E+00   1.306E-02  -2.158E-02
 526  7.98207591   0.709  -0.65075   3.67250   7.06214   1.87981   0.01663   1.008E+00   1.301E-02  -2.133E-02
 527  7.98422017   0.708  -0.65073   3.67249   7.06208   1.87977   0.01644   1.008E+00   1.297E-02  -2.106E-02
 528  7.98635390   0.708  -0.65071   3.67248   7.06202   1.87974   0.01628   1.008E+00   1.293E-02  -2.078E-02
 529  7.98847720   0.708  -0.65069   3.67247   7.06195   1.87971   0.01611   1.007E+00   1.289E-02  -2.051E-02
 530  7.99059016   0.708  -0.65066   3.67246   7.06189   1.87968   0.01595   1.007E+00   1.286E-02  -2.023E-02
 531  7.99269290   0.708  -0.65064   3.67245   7.06183   1.87965   0.01578   1.007E+00   1.282E-02  -1.995E-02
 532  7.99478550   0.708  -0.65062   3.67244   7.06177   1.87962   0.01561   1.007E+00   1.278E-02  -1.968E-02
 533  7.99686807   0.708  -0.65060   3.67243   7.06171   1.87959   0.01545   1.006E+00   1.275E-02  -1.940E-02
 534  7.99894070   0.708  -0.65057   3.67242   7.06165   1.87956   0.01528   1.006E+00   1.271E-02  -1.913E-02
 535  8.00100349   0.708  -0.65055   3.67241   7.06159   1.87953   0.01511   1.006E+00   1.267E-02  -1.885E-02
 536  8.00305652   0.708  -0.65053   3.67240   7.06153   1.87950   0.01495   1.006E+00   1.264E-02  -1.857E-02
 537  8.00509990   0.708  -0.65051   3.67239   7.06147   1.87947   0.01478   1.006E+00   1.260E-02  -1.830E-02
 538  8.00713371   0.708  -0.65048   3.67238   7.06140   1.87944   0.01462   1.005E+00   1.256E-02  -1.802E-02
 539  8.00915803   0.708  -0.65046   3.67237   7.06134   1.87941   0.01445   1.005E+00   1.253E-02  -1.775E-02
 540  8.01117297   0.708  -0.65044   3.67236   7.06128   1.87938   0.01428   1.005E+00   1.249E-02  -1.747E-02
 541  8.01317860   0.708  -0.65042   3.67235   7.06122   1.87935   0.01412   1.005E+00   1.245E-02  -1.720E-02
 542  8.01517500   0.708  -0.65039   3.67234   7.06116   1.87932   0.01395   1.004E+00   1.242E-02  -1.692E-02
 543  8.01716228   0.708  -0.65037   3.67233   7.06110   1.87929   0.01378   1.004E+00   1.238E-02  -1.664E-02
 544  8.01914050   0.708  -0.65035   3.67232   7.06104   1.87926   0.01362   1.004E+00   1.234E-02  -1.637E-02
 545  8.02110975   0.708  -0.65033   3.67231   7.06098   1.87923   0.01345   1.004E+00   1.231E-02  -1.609E-02
 546  8.02307011   0.708  -0.65030   3.67230   7.06092   1.87920   0.01328   1.004E+00   1.227E-02  -1.582E-02
 547  8.02502167   0.708  -0.65028   3.67228   7.06086   1.87917   0.01312   1.003E+00   1.223E-02  -1.554E-02
 548  8.02696449   0.708  -0.65026   3.67227   7.06079   1.87914   0.01295   1.003E+00   1.220E-02  -1.526E-02
 549  8.02889866   0.708  -0.65024   3.67226   7.06073   1.87911   0.01279   1.003E+00   1.216E-02  -1.499E-02
 550  8.03082426   0.708  -0.65021   3.67225   7.06067   1.87908   0.01262   1.003E+00   1.212E-02  -1.471E-02
 551  8.03274135   0.708  -0.65019   3.67224   7.06061   1.87905   0.01245   1.003E+00   1.208E-02  -1.444E-02
 552  8.03465002   0.708  -0.65017   3.67223   7.06055   1.87902   0.01229   1.002E+00   1.205E-02  -1.416E-02
 553  8.03655034   0.708  -0.65015   3.67222   7.06049   1.87899   0.01212   1.002E+00   1.201E-02  -1.388E-02
 554  8.03844238   0.708  -0.65013   3.67222   7.06044   1.87897   0.01201   1.002E+00   1.198E-02  -1.372E-02
 555  8.04032621   0.708  -0.65011   3.67221   7.06040   1.87895   0.01193   1.002E+00   1.196E-02  -1.361E-02
 556  8.04220191   0.708  -0.65009   3.67220   7.06036   1.87893   0.01185   1.002E+00   1.193E-02  -1.349E-02
 557  8.04406953   0.708  -0.65008   3.67220   7.06032   1.87891   0.01177   1.002E+00   1.191E-02  -1.338E-02
 558  8.04592917   0.708  -0.65006   3.67219   7.06028   1.87889   0.01169   1.002E+00   1.188E-02  -1.326E-02
 559  8.04778087   0.708  -0.65004   3.67218   7.06024   1.87888   0.01161   1.002E+00   1.186E-02  -1.314E-02
 560  8.04962471   0.708  -0.65002   3.67218   7.06020   1.87886   0.01153   1.002E+00   1.184E-02  -1.303E-02
 561  8.05146076   0.708  -0.65001   3.67217   7.06016   1.87884   0.01145   1.001E+00   1.181E-02  -1.291E-02
 562  8.05328908   0.708  -0.64999   3.67216   7.06012   1.87882   0.01137   1.001E+00   1.179E-02  -1.280E-02
 563  8.05510973   0.708  -0.64997   3.67216   7.06008   1.87880   0.01129   1.001E+00   1.176E-02  -1.268E-02
 564  8.05692278   0.708  -0.64995   3.67215   7.06004   1.87879   0.01120   1.001E+00   1.174E-02  -1.257E-02
 565  8.05872829   0.708  -0.64994   3.67215   7.06000   1.87877   0.01112   1.001E+00   1.171E-02  -1.245E-02
 566  8.06052633   0.708  -0.64992   3.67214   7.05996   1.87875   0.01104   1.001E+00   1.169E-02  -1.234E-02
 567  8.06231696   0.708  -0.64990   3.67213   7.05992   1.87873   0.01096   1.001E+00   1.166E-02  -1.222E-02
 568  8.06410023   0.708  -0.64988   3.67213   7.05988   1.87871   0.01088   1.001E+00   1.164E-02  -1.211E-02
 569  8.06587621   0.708  -0.64987   3.67212   7.05984   1.87870   0.01080   1.001E+00   1.162E-02  -1.199E-02
 570  8.06764496   0.708  -0.64985   3.67211   7.05980   1.87868   0.01072   1.001E+00   1.159E-02  -1.188E-02
 571  8.06940653   0.708  -0.64983   3.67211   7.05976   1.87866   0.01064   1.001E+00   1.157E-02  -1.176E-02
 572  8.07116099   0.708  -0.64981   3.67210   7.05972   1.87864   0.01056   1.001E+00   1.154E-02  -1.165E-02
 573  8.07290839   0.708  -0.64980   3.67209   7.05968   1.87862   0.01048   1.001E+00   1.152E-02  -1.153E-02
 574  8.07464878   0.708  -0.64978   3.67209   7.05964   1.87860   0.01040   1.000E+00   1.149E-02  -1.142E-02
 575  8.07638223   0.708  -0.64976   3.67208   7.05960   1.87859   0.01031   1.000E+00   1.147E-02  -1.130E-02
 576  8.07810879   0.708  -0.64974   3.67208   7.05956   1.87857   0.01023   1.000E+00   1.144E-02  -1.119E-02
 577  8.07982851   0.708  -0.64973   3.67207   7.05952   1.87855   0.01015   1.000E+00   1.142E-02  -1.107E-02
 578  8.08154145   0.708  -0.64971   3.67206   7.05948   1.87853   0.01007   1.000E+00   1.139E-02  -1.096E-02
 579  8.08324765   0.708  -0.64969   3.67206   7.05944   1.87851   0.00999   1.000E+00   1.137E-02  -1.084E-02
 580  8.08494719   0.708  -0.64968   3.67205   7.05940   1.87850   0.00991   1.000E+00   1.135E-02  -1.073E-02
 581  8.08664009   0.708  -0.64966   3.67204   7.05936   1.87848   0.00983   1.000E+00   1.132E-02  -1.061E-02
 582  8.08832642   0.708  -0.64964   3.67204   7.05932   1.87846   0.00975   9.999E-01   1.130E-02  -1.050E-02
 583  8.09000623   0.708  -0.64962   3.67203   7.05928   1.87844   0.00967   9.998E-01   1.127E-02  -1.038E-02
 584  8.09167957   0.708  -0.64961   3.67202   7.05924   1.87842   0.00959   9.997E-01   1.125E-02  -1.027E-02
 585  8.09334649   0.708  -0.64959   3.67202   7.05920   1.87840   0.00950   9.997E-01   1.122E-02  -1.015E-02
 586  8.09500703   0.708  -0.64957   3.67201   7.05916   1.87839   0.00942   9.996E-01   1.120E-02  -1.004E-02
 587  8.09666124   0.708  -0.64955   3.67201   7.05912   1.87837   0.00934   9.995E-01   1.117E-02  -9.924E-03
 588  8.09830918   0.708  -0.64954   3.67200   7.05908   1.87835   0.00926   9.994E-01   1.115E-02  -9.809E-03
 589  8.09995089   0.708  -0.64952   3.67199   7.05904   1.87833   0.00918   9.994E-01   1.112E-02  -9.694E-03
 590  8.10158642   0.708  -0.64950   3.67199   7.05900   1.87831   0.00910   9.993E-01   1.110E-02  -9.579E-03
 591  8.10321581   0.708  -0.64948   3.67198   7.05896   1.87830   0.00902   9.992E-01   1.108E-02  -9.464E-03
 592  8.10483911   0.708  -0.64947   3.67197   7.05892   1.87828   0.00894   9.992E-01   1.105E-02  -9.349E-03
 593  8.10645637   0.707  -0.64945   3.67197   7.05888   1.87826   0.00886   9.991E-01   1.103E-02  -9.234E-03
 594  8.10806763   0.707  -0.64943   3.67196   7.05884   1.87824   0.00878   9.990E-01   1.100E-02  -9.119E-03
 595  8.10967293   0.707  -0.64942   3.67196   7.05882   1.87823   0.00872   9.990E-01   1.097E-02  -9.060E-03
 596  8.11127231   0.707  -0.64941   3.67195   7.05879   1.87823   0.00866   9.989E-01   1.094E-02  -9.006E-03
 597  8.11286583   0.707  -0.64940   3.67195   7.05876   1.87822   0.00860   9.989E-01   1.090E-02  -8.952E-03
 598  8.11445353   0.707  -0.64938   3.67194   7.05874   1.87821   0.00854   9.988E-01   1.087E-02  -8.898E-03
 599  8.11603544   0.707  -0.64937   3.67194   7.05871   1.87821   0.00849   9.988E-01   1.084E-02  -8.844E-03
 600  8.11761161   0.707  -0.64936   3.67194   7.05868   1.87820   0.00843   9.987E-01   1.081E-02  -8.790E-03
 601  8.11918208   0.707  -0.64935   3.67193   7.05866   1.87819   0.00837   9.987E-01   1.077E-02  -8.737E-03
 602  8.12074689   0.707  -0.64934   3.67193   7.05863   1.87819   0.00832   9.986E-01   1.074E-02  -8.683E-03
 603  8.12230608   0.707  -0.64932   3.67192   7.05861   1.87818   0.00826   9.986E-01   1.071E-02  -8.629E-03
 604  8.12385970   0.707  -0.64931   3.67192   7.05858   1.87817   0.00820   9.985E-01   1.068E-02  -8.575E-03
 605  8.12540778   0.707  -0.64930   3.67192   7.05855   1.87817   0.00814   9.985E-01   1.064E-02  -8.521E-03
 606  8.12695036   0.707  -0.64929   3.67191   7.05853   1.87816   0.00809   9.984E-01   1.061E-02  -8.467E-03
 607  8.12848748   0.707  -0.64928   3.67191   7.05850   1.87815   0.00803   9.984E-01   1.058E-02  -8.413E-03
 608  8.13001917   0.707  -0.64927   3.67190   7.05847   1.87815   0.00797   9.983E-01   1.054E-02  -8.359E-03
 609  8.13154549   0.707  -0.64925   3.67190   7.05845   1.87814   0.00791   9.983E-01   1.051E-02  -8.305E-03
 610  8.13306646   0.707  -0.64924   3.67189   7.05842   1.87813   0.00786   9.982E-01   1.048E-02  -8.251E-03
 611  8.13458212   0.707  -0.64923   3.67189   7.05839   1.87813   0.00780   9.982E-01   1.045E-02  -8.197E-03
 612  8.13609251   0.707  -0.64922   3.67189   7.05837   1.87812   0.00774   9.981E-01   1.041E-02  -8.143E-03
 613  8.13759767   0.707  -0.64921   3.67188   7.05834   1.87811   0.00768   9.981E-01   1.038E-02  -8.089E-03
 614  8.13909762   0.707  -0.64920   3.67188   7.05832   1.87811   0.00763   9.980E-01   1.035E-02  -8.035E-03
 615  8.14059242   0.707  -0.64918   3.67187   7.05829   1.87810   0.00757   9.980E-01   1.032E-02  -7.981E-03
 616  8.14208209   0.707  -0.64917   3.67187   7.05826   1.87809   0.00751   9.979E-01   1.028E-02  -7.927E-03
 617  8.14356666   0.707  -0.64916   3.67187   7.05824   1.87809   0.00745   9.979E-01   1.025E-02  -7.873E-03
 618  8.14504618   0.707  -0.64915   3.67186   7.05821   1.87808   0.00740   9.978E-01   1.022E-02  -7.819E-03
 619  8.14652067   0.707  -0.64914   3.67186   7.05818   1.87807   0.00734   9.978E-01   1.019E-02  -7.765E-03
 620  8.14799018   0.707  -0.64912   3.67185   7.05816   1.87807   0.00728   9.977E-01   1.015E-02  -7.711E-03
 621  8.14945473   0.707  -0.64911   3.67185   7.05813   1.87806   0.00722   9.977E-01   1.012E-02  -7.657E-03
 622  8.15091435   0.707  -0.64910   3.67185   7.05810   1.87805   0.00717   9.976E-01   1.009E-02  -7.603E-03
 623  8.15236909   0.707  -0.64909   3.67184   7.05808   1.87805   0.00711   9.976E-01   1.005E-02  -7.549E-03
 624  8.15381897   0.707  -0.64908   3.67184   7.05805   1.87804   0.00705   9.975E-01   1.002E-02  -7.496E-03
 625  8.15526403   0.707  -0.64907   3.67183   7.05803   1.87803   0.00700   9.975E-01   9.989E-03  -7.442E-03
 626  8.15670430   0.707  -0.64905   3.67183   7.05800   1.87803   0.00694   9.974E-01   9.956E-03  -7.388E-03
 627  8.15813980   0.707  -0.64904   3.67183   7.05797   1.87802   0.00688   9.974E-01   9.923E-03  -7.334E-03
 628  8.15957058   0.707  -0.64903   3.67182   7.05795   1.87801   0.00682   9.973E-01   9.891E-03  -7.280E-03
 629  8.16099665   0.707  -0.64902   3.67182   7.05792   1.87801   0.00677   9.973E-01   9.858E-03  -7.226E-03
 630  8.16241806   0.707  -0.64901   3.67181   7.05789   1.87800   0.00671   9.972E-01   9.825E-03  -7.172E-03
 631  8.16383483   0.707  -0.64900   3.67181   7.05787   1.87799   0.00665   9.972E-01   9.793E-03  -7.118E-03
 632  8.16524700   0.707  -0.64898   3.67180   7.05784   1.87799   0.00659   9.971E-01   9.760E-03  -7.064E-03
 633  8.16665459   0.707  -0.64897   3.67180   7.05782   1.87798   0.00654   9.971E-01   9.727E-03  -7.010E-03
 634  8.16805763   0.707  -0.64896   3.67180   7.05779   1.87797   0.00648   9.970E-01   9.695E-03  -6.956E-03
 635  8.16945615   0.707  -0.64895   3.67179   7.05776   1.87797   0.00642   9.970E-01   9.662E-03  -6.902E-03
 636  8.17085019   0.707  -0.64894   3.67179   7.05774   1.87796   0.00636   9.969E-01   9.629E-03  -6.848E-03
 637  8.17223976   0.707  -0.64892   3.67178   7.05771   1.87795   0.00631   9.969E-01   9.596E-03  -6.794E-03
 638  8.17362490   0.707  -0.64891   3.67178   7.05768   1.87795   0.00625   9.968E-01   9.564E-03  -6.740E-03
 639  8.17500564   0.707  -0.64890   3.67178   7.05766   1.87794   0.00619   9.968E-01   9.531E-03  -6.686E-03
 640  8.17638200   0.707  -0.64889   3.67177   7.05763   1.87793   0.00613   9.967E-01   9.498E-03  -6.632E-03
 641  8.17775402   0.707  -0.64888   3.67177   7.05760   1.87793   0.00608   9.967E-01   9.466E-03  -6.578E-03
 642  8.17912171   0.707  -0.64887   3.67176   7.05758   1.87792   0.00602   9.966E-01   9.433E-03  -6.524E-03
 643  8.18048511   0.707  -0.64885   3.67176   7.05755   1.87791   0.00596   9.966E-01   9.400E-03  -6.470E-03
 644  8.18184424   0.707  -0.64884   3.67176   7.05753   1.87791   0.00590   9.966E-01   9.367E-03  -6.416E-03
 645  8.18319914   0.707  -0.64883   3.67175   7.05750   1.87790   0.00585   9.965E-01   9.335E-03  -6.362E-03
 646  8.18454981   0.707  -0.64882   3.67175   7.05747   1.87789   0.00579   9.965E-01   9.302E-03  -6.308E-03
 647  8.18589631   0.707  -0.64881   3.67174   7.05745   1.87789   0.00573   9.964E-01   9.269E-03  -6.254E-03
 648  8.18723863   0.707  -0.64880   3.67174   7.05742   1.87788   0.00568   9.964E-01   9.237E-03  -6.201E-03
 649  8.18857683   0.707  -0.64878   3.67174   7.05739   1.87787   0.00562   9.963E-01   9.204E-03  -6.147E-03
 650  8.18991091   0.707  -0.64877   3.67173   7.05737   1.87787   0.00556   9.963E-01   9.171E-03  -6.093E-03
 651  8.19124091   0.707  -0.64876   3.67173   7.05734   1.87786   0.00550   9.962E-01   9.139E-03  -6.039E-03
 652  8.19256684   0.707  -0.64875   3.67172   7.05732   1.87785   0.00545   9.962E-01   9.106E-03  -5.985E-03
 653  8.19388874   0.707  -0.64874   3.67172   7.05729   1.87785   0.00539   9.961E-01   9.073E-03  -5.931E-03
 654  8.19520663   0.707  -0.64872   3.67172   7.05726   1.87784   0.00533   9.961E-01   9.040E-03  -5.877E-03
 655  8.19652054   0.707  -0.64871   3.67171   7.05724   1.87783   0.00527   9.960E-01   9.008E-03  -5.823E-03
 656  8.19783047   0.707  -0.64870   3.67171   7.05722   1.87783   0.00524   9.960E-01   8.992E-03  -5.792E-03
 657  8.19913647   0.707  -0.64869   3.67171   7.05720   1.87783   0.00522   9.960E-01   8.981E-03  -5.769E-03
 658  8.20043856   0.707  -0.64869   3.67170   7.05719   1.87783   0.00519   9.960E-01   8.970E-03  -5.745E-03
 659  8.20173675   0.706  -0.64868   3.67170   7.05717   1.87783   0.00517   9.960E-01   8.959E-03  -5.722E-03
 660  8.20303107   0.706  -0.64867   3.67170   7.05716   1.87782   0.00514   9.959E-01   8.948E-03  -5.698E-03
 661  8.20432155   0.706  -0.64866   3.67170   7.05714   1.87782   0.00512   9.959E-01   8.937E-03  -5.675E-03
 662  8.20560820   0.706  -0.64865   3.67169   7.05712   1.87782   0.00510   9.959E-01   8.926E-03  -5.652E-03
 663  8.20689106   0.706  -0.64864   3.67169   7.05711   1.87782   0.00507   9.959E-01   8.915E-03  -5.628E-03
 664  8.20817013   0.706  -0.64863   3.67169   7.05709   1.87782   0.00505   9.959E-01   8.904E-03  -5.605E-03
 665  8.20944545   0.706  -0.64862   3.67169   7.05708   1.87782   0.00502   9.959E-01   8.894E-03  -5.581E-03
 666  8.21071704   0.706  -0.64861   3.67168   7.05706   1.87782   0.00500   9.959E-01   8.883E-03  -5.558E-03
 667  8.21198491   0.706  -0.64861   3.67168   7.05705   1.87781   0.00497   9.959E-01   8.872E-03  -5.534E-03
 668  8.21324909   0.706  -0.64860   3.67168   7.05703   1.87781   0.00495   9.959E-01   8.861E-03  -5.511E-03
 669  8.21450960   0.706  -0.64859   3.67168   7.05701   1.87781   0.00493   9.958E-01   8.850E-03  -5.487E-03
 670  8.21576647   0.706  -0.64858   3.67167   7.05700   1.87781   0.00490   9.958E-01   8.839E-03  -5.464E-03
 671  8.21701971   0.706  -0.64857   3.67167   7.05698   1.87781   0.00488   9.958E-01   8.828E-03  -5.441E-03
 672  8.21826934   0.706  -0.64856   3.67167   7.05697   1.87781   0.00485   9.958E-01   8.817E-03  -5.417E-03
 673  8.21951539   0.706  -0.64855   3.67167   7.05695   1.87781   0.00483   9.958E-01   8.806E-03  -5.394E-03
 674  8.22075787   0.706  -0.64854   3.67166   7.05694   1.87781   0.00480   9.958E-01   8.795E-03  -5.370E-03
 675  8.22199680   0.706  -0.64854   3.67166   7.05692   1.87780   0.00478   9.958E-01   8.785E-03  -5.347E-03
 676  8.22323222   0.706  -0.64853   3.67166   7.05690   1.87780   0.00476   9.958E-01   8.774E-03  -5.323E-03
 677  8.22446413   0.706  -0.64852   3.67166   7.05689   1.87780   0.00473   9.958E-01   8.763E-03  -5.300E-03
 678  8.22569255   0.706  -0.64851   3.67165   7.05687   1.87780   0.00471   9.958E-01   8.752E-03  -5.277E-03
 679  8.22691751   0.706  -0.64850   3.67165   7.05686   1.87780   0.00468   9.957E-01   8.741E-03  -5.253E-03
 680  8.22813902   0.706  -0.64849   3.67165   7.05684   1.87780   0.00466   9.957E-01   8.730E-03  -5.230E-03
 681  8.22935711   0.706  -0.64848   3.67165   7.05683   1.87780   0.00463   9.957E-01   8.719E-03  -5.206E-03
 682  8.23057179   0.706  -0.64847   3.67164   7.05681   1.87779   0.00461   9.957E-01   8.708E-03  -5.183E-03
 683  8.23178308   0.706  -0.64846   3.67164   7.05679   1.87779   0.00459   9.957E-01   8.697E-03  -5.159E-03
 684  8.23299101   0.706  -0.64846   3.67164   7.05678   1.87779   0.00456   9.957E-01   8.686E-03  -5.136E-03
 685  8.23419558   0.706  -0.64845   3.67164   7.05676   1.87779   0.00454   9.957E-01   8.676E-03  -5.112E-03
 686  8.23539682   0.706  -0.64844   3.67163   7.05675   1.87779   0.00451   9.957E-01   8.665E-03  -5.089E-03
 687  8.23659475   0.706  -0.64843   3.67163   7.05673   1.87779   0.00449   9.957E-01   8.654E-03  -5.066E-03
 688  8.23778938   0.706  -0.64842   3.67163   7.05672   1.87779   0.00446   9.956E-01   8.643E-03  -5.042E-03
 689  8.23898074   0.706  -0.64841   3.67163   7.05670   1.87779   0.00444   9.956E-01   8.632E-03  -5.019E-03
 690  8.24016884   0.706  -0.64840   3.67162   7.05668   1.87778   0.00442   9.956E-01   8.621E-03  -4.995E-03
 691  8.24135369   0.706  -0.64839   3.67162   7.05667   1.87778   0.00439   9.956E-01   8.610E-03  -4.972E-03
 692  8.24253532   0.706  -0.64839   3.67162   7.05665   1.87778   0.00437   9.956E-01   8.599E-03  -4.948E-03
 693  8.24371375   0.706  -0.64838   3.67162   7.05664   1.87778   0.00434   9.956E-01   8.588E-03  -4.925E-03
 694  8.24488899   0.706  -0.64837   3.67161   7.05662   1.87778   0.00432   9.956E-01   8.577E-03  -4.902E-03
 695  8.24606105   0.706  -0.64836   3.67161   7.05661   1.87778   0.00429   9.956E-01   8.567E-03  -4.878E-03
 696  8.24722996   0.706  -0.64835   3.67161   7.05659   1.87778   0.00427   9.956E-01   8.556E-03  -4.855E-03
 697  8.24839573   0.706  -0.64834   3.67161   7.05657   1.87778   0.00424   9.955E-01   8.545E-03  -4.831E-03
 698  8.24955838   0.706  -0.64833   3.67160   7.05656   1.87777   0.00422   9.955E-01   8.534E-03  -4.808E-03
 699  8.25071793   0.706  -0.64832   3.67160   7.05654   1.87777   0.00420   9.955E-01   8.523E-03  -4.784E-03
 700  8.25187439   0.706  -0.64831   3.67160   7.05653   1.87777   0.00417   9.955E-01   8.512E-03  -4.761E-03
 701  8.25302778   0.706  -0.64831   3.67160   7.05651   1.87777   0.00415   9.955E-01   8.501E-03  -4.738E-03
 702  8.25417811   0.706  -0.64830   3.67159   7.05650   1.87777   0.00412   9.955E-01   8.490E-03  -4.714E-03
 703  8.25532541   0.706  -0.64829   3.67159   7.05648   1.87777   0.00410   9.955E-01   8.479E-03  -4.691E-03
 704  8.25646968   0.706  -0.64828   3.67159   7.05646   1.87777   0.00407   9.955E-01   8.468E-03  -4.667E-03
 705  8.25761094   0.706  -0.64827   3.67159   7.05645   1.87776   0.00405   9.955E-01   8.458E-03  -4.644E-03
 706  8.25874922   0.706  -0.64826   3.67158   7.05643   1.87776   0.00403   9.954E-01   8.447E-03  -4.620E-03
 707  8.25988451   0.706  -0.64825   3.67158   7.05642   1.87776   0.00400   9.954E-01   8.436E-03  -4.597E-03
 708  8.26101685   0.706  -0.64824   3.67158   7.05640   1.87776   0.00398   9.954E-01   8.425E-03  -4.573E-03
 709  8.26214624   0.706  -0.64824   3.67158   7.05639   1.87776   0.00395   9.954E-01   8.414E-03  -4.550E-03
 710  8.26327271   0.706  -0.64823   3.67157   7.05637   1.87776   0.00393   9.954E-01   8.403E-03  -4.527E-03
 711  8.26439626   0.706  -0.64822   3.67157   7.05635   1.87776   0.00390   9.954E-01   8.392E-03  -4.503E-03
 712  8.26551691   0.706  -0.64821   3.67157   7.05634   1.87776   0.00388   9.954E-01   8.381E-03  -4.480E-03
 713  8.26663467   0.706  -0.64820   3.67157   7.05632   1.87775   0.00386   9.954E-01   8.370E-03  -4.456E-03
 714  8.26774957   0.706  -0.64819   3.67156   7.05631   1.87775   0.00383   9.954E-01   8.359E-03  -4.433E-03
 715  8.26886161   0.706  -0.64818   3.67156   7.05629   1.87775   0.00381   9.953E-01   8.349E-03  -4.409E-03
 716  8.26997081   0.706  -0.64817   3.67156   7.05628   1.87775   0.00378   9.953E-01   8.338E-03  -4.386E-03
 717  8.27107719   0.706  -0.64816   3.67156   7.05626   1.87775   0.00376   9.953E-01   8.327E-03  -4.363E-03
 718  8.27218075   0.706  -0.64816   3.67155   7.05624   1.87775   0.00373   9.953E-01   8.316E-03  -4.339E-03
 719  8.27328152   0.706  -0.64815   3.67155   7.05623   1.87775   0.00371   9.953E-01   8.305E-03  -4.316E-03
 720  8.27437950   0.706  -0.64814   3.67155   7.05621   1.87775   0.00369   9.953E-01   8.294E-03  -4.292E-03
 721  8.27547472   0.706  -0.64813   3.67155   7.05620   1.87774   0.00366   9.953E-01   8.283E-03  -4.269E-03
 722  8.27656718   0.706  -0.64812   3.67154   7.05618   1.87774   0.00364   9.953E-01   8.272E-03  -4.245E-03
 723  8.27765690   0.705  -0.64811   3.67154   7.05617   1.87774   0.00361   9.953E-01   8.261E-03  -4.222E-03
 724  8.27874389   0.705  -0.64810   3.67154   7.05615   1.87774   0.00359   9.953E-01   8.250E-03  -4.198E-03
 725  8.27982817   0.705  -0.64809   3.67154   7.05613   1.87774   0.00356   9.952E-01   8.240E-03  -4.175E-03
 726  8.28090975   0.705  -0.64809   3.67153   7.05612   1.87774   0.00354   9.952E-01   8.229E-03  -4.152E-03
 727  8.28198864   0.705  -0.64808   3.67153   7.05610   1.87774   0.00352   9.952E-01   8.218E-03  -4.128E-03
 728  8.28306485   0.705  -0.64807   3.67153   7.05609   1.87773   0.00349   9.952E-01   8.207E-03  -4.105E-03
 729  8.28413841   0.705  -0.64806   3.67153   7.05607   1.87773   0.00347   9.952E-01   8.196E-03  -4.081E-03
 730  8.28520932   0.705  -0.64805   3.67152   7.05606   1.87773   0.00344   9.952E-01   8.185E-03  -4.058E-03
 731  8.28627760   0.705  -0.64804   3.67152   7.05604   1.87773   0.00342   9.952E-01   8.174E-03  -4.034E-03
 732  8.28734325   0.705  -0.64803   3.67152   7.05603   1.87773   0.00339   9.952E-01   8.163E-03  -4.011E-03
 733  8.28840630   0.705  -0.64802   3.67152   7.05601   1.87773   0.00337   9.952E-01   8.152E-03  -3.988E-03
 734  8.28946675   0.705  -0.64801   3.67151   7.05599   1.87773   0.00335   9.951E-01   8.141E-03  -3.964E-03
 735  8.29052461   0.705  -0.64801   3.67151   7.05598   1.87773   0.00332   9.951E-01   8.131E-03  -3.941E-03
 736  8.29157991   0.705  -0.64800   3.67151   7.05596   1.87772   0.00330   9.951E-01   8.120E-03  -3.917E-03
 737  8.29263265   0.705  -0.64799   3.67151   7.05595   1.87772   0.00327   9.951E-01   8.109E-03  -3.894E-03
 738  8.29368284   0.705  -0.64798   3.67150   7.05593   1.87772   0.00325   9.951E-01   8.098E-03  -3.870E-03
 739  8.29473050   0.705  -0.64797   3.67150   7.05592   1.87772   0.00322   9.951E-01   8.087E-03  -3.847E-03
 740  8.29577564   0.705  -0.64796   3.67150   7.05590   1.87772   0.00320   9.951E-01   8.076E-03  -3.824E-03
 741  8.29681826   0.705  -0.64795   3.67149   7.05588   1.87772   0.00318   9.951E-01   8.065E-03  -3.800E-03
 742  8.29785840   0.705  -0.64794   3.67149   7.05587   1.87772   0.00315   9.951E-01   8.054E-03  -3.777E-03
 743  8.29889604   0.705  -0.64794   3.67149   7.05585   1.87772   0.00313   9.950E-01   8.043E-03  -3.753E-03
 744  8.29993122   0.705  -0.64793   3.67149   7.05584   1.87771   0.00310   9.950E-01   8.032E-03  -3.730E-03
 745  8.30096393   0.705  -0.64792   3.67148   7.05582   1.87771   0.00308   9.950E-01   8.022E-03  -3.706E-03
 746  8.30199419   0.705  -0.64791   3.67148   7.05581   1.87771   0.00305   9.950E-01   8.011E-03  -3.683E-03
 747  8.30302201   0.705  -0.64790   3.67148   7.05579   1.87771   0.00303   9.950E-01   8.000E-03  -3.660E-03
 748  8.30404741   0.705  -0.64789   3.67148   7.05578   1.87771   0.00301   9.950E-01   7.993E-03  -3.649E-03
 749  8.30507039   0.705  -0.64788   3.67148   7.05577   1.87771   0.00300   9.950E-01   7.985E-03  -3.639E-03
 750  8.30609097   0.705  -0.64788   3.67148   7.05576   1.87772   0.00298   9.950E-01   7.978E-03  -3.629E-03
 751  8.30710915   0.705  -0.64787   3.67147   7.05575   1.87772   0.00297   9.950E-01   7.971E-03  -3.618E-03
 752  8.30812496   0.705  -0.64786   3.67147   7.05575   1.87772   0.00295   9.950E-01   7.964E-03  -3.608E-03
 753  8.30913839   0.705  -0.64785   3.67147   7.05574   1.87772   0.00293   9.950E-01   7.956E-03  -3.597E-03
 754  8.31014946   0.705  -0.64785   3.67147   7.05573   1.87773   0.00292   9.950E-01   7.949E-03  -3.587E-03
 755  8.31115819   0.705  -0.64784   3.67147   7.05572   1.87773   0.00290   9.950E-01   7.942E-03  -3.577E-03
 756  8.31216458   0.705  -0.64783   3.67147   7.05571   1.87773   0.00289   9.950E-01   7.934E-03  -3.566E-03
 757  8.31316864   0.705  -0.64782   3.67147   7.05570   1.87773   0.00287   9.950E-01   7.927E-03  -3.556E-03
 758  8.31417038   0.705  -0.64782   3.67146   7.05569   1.87774   0.00286   9.950E-01   7.920E-03  -3.545E-03
 759  8.31516982   0.705  -0.64781   3.67146   7.05568   1.87774   0.00284   9.950E-01   7.913E-03  -3.535E-03
 760  8.31616697   0.705  -0.64780   3.67146   7.05567   1.87774   0.00282   9.950E-01   7.905E-03  -3.525E-03
 761  8.31716183   0.705  -0.64780   3.67146   7.05567   1.87774   0.00281   9.950E-01   7.898E-03  -3.514E-03
 762  8.31815441   0.705  -0.64779   3.67146   7.05566   1.87775   0.00279   9.950E-01   7.891E-03  -3.504E-03
 763  8.31914474   0.705  -0.64778   3.67146   7.05565   1.87775   0.00278   9.950E-01   7.884E-03  -3.493E-03
 764  8.32013281   0.705  -0.64777   3.67146   7.05564   1.87775   0.00276   9.950E-01   7.876E-03  -3.483E-03
 765  8.32111863   0.705  -0.64777   3.67146   7.05563   1.87775   0.00274   9.950E-01   7.869E-03  -3.473E-03
 766  8.32210223   0.705  -0.64776   3.67145   7.05562   1.87776   0.00273   9.950E-01   7.862E-03  -3.462E-03
 767  8.32308360   0.705  -0.64775   3.67145   7.05561   1.87776   0.00271   9.950E-01   7.854E-03  -3.452E-03
 768  8.32406276   0.705  -0.64774   3.67145   7.05560   1.87776   0.00270   9.950E-01   7.847E-03  -3.442E-03
 769  8.32503972   0.705  -0.64774   3.67145   7.05559   1.87776   0.00268   9.950E-01   7.840E-03  -3.431E-03
 770  8.32601448   0.705  -0.64773   3.67145   7.05559   1.87777   0.00267   9.950E-01   7.833E-03  -3.421E-03
 771  8.32698706   0.705  -0.64772   3.67145   7.05558   1.87777   0.00265   9.950E-01   7.825E-03  -3.410E-03
 772  8.32795747   0.705  -0.64771   3.67145   7.05557   1.87777   0.00263   9.950E-01   7.818E-03  -3.400E-03
 773  8.32892572   0.705  -0.64771   3.67144   7.05556   1.87777   0.00262   9.950E-01   7.811E-03  -3.390E-03
 774  8.32989181   0.705  -0.64770   3.67144   7.05555   1.87778   0.00260   9.950E-01   7.804E-03  -3.379E-03
 775  8.33085575   0.705  -0.64769   3.67144   7.05554   1.87778   0.00259   9.950E-01   7.796E-03  -3.369E-03
 776  8.33181756   0.705  -0.64768   3.67144   7.05553   1.87778   0.00257   9.950E-01   7.789E-03  -3.358E-03
 777  8.33277725   0.705  -0.64768   3.67144   7.05552   1.87778   0.00255   9.950E-01   7.782E-03  -3.348E-03
 778  8.33373482   0.705  -0.64767   3.67144   7.05551   1.87779   0.00254   9.950E-01   7.775E-03  -3.338E-03
 779  8.33469028   0.705  -0.64766   3.67144   7.05551   1.87779   0.00252   9.950E-01   7.767E-03  -3.327E-03
 780  8.33564365   0.705  -0.64765   3.67143   7.05550   1.87779   0.00251   9.950E-01   7.760E-03  -3.317E-03
 781  8.33659493   0.705  -0.64765   3.67143   7.05549   1.87779   0.00249   9.950E-01   7.753E-03  -3.306E-03
 782  8.33754413   0.705  -0.64764   3.67143   7.05548   1.87780   0.00248   9.950E-01   7.745E-03  -3.296E-03
 783  8.33849126   0.705  -0.64763   3.67143   7.05547   1.87780   0.00246   9.950E-01   7.738E-03  -3.286E-03
 784  8.33943632   0.705  -0.64762   3.67143   7.05546   1.87780   0.00244   9.950E-01   7.731E-03  -3.275E-03
 785  8.34037934   0.705  -0.64762   3.67143   7.05545   1.87780   0.00243   9.950E-01   7.724E-03  -3.265E-03
 786  8.34132031   0.705  -0.64761   3.67143   7.05544   1.87781   0.00241   9.950E-01   7.716E-03  -3.254E-03
 787  8.34225925   0.704  -0.64760   3.67142   7.05544   1.87781   0.00240   9.950E-01   7.709E-03  -3.244E-03
 788  8.34319616   0.704  -0.64759   3.67142   7.05543   1.87781   0.00238   9.950E-01   7.702E-03  -3.234E-03
 789  8.34413106   0.704  -0.64759   3.67142   7.05542   1.87781   0.00236   9.950E-01   7.695E-03  -3.223E-03
 790  8.34506394   0.704  -0.64758   3.67142   7.05541   1.87782   0.00235   9.950E-01   7.687E-03  -3.213E-03
 791  8.34599483   0.704  -0.64757   3.67142   7.05540   1.87782   0.00233   9.950E-01   7.680E-03  -3.203E-03
 792  8.34692373   0.704  -0.64756   3.67142   7.05539   1.87782   0.00232   9.950E-01   7.673E-03  -3.192E-03
 793  8.34785064   0.704  -0.64756   3.67142   7.05538   1.87782   0.00230   9.950E-01   7.666E-03  -3.182E-03
 794  8.34877558   0.704  -0.64755   3.67142   7.05537   1.87783   0.00229   9.950E-01   7.658E-03  -3.171E-03
 795  8.34969856   0.704  -0.64754   3.67141   7.05536   1.87783   0.00227   9.950E-01   7.651E-03  -3.161E-03
 796  8.35061957   0.704  -0.64753   3.67141   7.05536   1.87783   0.00225   9.950E-01   7.644E-03  -3.151E-03
 797  8.35153864   0.704  -0.64753   3.67141   7.05535   1.87783   0.00224   9.950E-01   7.636E-03  -3.140E-03
 798  8.35245577   0.704  -0.64752   3.67141   7.05534   1.87784   0.00222   9.950E-01   7.629E-03  -3.130E-03
 799  8.35337096   0.704  -0.64751   3.67141   7.05533   1.87784   0.00221   9.950E-01   7.622E-03  -3.119E-03
 800  8.35428423   0.704  -0.64750   3.67141   7.05532   1.87784   0.00219   9.950E-01   7.615E-03  -3.109E-03
 801  8.35519559   0.704  -0.64750   3.67141   7.05531   1.87784   0.00217   9.950E-01   7.607E-03  -3.099E-03
 802  8.35610503   0.704  -0.64749   3.67140   7.05530   1.87785   0.00216   9.950E-01   7.600E-03  -3.088E-03
 803  8.35701258   0.704  -0.64748   3.67140   7.05529   1.87785   0.00214   9.950E-01   7.593E-03  -3.078E-03
 804  8.35791823   0.704  -0.64747   3.67140   7.05528   1.87785   0.00213   9.950E-01   7.586E-03  -3.067E-03
 805  8.35882199   0.704  -0.64747   3.67140   7.05528   1.87785   0.00211   9.950E-01   7.578E-03  -3.057E-03
 806  8.35972388   0.704  -0.64746   3.67140   7.05527   1.87786   0.00209   9.950E-01   7.571E-03  -3.047E-03
 807  8.36062391   0.704  -0.64745   3.67140   7.05526   1.87786   0.00208   9.950E-01   7.564E-03  -3.036E-03
 808  8.36152207   0.704  -0.64744   3.67140   7.05525   1.87786   0.00206   9.950E-01   7.557E-03  -3.026E-03
 809  8.36241837   0.704  -0.64744   3.67139   7.05524   1.87786   0.00205   9.950E-01   7.549E-03  -3.015E-03
 810  8.36331283   0.704  -0.64743   3.67139   7.05523   1.87787   0.00203   9.950E-01   7.542E-03  -3.005E-03
 811  8.36420545   0.704  -0.64742   3.67139   7.05522   1.87787   0.00202   9.950E-01   7.535E-03  -2.995E-03
 812  8.36509625   0.704  -0.64741   3.67139   7.05521   1.87787   0.00200   9.950E-01   7.527E-03  -2.984E-03
 813  8.36598521   0.704  -0.64741   3.67139   7.05520   1.87787   0.00198   9.950E-01   7.520E-03  -2.974E-03
 814  8.36687236   0.704  -0.64740   3.67139   7.05520   1.87788   0.00197   9.950E-01   7.513E-03  -2.964E-03
 815  8.36775771   0.704  -0.64739   3.67139   7.05519   1.87788   0.00195   9.950E-01   7.506E-03  -2.953E-03
 816  8.36864125   0.704  -0.64738   3.67138   7.05518   1.87788   0.00194   9.950E-01   7.498E-03  -2.943E-03
 817  8.36952300   0.704  -0.64738   3.67138   7.05517   1.87788   0.00192   9.950E-01   7.491E-03  -2.932E-03
 818  8.37040296   0.704  -0.64737   3.67138   7.05516   1.87789   0.00190   9.950E-01   7.484E-03  -2.922E-03
 819  8.37128114   0.704  -0.64736   3.67138   7.05515   1.87789   0.00189   9.950E-01   7.477E-03  -2.912E-03
 820  8.37215755   0.704  -0.64735   3.67138   7.05514   1.87789   0.00187   9.950E-01   7.469E-03  -2.901E-03
 821  8.37303220   0.704  -0.64735   3.67138   7.05513   1.87789   0.00186   9.950E-01   7.462E-03  -2.891E-03
 822  8.37390508   0.704  -0.64734   3.67138   7.05512   1.87790   0.00184   9.950E-01   7.455E-03  -2.880E-03
 823  8.37477622   0.704  -0.64733   3.67138   7.05512   1.87790   0.00183   9.950E-01   7.448E-03  -2.870E-03
 824  8.37564561   0.704  -0.64732   3.67137   7.05511   1.87790   0.00181   9.950E-01   7.440E-03  -2.860E-03
 825  8.37651327   0.704  -0.64732   3.67137   7.05510   1.87790   0.00179   9.950E-01   7.433E-03  -2.849E-03
 826  8.37737919   0.704  -0.64731   3.67137   7.05509   1.87791   0.00178   9.950E-01   7.426E-03  -2.839E-03
 827  8.37824340   0.704  -0.64730   3.67137   7.05508   1.87791   0.00176   9.950E-01   7.418E-03  -2.828E-03
 828  8.37910588   0.704  -0.64729   3.67137   7.05507   1.87791   0.00175   9.950E-01   7.411E-03  -2.818E-03
 829  8.37996666   0.704  -0.64729   3.67137   7.05506   1.87791   0.00173   9.950E-01   7.404E-03  -2.808E-03
 830  8.38082573   0.704  -0.64728   3.67137   7.05505   1.87792   0.00171   9.950E-01   7.397E-03  -2.797E-03
 831  8.38168311   0.704  -0.64727   3.67136   7.05505   1.87792   0.00170   9.950E-01   7.389E-03  -2.787E-03
 832  8.38253880   0.704  -0.64726   3.67136   7.05504   1.87792   0.00168   9.950E-01   7.382E-03  -2.776E-03
 833  8.38339280   0.704  -0.64726   3.67136   7.05503   1.87792   0.00167   9.950E-01   7.375E-03  -2.766E-03
 834  8.38424513   0.704  -0.64725   3.67136   7.05502   1.87793   0.00165   9.950E-01   7.368E-03  -2.756E-03
 835  8.38509579   0.704  -0.64724   3.67136   7.05501   1.87793   0.00164   9.950E-01   7.360E-03  -2.745E-03
 836  8.38594479   0.704  -0.64723   3.67136   7.05500   1.87793   0.00162   9.950E-01   7.353E-03  -2.735E-03
 837  8.38679213   0.704  -0.64723   3.67136   7.05499   1.87793   0.00160   9.950E-01   7.346E-03  -2.725E-03
 838  8.38763782   0.704  -0.64722   3.67135   7.05498   1.87793   0.00159   9.950E-01   7.339E-03  -2.714E-03
 839  8.38848187   0.704  -0.64721   3.67135   7.05497   1.87794   0.00157   9.950E-01   7.331E-03  -2.704E-03
 840  8.38932428   0.704  -0.64720   3.67135   7.05497   1.87794   0.00156   9.950E-01   7.324E-03  -2.693E-03
 841  8.39016506   0.704  -0.64720   3.67135   7.05496   1.87794   0.00154   9.950E-01   7.317E-03  -2.683E-03
 842  8.39100422   0.704  -0.64719   3.67135   7.05495   1.87794   0.00152   9.950E-01   7.309E-03  -2.673E-03
 843  8.39184175   0.704  -0.64718   3.67135   7.05494   1.87795   0.00151   9.950E-01   7.302E-03  -2.662E-03
 844  8.39267768   0.704  -0.64717   3.67135   7.05493   1.87795   0.00149   9.950E-01   7.295E-03  -2.652E-03
 845  8.39351199   0.704  -0.64717   3.67134   7.05492   1.87795   0.00148   9.950E-01   7.288E-03  -2.641E-03
 846  8.39434471   0.704  -0.64716   3.67134   7.05491   1.87795   0.00146   9.950E-01   7.280E-03  -2.631E-03
 847  8.39517584   0.704  -0.64715   3.67134   7.05490   1.87796   0.00145   9.950E-01   7.273E-03  -2.621E-03
 848  8.39600538   0.704  -0.64714   3.67134   7.05489   1.87796   0.00143   9.950E-01   7.266E-03  -2.610E-03
 849  8.39683333   0.704  -0.64714   3.67134   7.05489   1.87796   0.00141   9.950E-01   7.259E-03  -2.600E-03
 850  8.39765971   0.703  -0.64713   3.67134   7.05488   1.87796   0.00140   9.950E-01   7.251E-03  -2.589E-03
 851  8.39848452   0.703  -0.64712   3.67134   7.05487   1.87797   0.00138   9.950E-01   7.244E-03  -2.579E-03
 852  8.39930777   0.703  -0.64711   3.67133   7.05486   1.87797   0.00137   9.950E-01   7.237E-03  -2.569E-03
 853  8.40012946   0.703  -0.64711   3.67133   7.05485   1.87797   0.00135   9.950E-01   7.230E-03  -2.558E-03
 854  8.40094960   0.703  -0.64710   3.67133   7.05484   1.87797   0.00133   9.950E-01   7.222E-03  -2.548E-03
 855  8.40176819   0.703  -0.64709   3.67133   7.05483   1.87798   0.00132   9.950E-01   7.215E-03  -2.537E-03
 856  8.40258525   0.703  -0.64708   3.67133   7.05482   1.87798   0.00130   9.950E-01   7.208E-03  -2.527E-03
 857  8.40340076   0.703  -0.64708   3.67133   7.05481   1.87798   0.00129   9.950E-01   7.200E-03  -2.517E-03
 858  8.40421475   0.703  -0.64707   3.67133   7.05481   1.87798   0.00127   9.950E-01   7.193E-03  -2.506E-03
 859  8.40502722   0.703  -0.64706   3.67133   7.05480   1.87799   0.00126   9.950E-01   7.186E-03  -2.496E-03
 860  8.40583817   0.703  -0.64705   3.67132   7.05479   1.87799   0.00124   9.950E-01   7.179E-03  -2.485E-03
 861  8.40664761   0.703  -0.64705   3.67132   7.05478   1.87799   0.00122   9.950E-01   7.171E-03  -2.475E-03
 862  8.40745554   0.703  -0.64704   3.67132   7.05477   1.87799   0.00121   9.950E-01   7.164E-03  -2.465E-03
 863  8.40826197   0.703  -0.64703   3.67132   7.05476   1.87800   0.00119   9.950E-01   7.157E-03  -2.454E-03
 864  8.40906691   0.703  -0.64702   3.67132   7.05475   1.87800   0.00118   9.950E-01   7.150E-03  -2.444E-03
 865  8.40987036   0.703  -0.64702   3.67132   7.05474   1.87800   0.00116   9.950E-01   7.142E-03  -2.434E-03
 866  8.41067232   0.703  -0.64701   3.67132   7.05473   1.87800   0.00114   9.950E-01   7.135E-03  -2.423E-03
 867  8.41147281   0.703  -0.64700   3.67131   7.05473   1.87801   0.00113   9.950E-01   7.128E-03  -2.413E-03
 868  8.41227182   0.703  -0.64699   3.67131   7.05472   1.87801   0.00111   9.950E-01   7.121E-03  -2.402E-03
 869  8.41306937   0.703  -0.64699   3.67131   7.05471   1.87801   0.00110   9.950E-01   7.113E-03  -2.392E-03
 870  8.41386546   0.703  -0.64698   3.67131   7.05470   1.87801   0.00108   9.950E-01   7.106E-03  -2.382E-03
 871  8.41466008   0.703  -0.64697   3.67131   7.05469   1.87802   0.00107   9.950E-01   7.099E-03  -2.371E-03
 872  8.41545326   0.703  -0.64696   3.67131   7.05468   1.87802   0.00105   9.950E-01   7.091E-03  -2.361E-03
 873  8.41624499   0.703  -0.64696   3.67131   7.05467   1.87802   0.00103   9.950E-01   7.084E-03  -2.350E-03
 874  8.41703528   0.703  -0.64695   3.67130   7.05466   1.87802   0.00102   9.950E-01   7.077E-03  -2.340E-03
 875  8.41782414   0.703  -0.64694   3.67130   7.05465   1.87803   0.00100   9.950E-01   7.070E-03  -2.330E-03
 876  8.41861156   0.703  -0.64693   3.67130   7.05465   1.87803   0.00099   9.950E-01   7.062E-03  -2.319E-03
 877  8.41939756   0.703  -0.64693   3.67130   7.05464   1.87803   0.00097   9.950E-01   7.055E-03  -2.309E-03
 878  8.42018214   0.703  -0.64692   3.67130   7.05463   1.87803   0.00095   9.950E-01   7.048E-03  -2.298E-03
 879  8.42096530   0.703  -0.64691   3.67130   7.05462   1.87804   0.00094   9.950E-01   7.041E-03  -2.288E-03
 880  8.42174706   0.703  -0.64690   3.67130   7.05461   1.87804   0.00092   9.950E-01   7.033E-03  -2.278E-03
 881  8.42252741   0.703  -0.64690   3.67129   7.05460   1.87804   0.00091   9.950E-01   7.026E-03  -2.267E-03
 882  8.42330636   0.703  -0.64689   3.67129   7.05459   1.87804   0.00089   9.950E-01   7.019E-03  -2.257E-03
 883  8.42408392   0.703  -0.64688   3.67129   7.05458   1.87805   0.00088   9.950E-01   7.012E-03  -2.246E-03
 884  8.42486008   0.703  -0.64687   3.67129   7.05458   1.87805   0.00086   9.950E-01   7.004E-03  -2.236E-03
 885  8.42563486   0.703  -0.64687   3.67129   7.05457   1.87805   0.00085   9.950E-01   7.000E-03  -2.228E-03
 886  8.42640826   0.703  -0.64686   3.67129   7.05456   1.87806   0.00084   9.950E-01   7.000E-03  -2.224E-03
 887  8.42718029   0.703  -0.64685   3.67129   7.05456   1.87806   0.00084   9.950E-01   7.000E-03  -2.219E-03
 888  8.42795095   0.703  -0.64685   3.67129   7.05455   1.87807   0.00084   9.950E-01   7.000E-03  -2.215E-03
 889  8.42872024   0.703  -0.64684   3.67129   7.05455   1.87807   0.00083   9.950E-01   7.000E-03  -2.210E-03
 890  8.42948817   0.703  -0.64683   3.67129   7.05455   1.87808   0.00083   9.950E-01   7.000E-03  -2.206E-03
 891  8.43025475   0.703  -0.64683   3.67129   7.05454   1.87808   0.00082   9.950E-01   7.000E-03  -2.201E-03
 892  8.43101997   0.703  -0.64682   3.67129   7.05454   1.87809   0.00082   9.950E-01   7.000E-03  -2.197E-03
 893  8.43178385   0.703  -0.64681   3.67129   7.05453   1.87809   0.00082   9.950E-01   7.000E-03  -2.192E-03
 894  8.43254639   0.703  -0.64680   3.67128   7.05453   1.87810   0.00081   9.950E-01   7.000E-03  -2.188E-03
 895  8.43330759   0.703  -0.64680   3.67128   7.05452   1.87810   0.00081   9.950E-01   7.000E-03  -2.184E-03
 896  8.43406746   0.703  -0.64679   3.67128   7.05452   1.87811   0.00080   9.950E-01   7.000E-03  -2.179E-03
 897  8.43482600   0.703  -0.64678   3.67128   7.05451   1.87811   0.00080   9.950E-01   7.000E-03  -2.175E-03
 898  8.43558322   0.703  -0.64678   3.67128   7.05451   1.87812   0.00079   9.950E-01   7.000E-03  -2.170E-03
 899  8.43633913   0.703  -0.64677   3.67128   7.05451   1.87812   0.00079   9.950E-01   7.000E-03  -2.166E-03
 900  8.43709372   0.703  -0.64676   3.67128   7.05450   1.87813   0.00079   9.950E-01   7.000E-03  -2.161E-03
 901  8.43784699   0.703  -0.64676   3.67128   7.05450   1.87814   0.00078   9.950E-01   7.000E-03  -2.157E-03
 902  8.43859897   0.703  -0.64675   3.67128   7.05449   1.87814   0.00078   9.950E-01   7.000E-03  -2.152E-03
 903  8.43934965   0.703  -0.64674   3.67128   7.05449   1.87815   0.00077   9.950E-01   7.000E-03  -2.148E-03
 904  8.44009903   0.703  -0.64674   3.67128   7.05448   1.87815   0.00077   9.950E-01   7.000E-03  -2.143E-03
 905  8.44084712   0.703  -0.64673   3.67128   7.05448   1.87816   0.00077   9.950E-01   7.000E-03  -2.139E-03
 906  8.44159392   0.703  -0.64672   3.67128   7.05447   1.87816   0.00076   9.950E-01   7.000E-03  -2.135E-03
 907  8.44233944   0.703  -0.64671   3.67128   7.05447   1.87817   0.00076   9.950E-01   7.000E-03  -2.130E-03
 908  8.44308368   0.703  -0.64671   3.67128   7.05447   1.87817   0.00075   9.950E-01   7.000E-03  -2.126E-03
 909  8.44382665   0.703  -0.64670   3.67128   7.05446   1.87818   0.00075   9.950E-01   7.000E-03  -2.121E-03
 910  8.44456836   0.703  -0.64669   3.67128   7.05446   1.87818   0.00075   9.950E-01   7.000E-03  -2.117E-03
 911  8.44530879   0.703  -0.64669   3.67128   7.05445   1.87819   0.00074   9.950E-01   7.000E-03  -2.112E-03
 912  8.44604797   0.702  -0.64668   3.67128   7.05445   1.87819   0.00074   9.950E-01   7.000E-03  -2.108E-03
 913  8.44678589   0.702  -0.64667   3.67127   7.05444   1.87820   0.00073   9.950E-01   7.000E-03  -2.103E-03
 914  8.44752256   0.702  -0.64667   3.67127   7.05444   1.87820   0.00073   9.950E-01   7.000E-03  -2.099E-03
 915  8.44825798   0.702  -0.64666   3.67127   7.05443   1.87821   0.00072   9.950E-01   7.000E-03  -2.094E-03
 916  8.44899216   0.702  -0.64665   3.67127   7.05443   1.87821   0.00072   9.950E-01   7.000E-03  -2.090E-03
 917  8.44972510   0.702  -0.64665   3.67127   7.05443   1.87822   0.00072   9.950E-01   7.000E-03  -2.086E-03
 918  8.45045680   0.702  -0.64664   3.67127   7.05442   1.87822   0.00071   9.950E-01   7.000E-03  -2.081E-03
 919  8.45118728   0.702  -0.64663   3.67127   7.05442   1.87823   0.00071   9.950E-01   7.000E-03  -2.077E-03
 920  8.45191653   0.702  -0.64662   3.67127   7.05441   1.87823   0.00070   9.950E-01   7.000E-03  -2.072E-03
 921  8.45264455   0.702  -0.64662   3.67127   7.05441   1.87824   0.00070   9.950E-01   7.000E-03  -2.068E-03
 922  8.45337136   0.702  -0.64661   3.67127   7.05440   1.87824   0.00070   9.950E-01   7.000E-03  -2.063E-03
 923  8.45409695   0.702  -0.64660   3.67127   7.05440   1.87825   0.00069   9.950E-01   7.000E-03  -2.059E-03
 924  8.45482133   0.702  -0.64660   3.67127   7.05439   1.87825   0.00069   9.950E-01   7.000E-03  -2.054E-03
 925  8.45554451   0.702  -0.64659   3.67127   7.05439   1.87826   0.00068   9.950E-01   7.000E-03  -2.050E-03
 926  8.45626648   0.702  -0.64658   3.67127   7.05439   1.87826   0.00068   9.950E-01   7.000E-03  -2.045E-03
 927  8.45698725   0.702  -0.64658   3.67127   7.05438   1.87827   0.00068   9.950E-01   7.000E-03  -2.041E-03
 928  8.45770684   0.702  -0.64657   3.67127   7.05438   1.87828   0.00067   9.950E-01   7.000E-03  -2.037E-03
 929  8.45842523   0.702  -0.64656   3.67127   7.05437   1.87828   0.00067   9.950E-01   7.000E-03  -2.032E-03
 930  8.45914243   0.702  -0.64656   3.67127   7.05437   1.87829   0.00066   9.950E-01   7.000E-03  -2.028E-03
 931  8.45985845   0.702  -0.64655   3.67127   7.05436   1.87829   0.00066   9.950E-01   7.000E-03  -2.023E-03
 932  8.46057330   0.702  -0.64654   3.67126   7.05436   1.87830   0.00065   9.950E-01   7.000E-03  -2.019E-03
 933  8.46128696   0.702  -0.64653   3.67126   7.05435   1.87830   0.00065   9.950E-01   7.000E-03  -2.014E-03
 934  8.46199946   0.702  -0.64653   3.67126   7.05435   1.87831   0.00065   9.950E-01   7.000E-03  -2.010E-03
 935  8.46271079   0.702  -0.64652   3.67126   7.05435   1.87831   0.00064   9.950E-01   7.000E-03  -2.005E-03
 936  8.46342096   0.702  -0.64651   3.67126   7.05434   1.87832   0.00064   9.950E-01   7.000E-03  -2.001E-03
 937  8.46412997   0.702  -0.64651   3.67126   7.05434   1.87832   0.00063   9.950E-01   7.000E-03  -1.996E-03
 938  8.46483782   0.702  -0.64650   3.67126   7.05433   1.87833   0.00063   9.950E-01   7.000E-03  -1.992E-03
 939  8.46554452   0.702  -0.64649   3.67126   7.05433   1.87833   0.00063   9.950E-01   7.000E-03  -1.987E-03
 940  8.46625007   0.702  -0.64649   3.67126   7.05432   1.87834   0.00062   9.950E-01   7.000E-03  -1.983E-03
 941  8.46695448   0.702  -0.64648   3.67126   7.05432   1.87834   0.00062   9.950E-01   7.000E-03  -1.979E-03
 942  8.46765775   0.702  -0.64647   3.67126   7.05431   1.87835   0.00061   9.950E-01   7.000E-03  -1.974E-03
 943  8.46835988   0.702  -0.64647   3.67126   7.05431   1.87835   0.00061   9.950E-01   7.000E-03  -1.970E-03
 944  8.46906088   0.702  -0.64646   3.67126   7.05431   1.87836   0.00061   9.950E-01   7.000E-03  -1.965E-03
 945  8.46976075   0.702  -0.64645   3.67126   7.05430   1.87836   0.00060   9.950E-01   7.000E-03  -1.961E-03
 946  8.47045949   0.702  -0.64644   3.67126   7.05430   1.87837   0.00060   9.950E-01   7.000E-03  -1.956E-03
 947  8.47115711   0.702  -0.64644   3.67126   7.05429   1.87837   0.00059   9.950E-01   7.000E-03  -1.952E-03
 948  8.47185361   0.702  -0.64643   3.67126   7.05429   1.87838   0.00059   9.950E-01   7.000E-03  -1.947E-03
 949  8.47254899   0.702  -0.64642   3.67126   7.05428   1.87838   0.00058   9.950E-01   7.000E-03  -1.943E-03
 950  8.47324327   0.702  -0.64642   3.67126   7.05428   1.87839   0.00058   9.950E-01   7.000E-03  -1.938E-03
 951  8.47393643   0.702  -0.64641   3.67125   7.05427   1.87839   0.00058   9.950E-01   7.000E-03  -1.934E-03
 952  8.47462849   0.702  -0.64640   3.67125   7.05427   1.87840   0.00057   9.950E-01   7.000E-03  -1.930E-03
 953  8.47531945   0.702  -0.64640   3.67125   7.05427   1.87840   0.00057   9.950E-01   7.000E-03  -1.925E-03
 954  8.47600931   0.702  -0.64639   3.67125   7.05426   1.87841   0.00056   9.950E-01   7.000E-03  -1.921E-03
 955  8.47669808   0.702  -0.64638   3.67125   7.05426   1.87842   0.00056   9.950E-01   7.000E-03  -1.916E-03
 956  8.47738576   0.702  -0.64638   3.67125   7.05425   1.87842   0.00056   9.950E-01   7.000E-03  -1.912E-03
 957  8.47807235   0.702  -0.64637   3.67125   7.05425   1.87843   0.00055   9.950E-01   7.000E-03  -1.907E-03
 958  8.47875786   0.702  -0.64636   3.67125   7.05424   1.87843   0.00055   9.950E-01   7.000E-03  -1.903E-03
 959  8.47944228   0.702  -0.64635   3.67125   7.05424   1.87844   0.00054   9.950E-01   7.000E-03  -1.898E-03
 960  8.48012563   0.702  -0.64635   3.67125   7.05423   1.87844   0.00054   9.950E-01   7.000E-03  -1.894E-03
 961  8.48080791   0.702  -0.64634   3.67125   7.05423   1.87845   0.00054   9.950E-01   7.000E-03  -1.889E-03
 962  8.48148911   0.702  -0.64633   3.67125   7.05422   1.87845   0.00053   9.950E-01   7.000E-03  -1.885E-03
 963  8.48216925   0.702  -0.64633   3.67125   7.05422   1.87846   0.00053   9.950E-01   7.000E-03  -1.881E-03
 964  8.48284833   0.702  -0.64632   3.67125   7.05422   1.87846   0.00052   9.950E-01   7.000E-03  -1.876E-03
 965  8.48352634   0.702  -0.64631   3.67125   7.05421   1.87847   0.00052   9.950E-01   7.000E-03  -1.872E-03
 966  8.48420330   0.702  -0.64631   3.67125   7.05421   1.87847   0.00051   9.950E-01   7.000E-03  -1.867E-03
 967  8.48487920   0.702  -0.64630   3.67125   7.05420   1.87848   0.00051   9.950E-01   7.000E-03  -1.863E-03
 968  8.48555406   0.702  -0.64629   3.67125   7.05420   1.87848   0.00051   9.950E-01   7.000E-03  -1.858E-03
 969  8.48622787   0.702  -0.64629   3.67125   7.05419   1.87849   0.00050   9.950E-01   7.000E-03  -1.854E-03
 970  8.48690063   0.702  -0.64628   3.67124   7.05419   1.87849   0.00050   9.950E-01   7.000E-03  -1.849E-03
 971  8.48757235   0.702  -0.64627   3.67124   7.05418   1.87850   0.00049   9.950E-01   7.000E-03  -1.845E-03
 972  8.48824304   0.702  -0.64626   3.67124   7.05418   1.87850   0.00049   9.950E-01   7.000E-03  -1.840E-03
 973  8.48891269   0.702  -0.64626   3.67124   7.05418   1.87851   0.00049   9.950E-01   7.000E-03  -1.836E-03
 974  8.48958131   0.702  -0.64625   3.67124   7.05417   1.87851   0.00048   9.950E-01   7.000E-03  -1.831E-03
 975  8.49024890   0.701  -0.64624   3.67124   7.05417   1.87852   0.00048   9.950E-01   7.000E-03  -1.827E-03
 976  8.49091547   0.701  -0.64624   3.67124   7.05416   1.87852   0.00047   9.950E-01   7.000E-03  -1.823E-03
 977  8.49158102   0.701  -0.64623   3.67124   7.05416   1.87853   0.00047   9.950E-01   7.000E-03  -1.818E-03
 978  8.49224555   0.701  -0.64622   3.67124   7.05415   1.87853   0.00047   9.950E-01   7.000E-03  -1.814E-03
 979  8.49290906   0.701  -0.64622   3.67124   7.05415   1.87854   0.00046   9.950E-01   7.000E-03  -1.809E-03
 980  8.49357156   0.701  -0.64621   3.67124   7.05414   1.87854   0.00046   9.950E-01   7.000E-03  -1.805E-03
 981  8.49423305   0.701  -0.64620   3.67124   7.05414   1.87855   0.00045   9.950E-01   7.000E-03  -1.800E-03
 982  8.49489354   0.701  -0.64620   3.67124   7.05414   1.87855   0.00045   9.950E-01   7.000E-03  -1.796E-03
 983  8.49555302   0.701  -0.64619   3.67124   7.05413   1.87856   0.00044   9.950E-01   7.000E-03  -1.791E-03
 984  8.49621150   0.701  -0.64618   3.67124   7.05413   1.87857   0.00044   9.950E-01   7.000E-03  -1.787E-03
 985  8.49686899   0.701  -0.64617   3.67124   7.05412   1.87857   0.00044   9.950E-01   7.000E-03  -1.782E-03
 986  8.49752548   0.701  -0.64617   3.67124   7.05412   1.87858   0.00043   9.950E-01   7.000E-03  -1.778E-03
 987  8.49818098   0.701  -0.64616   3.67124   7.05411   1.87858   0.00043   9.950E-01   7.000E-03  -1.774E-03
 988  8.49883550   0.701  -0.64615   3.67123   7.05411   1.87859   0.00042   9.950E-01   7.000E-03  -1.769E-03
 989  8.49948902   0.701  -0.64615   3.67123   7.05410   1.87859   0.00042   9.950E-01   7.000E-03  -1.765E-03
 990  8.50014157   0.701  -0.64614   3.67123   7.05410   1.87860   0.00042   9.950E-01   7.000E-03  -1.760E-03
 991  8.50079314   0.701  -0.64613   3.67123   7.05410   1.87860   0.00041   9.950E-01   7.000E-03  -1.756E-03
 992  8.50144373   0.701  -0.64613   3.67123   7.05409   1.87861   0.00041   9.950E-01   7.000E-03  -1.751E-03
 993  8.50209335   0.701  -0.64612   3.67123   7.05409   1.87861   0.00040   9.950E-01   7.000E-03  -1.747E-03
 994  8.50274199   0.701  -0.64611   3.67123   7.05408   1.87862   0.00040   9.950E-01   7.000E-03  -1.742E-03
 995  8.50338968   0.701  -0.64611   3.67123   7.05408   1.87862   0.00040   9.950E-01   7.000E-03  -1.738E-03
 996  8.50403639   0.701  -0.64610   3.67123   7.05407   1.87863   0.00039   9.950E-01   7.000E-03  -1.733E-03
 997  8.50468215   0.701  -0.64609   3.67123   7.05407   1.87863   0.00039   9.950E-01   7.000E-03  -1.729E-03
 998  8.50532694   0.701  -0.64608   3.67123   7.05406   1.87864   0.00038   9.950E-01   7.000E-03  -1.725E-03
 999  8.50597078   0.701  -0.64608   3.67123   7.05406   1.87864   0.00038   9.950E-01   7.000E-03  -1.720E-03
1000  8.50661367   0.701  -0.64607   3.67123   7.05406   1.87865   0.00037   9.950E-01   7.000E-03  -1.716E-03
1001  8.50725560   0.701  -0.64606   3.67123   7.05405   1.87865   0.00037   9.950E-01   7.000E-03  -1.711E-03
1002  8.50789659   0.701  -0.64606   3.67123   7.05405   1.87866   0.00037   9.950E-01   7.000E-03  -1.707E-03
1003  8.50853664   0.701  -0.64605   3.67123   7.05404   1.87866   0.00036   9.950E-01   7.000E-03  -1.702E-03
1004  8.50917574   0.701  -0.64604   3.67123   7.05404   1.87867   0.00036   9.950E-01   7.000E-03  -1.698E-03
1005  8.50981390   0.701  -0.64604   3.67123   7.05403   1.87867   0.00035   9.950E-01   7.000E-03  -1.693E-03
1006  8.51045113   0.701  -0.64603   3.67123   7.05403   1.87868   0.00035   9.950E-01   7.000E-03  -1.689E-03
1007  8.51108742   0.701  -0.64602   3.67122   7.05402   1.87868   0.00035   9.950E-01   7.000E-03  -1.684E-03
1008  8.51172279   0.701  -0.64602   3.67122   7.05402   1.87869   0.00034   9.950E-01   7.000E-03  -1.680E-03
1009  8.51235722   0.701  -0.64601   3.67122   7.05402   1.87869   0.00034   9.950E-01   7.000E-03  -1.675E-03
1010  8.51299073   0.701  -0.64600   3.67122   7.05401   1.87870   0.00033   9.950E-01   7.000E-03  -1.671E-03
1011  8.51362332   0.701  -0.64599   3.67122   7.05401   1.87871   0.00033   9.950E-01   7.000E-03  -1.667E-03
1012  8.51425498   0.701  -0.64599   3.67122   7.05400   1.87871   0.00033   9.950E-01   7.000E-03  -1.662E-03
1013  8.51488573   0.701  -0.64598   3.67122   7.05400   1.87872   0.00032   9.950E-01   7.000E-03  -1.658E-03
1014  8.51551557   0.701  -0.64597   3.67122   7.05399   1.87872   0.00032   9.950E-01   7.000E-03  -1.653E-03
1015  8.51614449   0.701  -0.64597   3.67122   7.05399   1.87873   0.00031   9.950E-01   7.000E-03  -1.649E-03
1016  8.51677250   0.701  -0.64596   3.67122   7.05398   1.87873   0.00031   9.950E-01   7.000E-03  -1.644E-03
1017  8.51739961   0.701  -0.64595   3.67122   7.05398   1.87874   0.00030   9.950E-01   7.000E-03  -1.640E-03
1018  8.51802581   0.701  -0.64595   3.67122   7.05398   1.87874   0.00030   9.950E-01   7.000E-03  -1.635E-03
1019  8.51865111   0.701  -0.64594   3.67122   7.05397   1.87875   0.00030   9.950E-01   7.000E-03  -1.631E-03
1020  8.51927551   0.701  -0.64593   3.67122   7.05397   1.87875   0.00029   9.950E-01   7.000E-03  -1.626E-03
1021  8.51989901   0.701  -0.64592   3.67122   7.05396   1.87876   0.00029   9.950E-01   7.000E-03  -1.622E-03
1022  8.52052162   0.701  -0.64592   3.67122   7.05396   1.87876   0.00028   9.950E-01   7.000E-03  -1.618E-03
1023  8.52114334   0.701  -0.64591   3.67122   7.05395   1.87877   0.00028   9.950E-01   7.000E-03  -1.613E-03
1024  8.52176417   0.701  -0.64590   3.67122   7.05395   1.87877   0.00028   9.950E-01   7.000E-03  -1.609E-03
1025  8.52238412   0.701  -0.64590   3.67122   7.05394   1.87878   0.00027   9.950E-01   7.000E-03  -1.604E-03
1026  8.52300318   0.701  -0.64589   3.67121   7.05394   1.87878   0.00027   9.950E-01   7.000E-03  -1.600E-03
1027  8.52362136   0.701  -0.64588   3.67121   7.05394   1.87879   0.00026   9.950E-01   7.000E-03  -1.595E-03
1028  8.52423866   0.701  -0.64588   3.67121   7.05393   1.87879   0.00026   9.950E-01   7.000E-03  -1.591E-03
1029  8.52485508   0.701  -0.64587   3.67121   7.05393   1.87880   0.00026   9.950E-01   7.000E-03  -1.586E-03
1030  8.52547063   0.701  -0.64586   3.67121   7.05392   1.87880   0.00025   9.950E-01   7.000E-03  -1.582E-03
1031  8.52608531   0.701  -0.64586   3.67121   7.05392   1.87881   0.00025   9.950E-01   7.000E-03  -1.577E-03
1032  8.52669912   0.701  -0.64585   3.67121   7.05391   1.87881   0.00024   9.950E-01   7.000E-03  -1.573E-03
1033  8.52731207   0.701  -0.64584   3.67121   7.05391   1.87882   0.00024   9.950E-01   7.000E-03  -1.569E-03
1034  8.52792415   0.701  -0.64583   3.67121   7.05390   1.87882   0.00023   9.950E-01   7.000E-03  -1.564E-03
1035  8.52853537   0.701  -0.64583   3.67121   7.05390   1.87883   0.00023   9.950E-01   7.000E-03  -1.560E-03
1036  8.52914573   0.701  -0.64582   3.67121   7.05390   1.87883   0.00023   9.950E-01   7.000E-03  -1.555E-03
1037  8.52975523   0.700  -0.64581   3.67121   7.05389   1.87884   0.00022   9.950E-01   7.000E-03  -1.551E-03
1038  8.53036388   0.700  -0.64581   3.67121   7.05389   1.87885   0.00022   9.950E-01   7.000E-03  -1.546E-03
1039  8.53097168   0.700  -0.64580   3.67121   7.05388   1.87885   0.00021   9.950E-01   7.000E-03  -1.542E-03
1040  8.53157862   0.700  -0.64579   3.67121   7.05388   1.87886   0.00021   9.950E-01   7.000E-03  -1.537E-03
1041  8.53218473   0.700  -0.64579   3.67121   7.05387   1.87886   0.00021   9.950E-01   7.000E-03  -1.533E-03
1042  8.53278998   0.700  -0.64578   3.67121   7.05387   1.87887   0.00020   9.950E-01   7.000E-03  -1.528E-03
1043  8.53339440   0.700  -0.64577   3.67121   7.05386   1.87887   0.00020   9.950E-01   7.000E-03  -1.524E-03
1044  8.53399797   0.700  -0.64577   3.67121   7.05386   1.87888   0.00019   9.950E-01   7.000E-03  -1.519E-03
1045  8.53460071   0.700  -0.64576   3.67120   7.05386   1.87888   0.00019   9.950E-01   7.000E-03  -1.515E-03
1046  8.53520261   0.700  -0.64575   3.67120   7.05385   1.87889   0.00019   9.950E-01   7.000E-03  -1.511E-03
1047  8.53580367   0.700  -0.64574   3.67120   7.05385   1.87889   0.00018   9.950E-01   7.000E-03  -1.506E-03
1048  8.53640391   0.700  -0.64574   3.67120   7.05384   1.87890   0.00018   9.950E-01   7.000E-03  -1.502E-03
1049  8.53700332   0.700  -0.64573   3.67120   7.05384   1.87890   0.00017   9.950E-01   7.000E-03  -1.497E-03
1050  8.53760190   0.700  -0.64572   3.67120   7.05383   1.87891   0.00017   9.950E-01   7.000E-03  -1.493E-03
1051  8.53819966   0.700  -0.64572   3.67120   7.05383   1.87891   0.00016   9.950E-01   7.000E-03  -1.488E-03
1052  8.53879660   0.700  -0.64571   3.67120   7.05382   1.87892   0.00016   9.950E-01   7.000E-03  -1.484E-03
1053  8.53939272   0.700  -0.64570   3.67120   7.05382   1.87892   0.00016   9.950E-01   7.000E-03  -1.479E-03
1054  8.53998802   0.700  -0.64570   3.67120   7.05381   1.87893   0.00015   9.950E-01   7.000E-03  -1.475E-03
1055  8.54058250   0.700  -0.64569   3.67120   7.05381   1.87893   0.00015   9.950E-01   7.000E-03  -1.470E-03
1056  8.54117618   0.700  -0.64568   3.67120   7.05381   1.87894   0.00014   9.950E-01   7.000E-03  -1.466E-03
1057  8.54176904   0.700  -0.64568   3.67120   7.05380   1.87894   0.00014   9.950E-01   7.000E-03  -1.462E-03
1058  8.54236109   0.700  -0.64567   3.67120   7.05380   1.87895   0.00014   9.950E-01   7.000E-03  -1.457E-03
1059  8.54295234   0.700  -0.64566   3.67120   7.05379   1.87895   0.00013   9.950E-01   7.000E-03  -1.453E-03
1060  8.54354279   0.700  -0.64565   3.67120   7.05379   1.87896   0.00013   9.950E-01   7.000E-03  -1.448E-03
1061  8.54413243   0.700  -0.64565   3.67120   7.05378   1.87896   0.00012   9.950E-01   7.000E-03  -1.444E-03
1062  8.54472127   0.700  -0.64564   3.67120   7.05378   1.87897   0.00012   9.950E-01   7.000E-03  -1.439E-03
1063  8.54530932   0.700  -0.64563   3.67119   7.05377   1.87897   0.00012   9.950E-01   7.000E-03  -1.435E-03
1064  8.54589657   0.700  -0.64563   3.67119   7.05377   1.87898   0.00011   9.950E-01   7.000E-03  -1.430E-03
1065  8.54648303   0.700  -0.64562   3.67119   7.05377   1.87899   0.00011   9.950E-01   7.000E-03  -1.426E-03
1066  8.54706870   0.700  -0.64561   3.67119   7.05376   1.87899   0.00010   9.950E-01   7.000E-03  -1.421E-03
1067  8.54765357   0.700  -0.64561   3.67119   7.05376   1.87900   0.00010   9.950E-01   7.000E-03  -1.417E-03
1068  8.54823767   0.700  -0.64560   3.67119   7.05375   1.87900   0.00009   9.950E-01   7.000E-03  -1.413E-03
1069  8.54882097   0.700  -0.64559   3.67119   7.05375   1.87901   0.00009   9.950E-01   7.000E-03  -1.408E-03
1070  8.54940350   0.700  -0.64559   3.67119   7.05374   1.87901   0.00009   9.950E-01   7.000E-03  -1.404E-03
1071  8.54998524   0.700  -0.64558   3.67119   7.05374   1.87902   0.00008   9.950E-01   7.000E-03  -1.399E-03
1072  8.55056621   0.700  -0.64557   3.67119   7.05373   1.87902   0.00008   9.950E-01   7.000E-03  -1.395E-03
1073  8.55114640   0.700  -0.64556   3.67119   7.05373   1.87903   0.00007   9.950E-01   7.000E-03  -1.390E-03
1074  8.55172582   0.700  -0.64556   3.67119   7.05373   1.87903   0.00007   9.950E-01   7.000E-03  -1.386E-03
1075  8.55230446   0.700  -0.64555   3.67119   7.05372   1.87904   0.00007   9.950E-01   7.000E-03  -1.381E-03
1076  8.55288233   0.700  -0.64554   3.67119   7.05372   1.87904   0.00006   9.950E-01   7.000E-03  -1.377E-03
1077  8.55345944   0.700  -0.64554   3.67119   7.05371   1.87905   0.00006   9.950E-01   7.000E-03  -1.372E-03
1078  8.55403578   0.700  -0.64553   3.67119   7.05371   1.87905   0.00005   9.950E-01   7.000E-03  -1.368E-03
1079  8.55461136   0.700  -0.64552   3.67119   7.05370   1.87906   0.00005   9.950E-01   7.000E-03  -1.363E-03
1080  8.55518617   0.700  -0.64552   3.67119   7.05370   1.87906   0.00005   9.950E-01   7.000E-03  -1.359E-03
1081  8.55576023   0.700  -0.64551   3.67119   7.05369   1.87907   0.00004   9.950E-01   7.000E-03  -1.355E-03
1082  8.55633352   0.700  -0.64550   3.67118   7.05369   1.87907   0.00004   9.950E-01   7.000E-03  -1.350E-03
1083  8.55690607   0.700  -0.64550   3.67118   7.05369   1.87908   0.00003   9.950E-01   7.000E-03  -1.346E-03
1084  8.55747785   0.700  -0.64549   3.67118   7.05368   1.87908   0.00003   9.950E-01   7.000E-03  -1.341E-03
1085  8.55804889   0.700  -0.64548   3.67118   7.05368   1.87909   0.00002   9.950E-01   7.000E-03  -1.337E-03
1086  8.55861918   0.700  -0.64547   3.67118   7.05367   1.87909   0.00002   9.950E-01   7.000E-03  -1.332E-03
1087  8.55918871   0.700  -0.64547   3.67118   7.05367   1.87910   0.00002   9.950E-01   7.000E-03  -1.328E-03
1088  8.55975751   0.700  -0.64546   3.67118   7.05366   1.87910   0.00001   9.950E-01   7.000E-03  -1.323E-03
1089  8.56032555   0.700  -0.64545   3.67118   7.05366   1.87911   0.00001   9.950E-01   7.000E-03  -1.319E-03
1090  8.56089286   0.700  -0.64545   3.67118   7.05365   1.87911   0.00000   9.950E-01   7.000E-03  -1.314E-03
1091  8.56145943   0.700  -0.64544   3.67118   7.05365   1.87912   0.00000   9.950E-01   7.000E-03  -1.310E-03
1092  8.75228644   0.693  -0.64279   3.67116   7.05317   1.88168   0.00000   9.950E-01   5.572E-03  -6.520E-04
1093  8.88440971   0.687  -0.64023   3.67125   7.05327   1.88466   0.00000   9.957E-01   5.000E-03  -3.294E-04
1094  8.98557407   0.680  -0.63762   3.67145   7.05369   1.88807   0.00000   9.960E-01   4.000E-03  -1.196E-04
1095  9.06756857   0.674  -0.63500   3.67170   7.05431   1.89177   0.00000   9.960E-01   4.000E-03  -2.358E-06
1096  9.13651373   0.668  -0.63238   3.67196   7.05504   1.89560   0.00000   9.966E-01   3.365E-03   7.065E-05
1097  9.19599844   0.661  -0.62977   3.67225   7.05584   1.89952   0.00000   9.970E-01   3.000E-03   1.210E-04
1098  9.24830847   0.655  -0.62717   3.67255   7.05670   1.90350   0.00000   9.970E-01   3.000E-03   1.554E-04
1099  9.29498974   0.649  -0.62457   3.67285   7.05758   1.90752   0.00000   9.970E-01   3.000E-03   1.819E-04
1100  9.33713679   0.642  -0.62199   3.67315   7.05849   1.91158   0.00000   9.970E-01   3.000E-03   2.035E-04
1101  9.37555299   0.636  -0.61940   3.67346   7.05941   1.91566   0.00000   9.970E-01   2.860E-03   2.218E-04
1102  9.41084547   0.629  -0.61681   3.67378   7.06036   1.91977   0.00000   9.970E-01   2.000E-03   2.382E-04
1103  9.44348424   0.623  -0.61423   3.67410   7.06132   1.92391   0.00000   9.970E-01   2.000E-03   2.537E-04
1104  9.47384063   0.616  -0.61164   3.67442   7.06228   1.92806   0.00000   9.980E-01   2.000E-03   2.672E-04
1105  9.50221307   0.610  -0.60904   3.67475   7.06326   1.93225   0.00000   9.980E-01   2.000E-03   2.808E-04
1106  9.52884507   0.604  -0.60645   3.67507   7.06425   1.93645   0.00000   9.980E-01   2.000E-03   2.931E-04
1107  9.55393787   0.597  -0.60385   3.67540   7.06526   1.94102   0.00000   9.980E-01   2.000E-03   3.043E-04
1108  9.57765969   0.591  -0.60125   3.67572   7.06634   1.94599   0.00000   9.980E-01   2.000E-03   3.078E-04
1109  9.60015263   0.584  -0.59864   3.67605   7.06744   1.95099   0.00000   9.980E-01   2.000E-03   3.135E-04
1110  9.62153775   0.578  -0.59603   3.67637   7.06858   1.95601   0.00000   9.980E-01   2.000E-03   3.192E-04
1111  9.64191909   0.572  -0.59340   3.67670   7.06974   1.96105   0.00000   9.980E-01   2.000E-03   3.256E-04
1112  9.66138665   0.565  -0.59075   3.67702   7.07093   1.96610   0.00000   9.980E-01   2.000E-03   3.318E-04
1113  9.68001888   0.559  -0.58808   3.67734   7.07213   1.97117   0.00000   9.980E-01   2.000E-03   3.394E-04
1114  9.69788452   0.552  -0.58540   3.67766   7.07335   1.97626   0.00000   9.980E-01   2.000E-03   3.467E-04
1115  9.71504417   0.546  -0.58270   3.67799   7.07458   1.98137   0.00000   9.980E-01   2.000E-03   3.557E-04
1116  9.73155150   0.539  -0.57997   3.67831   7.07582   1.98650   0.00000   9.980E-01   2.000E-03   3.638E-04
1117  9.74745430   0.533  -0.57723   3.67864   7.07707   1.99165   0.00000   9.980E-01   2.000E-03   3.731E-04
1118  9.76279530   0.526  -0.57447   3.67897   7.07834   1.99684   0.00000   9.980E-01   2.000E-03   3.822E-04
1119  9.77761282   0.520  -0.57167   3.67929   7.07961   2.00204   0.00000   9.980E-01   2.000E-03   3.924E-04
1120  9.79194143   0.513  -0.56886   3.67962   7.08089   2.00727   0.00000   9.980E-01   2.000E-03   4.026E-04
1121  9.80581236   0.506  -0.56603   3.67996   7.08217   2.01252   0.00000   9.980E-01   2.000E-03   4.124E-04
1122  9.81925394   0.500  -0.56318   3.68029   7.08348   2.01780   0.00000   9.980E-01   2.000E-03   4.232E-04
1123  9.83229196   0.493  -0.56030   3.68062   7.08478   2.02311   0.00000   9.980E-01   2.000E-03   4.341E-04
1124  9.84494995   0.486  -0.55740   3.68096   7.08609   2.02846   0.00000   9.980E-01   2.000E-03   4.442E-04
1125  9.85724942   0.480  -0.55447   3.68130   7.08741   2.03384   0.00000   9.980E-01   2.000E-03   4.558E-04
1126  9.86921015   0.473  -0.55152   3.68164   7.08873   2.03925   0.00000   9.980E-01   2.000E-03   4.666E-04
1127  9.88085027   0.466  -0.54855   3.68198   7.09007   2.04470   0.00000   9.980E-01   2.000E-03   4.794E-04
1128  9.89218654   0.460  -0.54555   3.68232   7.09140   2.05018   0.00000   9.980E-01   2.000E-03   4.904E-04
1129  9.90323441   0.453  -0.54253   3.68268   7.09275   2.05570   0.00000   9.980E-01   2.000E-03   5.049E-04
1130  9.91400820   0.446  -0.53947   3.68302   7.09410   2.06126   0.00000   9.980E-01   2.000E-03   5.174E-04
1131  9.92452118   0.439  -0.53640   3.68338   7.09547   2.06684   0.00000   9.980E-01   2.000E-03   5.302E-04
1132  9.93478567   0.432  -0.53330   3.68372   7.09683   2.07247   0.00000   9.980E-01   2.000E-03   5.450E-04
1133  9.94481315   0.426  -0.53018   3.68408   7.09821   2.07813   0.00000   9.980E-01   2.000E-03   5.571E-04
1134  9.95461432   0.419  -0.52703   3.68444   7.09959   2.08382   0.00000   9.980E-01   2.000E-03   5.692E-04
1135  9.96419917   0.412  -0.52385   3.68480   7.10099   2.08955   0.00000   9.980E-01   2.000E-03   5.829E-04
1136  9.97357704   0.405  -0.52065   3.68517   7.10239   2.09531   0.00000   9.980E-01   2.000E-03   5.971E-04
1137  9.98275668   0.399  -0.51743   3.68553   7.10380   2.10140   0.00000   9.980E-01   2.000E-03   6.101E-04
1138  9.99174631   0.392  -0.51418   3.68589   7.10524   2.10819   0.00000   9.980E-01   2.000E-03   6.206E-04
1139 10.00055362   0.386  -0.51091   3.68626   7.10674   2.11507   0.00000   9.980E-01   2.000E-03   6.310E-04
1140 10.00918587   0.379  -0.50760   3.68663   7.10828   2.12205   0.00000   9.980E-01   2.000E-03   6.441E-04
1141 10.01764988   0.373  -0.50427   3.68701   7.10985   2.12911   0.00000   9.980E-01   2.000E-03   6.583E-04
1142 10.02595208   0.366  -0.50091   3.68738   7.11146   2.13622   0.00000   9.980E-01   2.000E-03   6.694E-04
1143 10.03409855   0.359  -0.49753   3.68775   7.11310   2.14338   0.00000   9.980E-01   2.000E-03   6.792E-04
1144 10.04209501   0.353  -0.49411   3.68812   7.11476   2.15060   0.00000   9.980E-01   2.000E-03   6.895E-04
1145 10.04994690   0.346  -0.49067   3.68850   7.11645   2.15784   0.00000   9.980E-01   2.000E-03   7.011E-04
1146 10.05765934   0.339  -0.48720   3.68887   7.11817   2.16514   0.00000   9.980E-01   2.000E-03   7.135E-04
1147 10.06523721   0.332  -0.48370   3.68924   7.11992   2.17248   0.00000   9.980E-01   2.000E-03   7.241E-04
1148 10.07268512   0.325  -0.48018   3.68962   7.12169   2.17983   0.00000   9.970E-01   2.000E-03   7.349E-04
1149 10.08000745   0.319  -0.47662   3.68999   7.12347   2.18723   0.00000   9.970E-01   2.000E-03   7.488E-04
1150 10.08720837   0.312  -0.47302   3.69036   7.12529   2.19465   0.00000   9.970E-01   2.000E-03   7.600E-04
1151 10.09429184   0.305  -0.46939   3.69074   7.12711   2.20212   0.00000   9.970E-01   2.000E-03   7.722E-04
1152 10.10126163   0.298  -0.46574   3.69111   7.12896   2.20959   0.00000   9.970E-01   2.000E-03   7.871E-04
1153 10.10812133   0.292  -0.46204   3.69149   7.13083   2.21707   0.00000   9.970E-01   2.000E-03   8.021E-04
1154 10.11487436   0.285  -0.45831   3.69186   7.13272   2.22455   0.00000   9.970E-01   2.000E-03   8.131E-04
1155 10.12152399   0.279  -0.45455   3.69225   7.13462   2.23207   0.00000   9.970E-01   2.000E-03   8.287E-04
1156 10.12807333   0.272  -0.45075   3.69262   7.13654   2.23962   0.00000   9.970E-01   2.000E-03   8.434E-04
1157 10.13452538   0.266  -0.44691   3.69300   7.13846   2.24721   0.00000   9.970E-01   2.000E-03   8.549E-04
1158 10.14088298   0.259  -0.44304   3.69338   7.14041   2.25485   0.00000   9.970E-01   2.000E-03   8.715E-04
1159 10.14714884   0.253  -0.43912   3.69376   7.14238   2.26253   0.00000   9.970E-01   2.000E-03   8.857E-04
1160 10.15332559   0.247  -0.43517   3.69415   7.14436   2.27021   0.00000   9.962E-01   3.000E-03   9.000E-04
1161 10.15941572   0.240  -0.43117   3.69453   7.14635   2.27794   0.00000   9.960E-01   3.000E-03   9.163E-04
1162 10.16542163   0.234  -0.42713   3.69492   7.14835   2.28573   0.00000   9.960E-01   3.000E-03   9.298E-04
1163 10.17134562   0.228  -0.42305   3.69530   7.15037   2.29359   0.00000   9.960E-01   3.000E-03   9.461E-04
1164 10.17718988   0.222  -0.41892   3.69569   7.15240   2.30151   0.00000   9.960E-01   3.000E-03   9.631E-04
1165 10.18295654   0.216  -0.41475   3.69609   7.15444   2.30950   0.00000   9.960E-01   3.000E-03   9.779E-04
1166 10.18864764   0.210  -0.41053   3.69647   7.15650   2.31758   0.00000   9.959E-01   3.077E-03   9.954E-04
1167 10.19426511   0.204  -0.40627   3.69688   7.15856   2.32572   0.00000   9.950E-01   4.000E-03   1.012E-03
1168 10.19981086   0.198  -0.40196   3.69727   7.16064   2.33452   0.00000   9.950E-01   4.000E-03   1.023E-03
1169 10.20528668   0.192  -0.39760   3.69766   7.16275   2.34449   0.00000   9.950E-01   4.000E-03   1.045E-03
1170 10.21069432   0.186  -0.39321   3.69806   7.16498   2.35456   0.00000   9.943E-01   4.000E-03   1.050E-03
1171 10.21603545   0.180  -0.38876   3.69844   7.16727   2.36477   0.00000   9.940E-01   5.000E-03   1.069E-03
1172 10.22131169   0.174  -0.38426   3.69884   7.16960   2.37512   0.00000   9.940E-01   5.000E-03   1.082E-03
1173 10.22652460   0.168  -0.37970   3.69923   7.17197   2.38561   0.00000   9.936E-01   5.416E-03   1.104E-03
1174 10.23167568   0.163  -0.37510   3.69962   7.17439   2.39623   0.00000   9.930E-01   6.000E-03   1.117E-03
1175 10.23676638   0.157  -0.37045   3.70000   7.17684   2.40698   0.00000   9.930E-01   6.022E-03   1.140E-03
1176 10.24179809   0.151  -0.36572   3.70039   7.17934   2.41785   0.00000   9.920E-01   7.000E-03   1.147E-03
1177 10.24677218   0.145  -0.36094   3.70077   7.18187   2.42889   0.00000   9.913E-01   7.747E-03   1.167E-03
1178 10.25168994   0.139  -0.35609   3.70115   7.18443   2.44011   0.00000   9.908E-01   8.000E-03   1.192E-03
1179 10.25655264   0.134  -0.35118   3.70153   7.18702   2.45147   0.00000   9.900E-01   9.000E-03   1.206E-03
1180 10.26136149   0.128  -0.34619   3.70190   7.18964   2.46303   0.00000   9.890E-01   1.000E-02   1.241E-03
1181 10.26611768   0.122  -0.34113   3.70228   7.19229   2.47475   0.00000   9.880E-01   1.059E-02   1.256E-03
1182 10.27082235   0.117  -0.33601   3.70265   7.19498   2.48667   0.00000   9.870E-01   1.200E-02   1.281E-03
1183 10.27547660   0.111  -0.33079   3.70302   7.19769   2.49877   0.00000   9.860E-01   1.300E-02   1.307E-03
1184 10.28008149   0.106  -0.32549   3.70339   7.20044   2.51107   0.00000   9.846E-01   1.437E-02   1.324E-03
1185 10.28463807   0.101  -0.32011   3.70376   7.20324   2.52358   0.00000   9.830E-01   1.600E-02   1.360E-03
1186 10.28914734   0.095  -0.31464   3.70412   7.20608   2.53631   0.00000   9.812E-01   1.776E-02   1.378E-03
1187 10.29361027   0.090  -0.30909   3.70448   7.20899   2.54921   0.00000   9.790E-01   1.952E-02   1.410E-03
1188 10.29802781   0.085  -0.30346   3.70483   7.21197   2.56230   0.00000   9.767E-01   2.200E-02   1.433E-03
1189 10.30240086   0.080  -0.29769   3.70521   7.21505   2.57560   0.00000   9.738E-01   2.419E-02   1.476E-03
1190 10.30673032   0.075  -0.29190   3.70555   7.21823   2.58905   0.00000   9.709E-01   2.707E-02   1.471E-03
1191 10.31101705   0.070  -0.28602   3.70588   7.22155   2.60263   0.00000   9.680E-01   3.100E-02   1.490E-03
1192 10.31196669   0.068  -0.28470   3.70595   7.22231   2.60567   0.00000   9.667E-01   3.166E-02   1.490E-03
1193 10.31291425   0.067  -0.28337   3.70602   7.22308   2.60872   0.00000   9.657E-01   3.232E-02   1.496E-03
1194 10.31385976   0.066  -0.28205   3.70610   7.22384   2.61178   0.00000   9.650E-01   3.298E-02   1.510E-03
1195 10.31480321   0.065  -0.28072   3.70617   7.22463   2.61483   0.00000   9.644E-01   3.428E-02   1.510E-03
1196 10.31574461   0.064  -0.27939   3.70624   7.22543   2.61789   0.00000   9.634E-01   3.531E-02   1.510E-03
1197 10.31668398   0.063  -0.27805   3.70632   7.22622   2.62096   0.00000   9.621E-01   3.597E-02   1.510E-03
1198 10.31762132   0.062  -0.27671   3.70638   7.22704   2.62403   0.00000   9.614E-01   3.728E-02   1.510E-03
1199 10.31855664   0.060  -0.27536   3.70645   7.22786   2.62711   0.00000   9.604E-01   3.831E-02   1.513E-03
1200 10.31948995   0.059  -0.27401   3.70652   7.22869   2.63019   0.00000   9.590E-01   3.898E-02   1.520E-03
1201 10.32042126   0.058  -0.27267   3.70659   7.22954   2.63327   0.00000   9.577E-01   4.030E-02   1.527E-03
1202 10.32135058   0.057  -0.27131   3.70666   7.23039   2.63635   0.00000   9.567E-01   4.165E-02   1.530E-03
1203 10.32227791   0.056  -0.26996   3.70673   7.23125   2.63942   0.00000   9.560E-01   4.300E-02   1.530E-03
1204 10.32320327   0.054  -0.26860   3.70680   7.23213   2.64249   0.00000   9.546E-01   4.436E-02   1.530E-03
1205 10.32412666   0.053  -0.26724   3.70687   7.23301   2.64557   0.00000   9.533E-01   4.536E-02   1.530E-03
1206 10.32504809   0.052  -0.26587   3.70693   7.23390   2.64864   0.00000   9.519E-01   4.608E-02   1.530E-03
1207 10.32596757   0.051  -0.26450   3.70700   7.23482   2.65172   0.00000   9.506E-01   4.745E-02   1.537E-03
1208 10.32688510   0.050  -0.26313   3.70706   7.23574   2.65479   0.00000   9.492E-01   4.922E-02   1.540E-03
1209 10.32780071   0.048  -0.26175   3.70713   7.23667   2.65787   0.00000   9.478E-01   5.119E-02   1.540E-03
1210 10.32871438   0.047  -0.26039   3.70719   7.23761   2.66094   0.00000   9.464E-01   5.255E-02   1.540E-03
1211 10.32962614   0.046  -0.25901   3.70725   7.23857   2.66402   0.00000   9.446E-01   5.393E-02   1.540E-03
1212 10.33053599   0.045  -0.25763   3.70731   7.23953   2.66709   0.00000   9.427E-01   5.530E-02   1.538E-03
1213 10.33144394   0.043  -0.25624   3.70738   7.24050   2.67016   0.00000   9.413E-01   5.668E-02   1.532E-03
1214 10.33234999   0.042  -0.25486   3.70744   7.24149   2.67324   0.00000   9.399E-01   5.859E-02   1.535E-03
1215 10.33325415   0.041  -0.25348   3.70750   7.24249   2.67631   0.00000   9.383E-01   6.066E-02   1.540E-03
1216 10.33415644   0.040  -0.25210   3.70756   7.24349   2.67938   0.00000   9.363E-01   6.273E-02   1.540E-03
1217 10.33505686   0.038  -0.25071   3.70762   7.24450   2.68242   0.00000   9.342E-01   6.421E-02   1.540E-03
1218 10.33595541   0.037  -0.24933   3.70767   7.24551   2.68547   0.00000   9.321E-01   6.588E-02   1.540E-03
1219 10.33685211   0.036  -0.24795   3.70773   7.24653   2.68852   0.00000   9.300E-01   6.796E-02   1.540E-03
1220 10.33774696   0.035  -0.24655   3.70778   7.24754   2.69160   0.00000   9.280E-01   7.004E-02   1.533E-03
1221 10.33863997   0.033  -0.24516   3.70784   7.24857   2.69468   0.00000   9.258E-01   7.215E-02   1.553E-03
1222 10.33953115   0.032  -0.24375   3.70790   7.24961   2.69778   0.00000   9.237E-01   7.432E-02   1.603E-03
1223 10.34042050   0.031  -0.24232   3.70796   7.25067   2.70093   0.00000   9.214E-01   7.661E-02   1.695E-03
1224 10.34130803   0.029  -0.24089   3.70802   7.25173   2.70409   0.00000   9.190E-01   7.903E-02   1.784E-03
1225 10.34219376   0.028  -0.23945   3.70808   7.25278   2.70729   0.00000   9.164E-01   8.155E-02   1.877E-03
1226 10.34307768   0.027  -0.23801   3.70813   7.25382   2.71052   0.00000   9.142E-01   8.381E-02   1.970E-03
1227 10.34395981   0.025  -0.23657   3.70819   7.25484   2.71381   0.00000   9.120E-01   8.601E-02   2.064E-03
1228 10.34484015   0.024  -0.23512   3.70824   7.25583   2.71715   0.00000   9.090E-01   8.896E-02   2.165E-03
1229 10.34571871   0.023  -0.23366   3.70830   7.25679   2.72055   0.00000   9.063E-01   9.171E-02   2.279E-03
1230 10.34659549   0.021  -0.23219   3.70835   7.25771   2.72403   0.00000   9.037E-01   9.388E-02   2.394E-03
1231 10.34747051   0.020  -0.23072   3.70840   7.25860   2.72758   0.00000   9.008E-01   9.617E-02   2.508E-03
1232 10.34834377   0.019  -0.22924   3.70845   7.25944   2.73121   0.00000   8.984E-01   9.933E-02   2.628E-03
1233 10.34921527   0.018  -0.22775   3.70850   7.26023   2.73493   0.00000   8.959E-01   1.021E-01   2.743E-03
1234 10.35008503   0.017  -0.22625   3.70855   7.26096   2.73875   0.00000   8.933E-01   1.047E-01   2.867E-03
1235 10.35095306   0.015  -0.22474   3.70860   7.26165   2.74267   0.00000   8.906E-01   1.067E-01   2.976E-03
1236 10.35181935   0.014  -0.22321   3.70864   7.26229   2.74668   0.00000   8.878E-01   1.092E-01   3.091E-03
1237 10.35268391   0.013  -0.22168   3.70870   7.26289   2.75080   0.00000   8.848E-01   1.122E-01   3.217E-03
1238 10.35354676   0.012  -0.22013   3.70875   7.26343   2.75501   0.00000   8.828E-01   1.142E-01   3.331E-03
1239 10.35440790   0.011  -0.21851   3.70883   7.26393   2.75932   0.00000   8.796E-01   1.167E-01   3.445E-03
1240 10.35526733   0.011  -0.21694   3.70887   7.26438   2.76371   0.00000   8.774E-01   1.193E-01   3.549E-03
1241 10.35612507   0.010  -0.21535   3.70892   7.26481   2.76821   0.00000   8.750E-01   1.220E-01   3.660E-03
1242 10.35648870   0.009  -0.21467   3.70893   7.26497   2.77015   0.00000   8.735E-01   1.227E-01   3.696E-03
1243 10.35685203   0.009  -0.21398   3.70895   7.26513   2.77210   0.00000   8.725E-01   1.239E-01   3.733E-03
1244 10.35721505   0.009  -0.21330   3.70897   7.26528   2.77406   0.00000   8.716E-01   1.252E-01   3.772E-03
1245 10.35757777   0.008  -0.21262   3.70899   7.26543   2.77604   0.00000   8.701E-01   1.260E-01   3.817E-03
1246 10.35794019   0.008  -0.21193   3.70901   7.26557   2.77803   0.00000   8.693E-01   1.267E-01   3.856E-03
1247 10.35830230   0.008  -0.21123   3.70903   7.26570   2.78003   0.00000   8.680E-01   1.280E-01   3.899E-03
1248 10.35866412   0.007  -0.21054   3.70905   7.26583   2.78204   0.00000   8.667E-01   1.293E-01   3.943E-03
1249 10.35902563   0.007  -0.20984   3.70906   7.26597   2.78408   0.00000   8.660E-01   1.300E-01   3.982E-03
1250 10.35938684   0.007  -0.20914   3.70908   7.26609   2.78612   0.00000   8.652E-01   1.308E-01   4.022E-03
1251 10.35974775   0.007  -0.20844   3.70909   7.26620   2.78817   0.00000   8.637E-01   1.316E-01   4.062E-03
1252 10.36010836   0.006  -0.20774   3.70911   7.26631   2.79024   0.00000   8.626E-01   1.329E-01   4.102E-03
1253 10.36046867   0.006  -0.20704   3.70913   7.26641   2.79233   0.00000   8.617E-01   1.343E-01   4.143E-03
1254 10.36082869   0.006  -0.20633   3.70915   7.26652   2.79442   0.00000   8.609E-01   1.351E-01   4.183E-03
1255 10.36118840   0.006  -0.20561   3.70917   7.26662   2.79653   0.00000   8.601E-01   1.359E-01   4.217E-03
1256 10.36154782   0.005  -0.20490   3.70919   7.26671   2.79866   0.00000   8.585E-01   1.368E-01   4.250E-03
1257 10.36190694   0.005  -0.20419   3.70920   7.26681   2.80080   0.00000   8.574E-01   1.382E-01   4.284E-03
1258 10.36226577   0.005  -0.20347   3.70921   7.26690   2.80294   0.00000   8.565E-01   1.395E-01   4.318E-03
1259 10.36262429   0.005  -0.20275   3.70923   7.26698   2.80509   0.00000   8.557E-01   1.403E-01   4.352E-03
1260 10.36298252   0.005  -0.20203   3.70924   7.26707   2.80726   0.00000   8.546E-01   1.412E-01   4.389E-03
1261 10.36334046   0.004  -0.20132   3.70926   7.26715   2.80943   0.00000   8.529E-01   1.421E-01   4.432E-03
1262 10.36369810   0.004  -0.20058   3.70927   7.26722   2.81163   0.00000   8.521E-01   1.429E-01   4.467E-03
1263 10.36405545   0.004  -0.19986   3.70929   7.26730   2.81384   0.00000   8.512E-01   1.438E-01   4.503E-03
1264 10.36441250   0.004  -0.19912   3.70930   7.26738   2.81605   0.00000   8.503E-01   1.455E-01   4.546E-03
1265 10.36476926   0.004  -0.19839   3.70932   7.26745   2.81828   0.00000   8.494E-01   1.466E-01   4.585E-03
1266 10.36512573   0.003  -0.19766   3.70933   7.26752   2.82052   0.00000   8.485E-01   1.475E-01   4.616E-03
1267 10.36548191   0.003  -0.19692   3.70934   7.26759   2.82277   0.00000   8.471E-01   1.485E-01   4.649E-03
1268 10.36583779   0.003  -0.19618   3.70936   7.26766   2.82502   0.00000   8.456E-01   1.494E-01   4.686E-03
1269 10.36619338   0.003  -0.19543   3.70938   7.26772   2.82728   0.00000   8.447E-01   1.503E-01   4.723E-03
1270 10.36654868   0.003  -0.19468   3.70939   7.26779   2.82955   0.00000   8.437E-01   1.513E-01   4.761E-03
1271 10.36690370   0.003  -0.19393   3.70940   7.26784   2.83185   0.00000   8.428E-01   1.522E-01   4.794E-03
1272 10.36725842   0.003  -0.19319   3.70942   7.26787   2.83421   0.00000   8.418E-01   1.532E-01   4.814E-03
1273 10.36761285   0.002  -0.19244   3.70943   7.26793   2.83651   0.00000   8.409E-01   1.541E-01   4.836E-03
1274 10.36796699   0.002  -0.19168   3.70945   7.26800   2.83882   0.00000   8.399E-01   1.551E-01   4.875E-03
1275 10.36832084   0.002  -0.19091   3.70946   7.26806   2.84115   0.00000   8.389E-01   1.562E-01   4.914E-03
1276 10.36867441   0.002  -0.19015   3.70947   7.26812   2.84349   0.00000   8.378E-01   1.581E-01   4.954E-03
1277 10.36902769   0.002  -0.18939   3.70949   7.26817   2.84584   0.00000   8.359E-01   1.591E-01   4.991E-03
1278 10.36938068   0.002  -0.18864   3.70950   7.26819   2.84828   0.00000   8.349E-01   1.601E-01   5.000E-03
1279 10.36973338   0.002  -0.18787   3.70951   7.26825   2.85064   0.00000   8.339E-01   1.611E-01   5.003E-03
1280 10.37008580   0.002  -0.18710   3.70952   7.26831   2.85302   0.00000   8.329E-01   1.621E-01   5.035E-03
1281 10.37043793   0.002  -0.18633   3.70953   7.26837   2.85541   0.00000   8.318E-01   1.632E-01   5.078E-03
1282 10.37078978   0.002  -0.18556   3.70954   7.26842   2.85781   0.00000   8.308E-01   1.642E-01   5.128E-03
1283 10.37114134   0.002  -0.18478   3.70955   7.26849   2.86022   0.00000   8.297E-01   1.653E-01   5.173E-03
1284 10.37149262   0.001  -0.18400   3.70956   7.26855   2.86265   0.00000   8.287E-01   1.663E-01   5.226E-03
1285 10.37184361   0.001  -0.18322   3.70957   7.26860   2.86509   0.00000   8.276E-01   1.674E-01   5.275E-03
1286 10.37219432   0.001  -0.18244   3.70958   7.26864   2.86757   0.00000   8.265E-01   1.685E-01   5.309E-03
1287 10.37254475   0.001  -0.18166   3.70960   7.26868   2.87008   0.00000   8.255E-01   1.695E-01   5.331E-03
1288 10.37289490   0.001  -0.18087   3.70961   7.26873   2.87255   0.00000   8.244E-01   1.706E-01   5.366E-03
1289 10.37324476   0.001  -0.18003   3.70964   7.26880   2.87501   0.00000   8.232E-01   1.718E-01   5.433E-03
1290 10.37359434   0.001  -0.17923   3.70966   7.26886   2.87749   0.00000   8.221E-01   1.729E-01   5.459E-03
1291 10.37394364   0.001  -0.17844   3.70967   7.26892   2.87998   0.00000   8.210E-01   1.740E-01   5.500E-03
1292 10.37497452   0.001  -0.17612   3.70969   7.26908   2.88747   0.00000   8.178E-01   1.772E-01   4.959E-03
1293 10.37600296   0.001  -0.17379   3.70970   7.26921   2.89514   0.00000   8.151E-01   1.799E-01   4.276E-03
1294 10.37702897   0.001  -0.17144   3.70971   7.26935   2.90287   0.00000   8.127E-01   1.833E-01   3.732E-03
1295 10.37805256   0.000  -0.16908   3.70972   7.26945   2.91084   0.00000   8.101E-01   1.864E-01   3.222E-03
1296 10.37907374   0.000  -0.16670   3.70971   7.26957   2.91885   0.00000   8.075E-01   1.895E-01   2.771E-03
1297 10.38009253   0.000  -0.16432   3.70970   7.26969   2.92695   0.00000   8.044E-01   1.926E-01   2.379E-03
1298 10.38110894   0.000  -0.16193   3.70968   7.26977   2.93534   0.00000   8.025E-01   1.955E-01   2.027E-03
1299 10.38212297   0.000  -0.15953   3.70965   7.26994   2.94399   0.00000   7.989E-01   1.991E-01   1.817E-03
1300 10.38313464   0.000  -0.15707   3.70963   7.27017   2.95242   0.00000   7.953E-01   2.027E-01   1.859E-03
1301 10.38414395   0.000  -0.15454   3.70963   7.27041   2.96094   0.00000   7.916E-01   2.064E-01   1.888E-03
1302 10.38515093   0.000  -0.15194   3.70963   7.27070   2.96944   0.00000   7.878E-01   2.102E-01   1.954E-03
1303 10.38615558   0.000  -0.14941   3.70961   7.27104   2.97844   0.00000   7.839E-01   2.141E-01   1.955E-03
1304 10.38715791   0.000  -0.14686   3.70958   7.27126   2.98755   0.00000   7.801E-01   2.179E-01   1.867E-03
1305 10.38815793   0.000  -0.14427   3.70955   7.27153   2.99675   0.00000   7.762E-01   2.218E-01   1.888E-03
1306 10.38915566   0.000  -0.14166   3.70951   7.27182   3.00609   0.00000   7.713E-01   2.267E-01   1.896E-03
1307 10.39015109   0.000  -0.13904   3.70946   7.27213   3.01576   0.00000   7.674E-01   2.306E-01   1.864E-03
1308 10.39114425   0.000  -0.13639   3.70940   7.27247   3.02561   0.00000   7.635E-01   2.345E-01   1.867E-03
1309 10.39213515   0.000  -0.13369   3.70935   7.27278   3.03556   0.00000   7.585E-01   2.395E-01   1.895E-03
1310 10.39312379   0.000  -0.13097   3.70929   7.27313   3.04577   0.00000   7.544E-01   2.436E-01   1.899E-03
1311 10.39411018   0.000  -0.12823   3.70922   7.27347   3.05619   0.00000   7.495E-01   2.485E-01   1.854E-03
1312 10.39509434   0.000  -0.12542   3.70912   7.27386   3.06672   0.00000   7.449E-01   2.531E-01   1.908E-03
1313 10.39607627   0.000  -0.12263   3.70903   7.27424   3.07762   0.00000   7.400E-01   2.580E-01   1.897E-03
1314 10.39705599   0.000  -0.11981   3.70893   7.27462   3.08877   0.00000   7.348E-01   2.632E-01   1.850E-03
1315 10.39803350   0.000  -0.11699   3.70882   7.27514   3.10029   0.00000   7.301E-01   2.684E-01   1.826E-03
1316 10.39900882   0.000  -0.11412   3.70869   7.27567   3.11237   0.00000   7.245E-01   2.736E-01   1.774E-03
1317 10.39998195   0.000  -0.11117   3.70857   7.27610   3.12450   0.00000   7.190E-01   2.790E-01   1.860E-03
1318 10.40095291   0.000  -0.10820   3.70844   7.27656   3.13692   0.00000   7.137E-01   2.843E-01   1.864E-03
1319 10.40192170   0.000  -0.10524   3.70824   7.27714   3.14981   0.00000   7.078E-01   2.902E-01   1.795E-03
1320 10.40288833   0.000  -0.10222   3.70807   7.27762   3.16307   0.00000   7.019E-01   2.961E-01   1.791E-03
1321 10.40385282   0.000  -0.09916   3.70789   7.27816   3.17667   0.00000   6.968E-01   3.022E-01   1.807E-03
1322 10.40481517   0.000  -0.09607   3.70770   7.27874   3.19074   0.00000   6.906E-01   3.075E-01   1.766E-03
1323 10.40577540   0.000  -0.09291   3.70749   7.27932   3.20522   0.00000   6.844E-01   3.146E-01   1.710E-03
1324 10.40673350   0.000  -0.08975   3.70723   7.27994   3.22008   0.00000   6.770E-01   3.210E-01   1.780E-03
1325 10.40768950   0.000  -0.08657   3.70697   7.28058   3.23549   0.00000   6.707E-01   3.273E-01   1.664E-03
1326 10.40864339   0.000  -0.08333   3.70670   7.28127   3.25130   0.00000   6.642E-01   3.346E-01   1.626E-03
1327 10.40959520   0.000  -0.08000   3.70643   7.28200   3.26764   0.00000   6.560E-01   3.420E-01   1.676E-03
1328 10.41054492   0.000  -0.07672   3.70610   7.28278   3.28450   0.00000   6.487E-01   3.498E-01   1.621E-03
1329 10.41149257   0.000  -0.07340   3.70575   7.28360   3.30212   0.00000   6.405E-01   3.575E-01   1.527E-03
1330 10.41243816   0.000  -0.06993   3.70539   7.28445   3.32034   0.00000   6.321E-01   3.659E-01   1.555E-03
1331 10.41338169   0.000  -0.06651   3.70499   7.28540   3.33917   0.00000   6.234E-01   3.746E-01   1.503E-03
1332 10.41432318   0.000  -0.06308   3.70453   7.28635   3.35898   0.00000   6.147E-01   3.841E-01   1.399E-03
1333 10.41526263   0.000  -0.05952   3.70410   7.28735   3.37931   0.00000   6.051E-01   3.938E-01   1.409E-03
1334 10.41620006   0.000  -0.05603   3.70356   7.28847   3.40057   0.00000   5.946E-01   4.044E-01   1.237E-03
1335 10.41713546   0.000  -0.05239   3.70302   7.28963   3.42270   0.00000   5.839E-01   4.151E-01   1.226E-03
1336 10.41806885   0.000  -0.04882   3.70239   7.29088   3.44594   0.00000   5.728E-01   4.262E-01   1.012E-03
1337 10.41900025   0.000  -0.04513   3.70175   7.29220   3.47004   0.00000   5.602E-01   4.389E-01   9.996E-04
1338 10.41992965   0.000  -0.04146   3.70100   7.29367   3.49536   0.00000   5.483E-01   4.517E-01   8.333E-04
1339 10.42085706   0.000  -0.03769   3.70023   7.29529   3.52202   0.00000   5.341E-01   4.657E-01   7.858E-04
1340 10.42178250   0.000  -0.03342   3.69913   7.29795   3.55909   0.00000   5.237E-01   4.755E-01   3.480E-04
1341 10.42270597   0.976  -0.02906   3.69787   7.30005   3.59955   0.00000   5.090E-01   4.910E-01   1.780E-04
