 # M = 0.35 Mo, Y = 0.2700, Z = 2.00000E-02, alpha = 1.68, X_D = 4.0E-05
 # Solar Mixture: Asplund et al. (2005)         
 # ------------------------------------------------------------------------------------------------------------
 # NMD   LOG AGE    Xc      LOG L     LOG TE    LOG Tc   LOG RHOc    M-CC       L-PP       L-CNO       L-GRA
 #        (yr)              (Lo)        (K)       (K)   (gr/cm^3)    (Mo)        (L)         (L)         (L)
 # ------------------------------------------------------------------------------------------------------------
   1  5.09989113   0.710   0.02825   3.54963   6.01564  -0.79146   0.00000   9.940E-01   0.000E+00   6.280E-03
   2  5.34094558   0.710   0.01965   3.54938   6.01927  -0.78056   0.00000   9.465E-01   0.000E+00   5.385E-02
   3  5.49505155   0.710   0.01029   3.54909   6.02319  -0.76879   0.00000   9.410E-01   0.000E+00   5.951E-02
   4  5.60856569   0.710   0.00151   3.54882   6.02687  -0.75774   0.00000   9.437E-01   0.000E+00   5.673E-02
   5  5.69847385   0.710  -0.00593   3.54860   6.03000  -0.74833   0.00000   9.468E-01   0.000E+00   5.338E-02
   6  5.77292368   0.710  -0.01320   3.54839   6.03306  -0.73913   0.00000   9.499E-01   0.000E+00   4.995E-02
   7  5.83645905   0.710  -0.02008   3.54818   6.03593  -0.73050   0.00000   9.515E-01   0.000E+00   4.825E-02
   8  5.89187473   0.710  -0.02677   3.54796   6.03871  -0.72217   0.00000   9.522E-01   0.000E+00   4.741E-02
   9  5.94101287   0.710  -0.03346   3.54774   6.04149  -0.71383   0.00000   9.529E-01   0.000E+00   4.657E-02
  10  5.98515210   0.710  -0.04013   3.54753   6.04428  -0.70544   0.00000   9.521E-01   0.000E+00   4.744E-02
  11  6.02521625   0.710  -0.04680   3.54732   6.04707  -0.69704   0.00000   9.511E-01   0.000E+00   4.848E-02
  12  6.06189459   0.710  -0.05347   3.54711   6.04986  -0.68865   0.00000   9.501E-01   0.000E+00   4.952E-02
  13  6.09571505   0.710  -0.06063   3.54687   6.05283  -0.67972   0.00000   9.478E-01   0.000E+00   5.172E-02
  14  6.12709099   0.710  -0.06785   3.54663   6.05581  -0.67074   0.00000   9.455E-01   0.000E+00   5.402E-02
  15  6.15635207   0.710  -0.07506   3.54639   6.05880  -0.66176   0.00000   9.432E-01   0.000E+00   5.632E-02
  16  6.18376550   0.710  -0.08316   3.54612   6.06217  -0.65164   0.00000   9.390E-01   0.000E+00   6.065E-02
  17  6.20955080   0.710  -0.09133   3.54586   6.06557  -0.64141   0.00000   9.347E-01   0.000E+00   6.516E-02
  18  6.23389057   0.710  -0.09973   3.54558   6.06906  -0.63092   0.00000   9.299E-01   0.000E+00   7.012E-02
  19  6.25693833   0.710  -0.10939   3.54526   6.07308  -0.61884   0.00000   9.221E-01   0.000E+00   7.773E-02
  20  6.27882435   0.710  -0.11905   3.54495   6.07709  -0.60677   0.00000   9.143E-01   0.000E+00   8.533E-02
  21  6.29966016   0.710  -0.13012   3.54459   6.08171  -0.59288   0.00000   9.029E-01   0.000E+00   9.689E-02
  22  6.31954193   0.710  -0.14180   3.54421   6.08658  -0.57822   0.00000   8.898E-01   0.000E+00   1.101E-01
  23  6.33855323   0.710  -0.15512   3.54378   6.09216  -0.56145   0.00000   8.714E-01   0.000E+00   1.286E-01
  24  6.35676710   0.710  -0.16940   3.54333   6.09815  -0.54345   0.00000   8.498E-01   0.000E+00   1.502E-01
  25  6.37424774   0.710  -0.18656   3.54280   6.10537  -0.52170   0.00000   8.152E-01   0.000E+00   1.848E-01
  26  6.39105192   0.710  -0.20581   3.54223   6.11352  -0.49719   0.00000   7.691E-01   0.000E+00   2.309E-01
  27  6.40723004   0.710  -0.22816   3.54159   6.12305  -0.46857   0.00000   7.046E-01   0.000E+00   2.954E-01
  28  6.42282708   0.710  -0.25437   3.54088   6.13430  -0.43475   0.00000   6.149E-01   0.000E+00   3.851E-01
  29  6.43788334   0.710  -0.28466   3.54011   6.14739  -0.39536   0.00000   4.967E-01   0.000E+00   5.033E-01
  30  6.45243507   0.710  -0.31911   3.53928   6.16240  -0.35019   0.00000   3.562E-01   0.000E+00   6.438E-01
  31  6.46651499   0.710  -0.35579   3.53848   6.17857  -0.30155   0.00000   2.200E-01   0.000E+00   7.798E-01
  32  6.48015273   0.710  -0.39186   3.53777   6.19471  -0.25308   0.00000   1.513E-01   0.000E+00   8.487E-01
  33  6.49337522   0.710  -0.42497   3.53717   6.20954  -0.20839   0.00000   1.167E-01   0.000E+00   8.833E-01
  34  6.50620701   0.710  -0.45567   3.53666   6.22337  -0.16671   0.00000   8.496E-02   0.000E+00   9.150E-01
  35  6.51867052   0.710  -0.48429   3.53621   6.23634  -0.12765   0.00000   5.827E-02   0.000E+00   9.417E-01
  36  6.53078631   0.710  -0.51066   3.53584   6.24838  -0.09140   0.00000   3.921E-02   0.000E+00   9.608E-01
  37  6.54257325   0.710  -0.53517   3.53551   6.25961  -0.05751   0.00000   2.548E-02   0.000E+00   9.745E-01
  38  6.55404872   0.710  -0.55801   3.53522   6.27022  -0.02568   0.00000   1.623E-02   0.000E+00   9.838E-01
  39  6.56522876   0.710  -0.57928   3.53498   6.28006   0.00397   0.00000   1.023E-02   0.000E+00   9.898E-01
  40  6.57612820   0.710  -0.59911   3.53476   6.28924   0.03166   0.00000   5.979E-03   0.000E+00   9.940E-01
  41  6.58676078   0.710  -0.61766   3.53457   6.29786   0.05766   0.00000   4.000E-03   0.000E+00   9.960E-01
  42  6.60364863   0.710  -0.64555   3.53431   6.31088   0.09693   0.00000   1.512E-03   0.000E+00   9.985E-01
  43  6.61990429   0.710  -0.67114   3.53410   6.32287   0.13316   0.00000   1.000E-03   0.000E+00   9.990E-01
  44  6.63557338   0.710  -0.69457   3.53393   6.33390   0.16645   0.00000   0.000E+00   0.000E+00   1.000E+00
  45  6.65069678   0.710  -0.71610   3.53379   6.34408   0.19719   0.00000   0.000E+00   0.000E+00   1.000E+00
  46  6.66531121   0.710  -0.73613   3.53369   6.35358   0.22588   0.00000   0.000E+00   0.000E+00   1.000E+00
  47  6.67944982   0.710  -0.75483   3.53360   6.36248   0.25279   0.00000   0.000E+00   0.000E+00   1.000E+00
  48  6.69314262   0.710  -0.77237   3.53353   6.37087   0.27813   0.00000   0.000E+00   0.000E+00   1.000E+00
  49  6.70641686   0.710  -0.78889   3.53348   6.37878   0.30208   0.00000   0.000E+00   0.000E+00   1.000E+00
  50  6.71929738   0.710  -0.80455   3.53343   6.38630   0.32479   0.00000   0.000E+00   0.000E+00   1.000E+00
  51  6.73180686   0.710  -0.81918   3.53341   6.39336   0.34612   0.00000   0.000E+00   0.000E+00   1.000E+00
  52  6.74396608   0.710  -0.83313   3.53339   6.40010   0.36651   0.00000   0.000E+00   0.000E+00   1.000E+00
  53  6.75579412   0.710  -0.84650   3.53338   6.40657   0.38609   0.00000   0.000E+00   0.000E+00   1.000E+00
  54  6.76730855   0.710  -0.85929   3.53337   6.41277   0.40486   0.00000   0.000E+00   0.000E+00   1.000E+00
  55  6.77852556   0.710  -0.87136   3.53338   6.41863   0.42261   0.00000   0.000E+00   0.000E+00   1.000E+00
  56  6.78946014   0.710  -0.88307   3.53338   6.42433   0.43987   0.00000   0.000E+00   0.000E+00   1.000E+00
  57  6.80012616   0.710  -0.89426   3.53339   6.42979   0.45638   0.00000   0.000E+00   0.000E+00   1.000E+00
  58  6.81053649   0.710  -0.90498   3.53340   6.43502   0.47224   0.00000   0.000E+00   0.000E+00   1.000E+00
  59  6.82070311   0.710  -0.91544   3.53342   6.44013   0.48772   0.00000   0.000E+00   0.000E+00   1.000E+00
  60  6.83063717   0.710  -0.92535   3.53343   6.44498   0.50238   0.00000   0.000E+00   0.000E+00   1.000E+00
  61  6.84034907   0.710  -0.93515   3.53345   6.44977   0.51690   0.00000   0.000E+00   0.000E+00   1.000E+00
  62  6.84984853   0.710  -0.94436   3.53346   6.45428   0.53057   0.00000   0.000E+00   0.000E+00   1.000E+00
  63  6.85914465   0.710  -0.95353   3.53348   6.45878   0.54419   0.00000   0.000E+00   0.000E+00   1.000E+00
  64  6.86824594   0.710  -0.96217   3.53350   6.46301   0.55704   0.00000   0.000E+00   0.000E+00   1.000E+00
  65  6.87716041   0.710  -0.97076   3.53352   6.46722   0.56981   0.00000   0.000E+00   0.000E+00   1.000E+00
  66  6.88589558   0.710  -0.97895   3.53354   6.47124   0.58200   0.00000   0.000E+00   0.000E+00   1.000E+00
  67  6.89445850   0.710  -0.98700   3.53356   6.47518   0.59396   0.00000   0.000E+00   0.000E+00   1.000E+00
  68  6.90285586   0.710  -0.99485   3.53358   6.47903   0.60564   0.00000   0.000E+00   0.000E+00   1.000E+00
  69  6.91109392   0.710  -1.00240   3.53359   6.48273   0.61685   0.00000   0.000E+00   0.000E+00   1.000E+00
  70  6.91917862   0.710  -1.00994   3.53361   6.48643   0.62806   0.00000   0.000E+00   0.000E+00   1.000E+00
  71  6.92711556   0.710  -1.01705   3.53363   6.48992   0.63864   0.00000   0.000E+00   0.000E+00   1.000E+00
  72  6.93491005   0.710  -1.02410   3.53365   6.49339   0.64915   0.00000   0.000E+00   0.000E+00   1.000E+00
  73  6.94256711   0.710  -1.03105   3.53366   6.49679   0.65949   0.00000   0.000E+00   0.000E+00   1.000E+00
  74  6.95009151   0.710  -1.03766   3.53368   6.50004   0.66935   0.00000   0.000E+00   0.000E+00   1.000E+00
  75  6.95748776   0.710  -1.04428   3.53369   6.50328   0.67920   0.00000   0.000E+00   0.000E+00   1.000E+00
  76  6.96476015   0.710  -1.05072   3.53371   6.50644   0.68880   0.00000   0.000E+00   0.000E+00   1.000E+00
  77  6.97191277   0.710  -1.05692   3.53372   6.50948   0.69804   0.00000   0.000E+00   0.000E+00   1.000E+00
  78  6.97894949   0.710  -1.06312   3.53374   6.51252   0.70728   0.00000   0.000E+00   0.000E+00   1.000E+00
  79  6.98587402   0.710  -1.06917   3.53375   6.51549   0.71629   0.00000   0.000E+00   0.000E+00   1.000E+00
  80  6.99268987   0.710  -1.07498   3.53377   6.51834   0.72495   0.00000   0.000E+00   0.000E+00   1.000E+00
  81  6.99940040   0.710  -1.08079   3.53378   6.52119   0.73361   0.00000   0.000E+00   0.000E+00   1.000E+00
  82  7.00600882   0.710  -1.08654   3.53379   6.52401   0.74218   0.00000   0.000E+00   0.000E+00   1.000E+00
  83  7.01251818   0.710  -1.09199   3.53381   6.52668   0.75029   0.00000   0.000E+00   0.000E+00   1.000E+00
  84  7.01893143   0.710  -1.09743   3.53382   6.52936   0.75841   0.00000   0.000E+00   0.000E+00   1.000E+00
  85  7.02525134   0.710  -1.10288   3.53384   6.53203   0.76653   0.00000   0.000E+00   0.000E+00   1.000E+00
  86  7.03148060   0.710  -1.10808   3.53385   6.53458   0.77428   0.00000   0.000E+00   0.000E+00   1.000E+00
  87  7.03762178   0.710  -1.11319   3.53386   6.53708   0.78189   0.00000   0.000E+00   0.000E+00   1.000E+00
  88  7.04367733   0.710  -1.11831   3.53387   6.53958   0.78951   0.00000   0.000E+00   0.000E+00   1.000E+00
  89  7.04964960   0.710  -1.12340   3.53388   6.54207   0.79710   0.00000   0.000E+00   0.000E+00   1.000E+00
  90  7.05554085   0.710  -1.12819   3.53389   6.54442   0.80423   0.00000   0.000E+00   0.000E+00   1.000E+00
  91  7.06135326   0.710  -1.13298   3.53390   6.54676   0.81136   0.00000   0.000E+00   0.000E+00   1.000E+00
  92  7.06708890   0.710  -1.13777   3.53390   6.54911   0.81849   0.00000   0.000E+00   0.000E+00   1.000E+00
  93  7.07274978   0.710  -1.14252   3.53391   6.55143   0.82556   0.00000   0.000E+00   0.000E+00   1.000E+00
  94  7.07833782   0.710  -1.14701   3.53392   6.55363   0.83225   0.00000   0.000E+00   0.000E+00   1.000E+00
  95  7.08385488   0.710  -1.15151   3.53393   6.55582   0.83893   0.00000   0.000E+00   0.000E+00   1.000E+00
  96  7.08930272   0.710  -1.15601   3.53393   6.55802   0.84561   0.00000   0.000E+00   0.000E+00   1.000E+00
  97  7.09468307   0.710  -1.16051   3.53394   6.56021   0.85230   0.00000   0.000E+00   0.000E+00   1.000E+00
  98  7.09999758   0.710  -1.16474   3.53394   6.56227   0.85857   0.00000   0.000E+00   0.000E+00   1.000E+00
  99  7.10524785   0.710  -1.16895   3.53395   6.56433   0.86483   0.00000   0.000E+00   0.000E+00   1.000E+00
 100  7.11043540   0.710  -1.17317   3.53395   6.56638   0.87109   0.00000   0.000E+00   0.000E+00   1.000E+00
 101  7.11556171   0.710  -1.17738   3.53396   6.56844   0.87736   0.00000   0.000E+00   0.000E+00   1.000E+00
 102  7.12062822   0.710  -1.18146   3.53396   6.57043   0.88341   0.00000   0.000E+00   0.000E+00   1.000E+00
 103  7.12563631   0.710  -1.18541   3.53397   6.57236   0.88928   0.00000   0.000E+00   0.000E+00   1.000E+00
 104  7.13058730   0.710  -1.18937   3.53397   6.57428   0.89515   0.00000   0.000E+00   0.000E+00   1.000E+00
 105  7.13548248   0.710  -1.19332   3.53397   6.57621   0.90102   0.00000   0.000E+00   0.000E+00   1.000E+00
 106  7.14032311   0.710  -1.19728   3.53398   6.57813   0.90688   0.00000   0.000E+00   0.000E+00   1.000E+00
 107  7.14511037   0.710  -1.20104   3.53398   6.57997   0.91247   0.00000   0.000E+00   0.000E+00   1.000E+00
 108  7.14984544   0.710  -1.20475   3.53398   6.58177   0.91797   0.00000   0.000E+00   0.000E+00   1.000E+00
 109  7.15452944   0.710  -1.20846   3.53399   6.58358   0.92346   0.00000   0.000E+00   0.000E+00   1.000E+00
 110  7.15916346   0.710  -1.21216   3.53399   6.58538   0.92896   0.00000   0.000E+00   0.000E+00   1.000E+00
 111  7.16374856   0.710  -1.21587   3.53399   6.58719   0.93446   0.00000   0.000E+00   0.000E+00   1.000E+00
 112  7.16828575   0.710  -1.21941   3.53399   6.58891   0.93971   0.00000   0.000E+00   0.000E+00   1.000E+00
 113  7.17277603   0.710  -1.22289   3.53399   6.59059   0.94486   0.00000   0.000E+00   0.000E+00   1.000E+00
 114  7.17722036   0.710  -1.22637   3.53399   6.59228   0.95001   0.00000   0.000E+00   0.000E+00   1.000E+00
 115  7.18161967   0.710  -1.22984   3.53399   6.59397   0.95516   0.00000   0.000E+00   0.000E+00   1.000E+00
 116  7.18597486   0.710  -1.23332   3.53399   6.59565   0.96031   0.00000   0.000E+00   0.000E+00   1.000E+00
 117  7.19028681   0.710  -1.23673   3.53399   6.59731   0.96536   0.00000   0.000E+00   0.000E+00   1.000E+00
 118  7.19455637   0.710  -1.23999   3.53399   6.59889   0.97018   0.00000   0.000E+00   0.000E+00   1.000E+00
 119  7.19878436   0.710  -1.24325   3.53399   6.60047   0.97501   0.00000   0.000E+00   0.000E+00   1.000E+00
 120  7.20297159   0.710  -1.24651   3.53399   6.60205   0.97984   0.00000   0.000E+00   0.000E+00   1.000E+00
 121  7.20711884   0.710  -1.24978   3.53399   6.60363   0.98466   0.00000   0.000E+00   0.000E+00   1.000E+00
 122  7.21122685   0.710  -1.25304   3.53399   6.60521   0.98949   0.00000   0.000E+00   0.000E+00   1.000E+00
 123  7.21529637   0.710  -1.25618   3.53399   6.60673   0.99414   0.00000   9.295E-05   0.000E+00   9.999E-01
 124  7.21932811   0.710  -1.25924   3.53399   6.60821   0.99866   0.00000   2.560E-04   0.000E+00   9.997E-01
 125  7.22332277   0.710  -1.26230   3.53399   6.60969   1.00318   0.00000   4.190E-04   0.000E+00   9.996E-01
 126  7.22728101   0.710  -1.26536   3.53398   6.61118   1.00769   0.00000   5.820E-04   0.000E+00   9.994E-01
 127  7.23120351   0.710  -1.26842   3.53398   6.61266   1.01221   0.00000   7.451E-04   0.000E+00   9.993E-01
 128  7.23509090   0.710  -1.27148   3.53398   6.61414   1.01673   0.00000   9.081E-04   0.000E+00   9.991E-01
 129  7.23894380   0.710  -1.27445   3.53398   6.61557   1.02113   0.00000   1.000E-03   0.000E+00   9.990E-01
 130  7.24276281   0.710  -1.27732   3.53398   6.61696   1.02536   0.00000   1.000E-03   0.000E+00   9.990E-01
 131  7.24654854   0.710  -1.28020   3.53397   6.61835   1.02959   0.00000   1.000E-03   0.000E+00   9.990E-01
 132  7.25030155   0.710  -1.28307   3.53397   6.61973   1.03382   0.00000   1.000E-03   0.000E+00   9.990E-01
 133  7.25402241   0.710  -1.28594   3.53397   6.62112   1.03805   0.00000   1.000E-03   0.000E+00   9.990E-01
 134  7.25771166   0.710  -1.28881   3.53396   6.62251   1.04228   0.00000   1.000E-03   0.000E+00   9.990E-01
 135  7.26136984   0.710  -1.29168   3.53396   6.62389   1.04652   0.00000   1.000E-03   0.000E+00   9.990E-01
 136  7.26499745   0.710  -1.29439   3.53396   6.62520   1.05051   0.00000   1.000E-03   0.000E+00   9.990E-01
 137  7.26859502   0.710  -1.29709   3.53395   6.62649   1.05447   0.00000   1.000E-03   0.000E+00   9.990E-01
 138  7.27216303   0.710  -1.29978   3.53395   6.62779   1.05844   0.00000   1.000E-03   0.000E+00   9.990E-01
 139  7.27570197   0.710  -1.30247   3.53395   6.62909   1.06241   0.00000   1.000E-03   0.000E+00   9.990E-01
 140  7.27921230   0.710  -1.30516   3.53395   6.63039   1.06637   0.00000   1.000E-03   0.000E+00   9.990E-01
 141  7.28269448   0.710  -1.30786   3.53394   6.63168   1.07034   0.00000   1.000E-03   0.000E+00   9.990E-01
 142  7.28614897   0.710  -1.31055   3.53394   6.63298   1.07430   0.00000   1.000E-03   0.000E+00   9.990E-01
 143  7.28957619   0.710  -1.31309   3.53393   6.63420   1.07804   0.00000   1.000E-03   0.000E+00   9.990E-01
 144  7.29297658   0.710  -1.31562   3.53393   6.63542   1.08176   0.00000   1.000E-03   0.000E+00   9.990E-01
 145  7.29635056   0.710  -1.31814   3.53392   6.63663   1.08547   0.00000   1.000E-03   0.000E+00   9.990E-01
 146  7.29969852   0.710  -1.32067   3.53392   6.63785   1.08919   0.00000   1.000E-03   0.000E+00   9.990E-01
 147  7.30302087   0.710  -1.32320   3.53391   6.63906   1.09291   0.00000   1.000E-03   0.000E+00   9.990E-01
 148  7.30631800   0.710  -1.32573   3.53391   6.64028   1.09663   0.00000   1.000E-03   0.000E+00   9.990E-01
 149  7.30959029   0.710  -1.32826   3.53390   6.64149   1.10035   0.00000   1.000E-03   0.000E+00   9.990E-01
 150  7.31283810   0.710  -1.33070   3.53390   6.64267   1.10395   0.00000   1.000E-03   0.000E+00   9.990E-01
 151  7.31606181   0.710  -1.33308   3.53389   6.64381   1.10744   0.00000   1.000E-03   0.000E+00   9.990E-01
 152  7.31926176   0.710  -1.33545   3.53389   6.64494   1.11092   0.00000   1.000E-03   0.000E+00   9.990E-01
 153  7.32243831   0.710  -1.33782   3.53388   6.64608   1.11441   0.00000   1.000E-03   0.000E+00   9.990E-01
 154  7.32559179   0.710  -1.34020   3.53388   6.64722   1.11789   0.00000   1.000E-03   0.000E+00   9.990E-01
 155  7.32872254   0.710  -1.34257   3.53387   6.64836   1.12138   0.00000   1.000E-03   0.000E+00   9.990E-01
 156  7.33183088   0.710  -1.34494   3.53387   6.64950   1.12486   0.00000   1.000E-03   0.000E+00   9.990E-01
 157  7.33491713   0.710  -1.34731   3.53386   6.65064   1.12835   0.00000   1.000E-03   0.000E+00   9.990E-01
 158  7.33798161   0.710  -1.34960   3.53386   6.65173   1.13171   0.00000   1.070E-03   0.000E+00   9.989E-01
 159  7.34102461   0.710  -1.35183   3.53385   6.65280   1.13497   0.00000   1.189E-03   0.000E+00   9.988E-01
 160  7.34404644   0.710  -1.35405   3.53384   6.65386   1.13824   0.00000   1.308E-03   0.000E+00   9.987E-01
 161  7.34704739   0.710  -1.35628   3.53384   6.65493   1.14150   0.00000   1.426E-03   0.000E+00   9.986E-01
 162  7.35002775   0.710  -1.35850   3.53383   6.65599   1.14477   0.00000   1.545E-03   0.000E+00   9.985E-01
 163  7.35298779   0.710  -1.36073   3.53383   6.65706   1.14803   0.00000   1.664E-03   0.000E+00   9.983E-01
 164  7.35592779   0.710  -1.36295   3.53382   6.65812   1.15130   0.00000   1.782E-03   0.000E+00   9.982E-01
 165  7.35884802   0.710  -1.36518   3.53381   6.65919   1.15456   0.00000   1.901E-03   0.000E+00   9.981E-01
 166  7.36174875   0.710  -1.36738   3.53381   6.66024   1.15779   0.00000   2.000E-03   0.000E+00   9.980E-01
 167  7.36463024   0.710  -1.36947   3.53380   6.66124   1.16085   0.00000   2.000E-03   0.000E+00   9.980E-01
 168  7.36749273   0.710  -1.37156   3.53380   6.66224   1.16391   0.00000   2.000E-03   0.000E+00   9.980E-01
 169  7.37033647   0.710  -1.37365   3.53379   6.66324   1.16697   0.00000   2.000E-03   0.000E+00   9.980E-01
 170  7.37316172   0.710  -1.37574   3.53378   6.66424   1.17003   0.00000   2.000E-03   0.000E+00   9.980E-01
 171  7.37596871   0.710  -1.37783   3.53378   6.66524   1.17309   0.00000   2.000E-03   0.000E+00   9.980E-01
 172  7.37875767   0.710  -1.37992   3.53377   6.66623   1.17615   0.00000   2.000E-03   0.000E+00   9.980E-01
 173  7.38152884   0.710  -1.38201   3.53376   6.66723   1.17921   0.00000   2.000E-03   0.000E+00   9.980E-01
 174  7.38428243   0.710  -1.38410   3.53376   6.66823   1.18227   0.00000   2.000E-03   0.000E+00   9.980E-01
 175  7.38701868   0.710  -1.38616   3.53375   6.66922   1.18529   0.00000   2.019E-03   0.000E+00   9.980E-01
 176  7.38973779   0.710  -1.38812   3.53374   6.67015   1.18816   0.00000   2.123E-03   0.000E+00   9.979E-01
 177  7.39243999   0.710  -1.39008   3.53374   6.67108   1.19103   0.00000   2.228E-03   0.000E+00   9.978E-01
 178  7.39512547   0.710  -1.39204   3.53373   6.67202   1.19390   0.00000   2.332E-03   0.000E+00   9.977E-01
 179  7.39779445   0.710  -1.39399   3.53372   6.67295   1.19677   0.00000   2.436E-03   0.000E+00   9.976E-01
 180  7.40044713   0.710  -1.39595   3.53372   6.67389   1.19963   0.00000   2.541E-03   0.000E+00   9.975E-01
 181  7.40308371   0.710  -1.39791   3.53371   6.67482   1.20250   0.00000   2.645E-03   0.000E+00   9.974E-01
 182  7.40570438   0.710  -1.39987   3.53371   6.67575   1.20537   0.00000   2.750E-03   0.000E+00   9.973E-01
 183  7.40830932   0.710  -1.40183   3.53370   6.67669   1.20824   0.00000   2.854E-03   0.000E+00   9.971E-01
 184  7.41089874   0.710  -1.40379   3.53369   6.67762   1.21111   0.00000   2.959E-03   0.000E+00   9.970E-01
 185  7.41347281   0.710  -1.40567   3.53369   6.67851   1.21388   0.00000   3.059E-03   0.000E+00   9.969E-01
 186  7.41603171   0.710  -1.40751   3.53368   6.67936   1.21659   0.00000   3.157E-03   0.000E+00   9.968E-01
 187  7.41857562   0.710  -1.40935   3.53367   6.68021   1.21930   0.00000   3.255E-03   0.000E+00   9.967E-01
 188  7.42110472   0.710  -1.41119   3.53367   6.68107   1.22201   0.00000   3.353E-03   0.000E+00   9.966E-01
 189  7.42361917   0.710  -1.41302   3.53366   6.68192   1.22472   0.00000   3.451E-03   0.000E+00   9.965E-01
 190  7.42611915   0.710  -1.41486   3.53365   6.68278   1.22743   0.00000   3.549E-03   0.000E+00   9.965E-01
 191  7.42860482   0.710  -1.41670   3.53364   6.68363   1.23014   0.00000   3.647E-03   0.000E+00   9.964E-01
 192  7.43107635   0.710  -1.41854   3.53364   6.68448   1.23286   0.00000   3.745E-03   0.000E+00   9.963E-01
 193  7.43353389   0.710  -1.42038   3.53363   6.68534   1.23557   0.00000   3.843E-03   0.000E+00   9.962E-01
 194  7.43597760   0.710  -1.42222   3.53362   6.68619   1.23828   0.00000   3.941E-03   0.000E+00   9.961E-01
 195  7.43840764   0.710  -1.42401   3.53362   6.68702   1.24093   0.00000   4.036E-03   0.000E+00   9.960E-01
 196  7.44082416   0.710  -1.42573   3.53361   6.68780   1.24349   0.00000   4.128E-03   0.000E+00   9.959E-01
 197  7.44322730   0.710  -1.42745   3.53360   6.68858   1.24606   0.00000   4.220E-03   0.000E+00   9.958E-01
 198  7.44561723   0.710  -1.42918   3.53360   6.68936   1.24862   0.00000   4.312E-03   0.000E+00   9.957E-01
 199  7.44799407   0.710  -1.43090   3.53359   6.69015   1.25118   0.00000   4.404E-03   0.000E+00   9.956E-01
 200  7.45035797   0.710  -1.43262   3.53359   6.69093   1.25374   0.00000   4.496E-03   0.000E+00   9.955E-01
 201  7.45270908   0.710  -1.43434   3.53358   6.69171   1.25630   0.00000   4.588E-03   0.000E+00   9.954E-01
 202  7.45504752   0.710  -1.43607   3.53357   6.69249   1.25887   0.00000   4.680E-03   0.000E+00   9.953E-01
 203  7.45737345   0.710  -1.43779   3.53357   6.69328   1.26143   0.00000   4.772E-03   0.000E+00   9.952E-01
 204  7.45968698   0.710  -1.43951   3.53356   6.69406   1.26399   0.00000   4.863E-03   0.000E+00   9.951E-01
 205  7.46198825   0.710  -1.44123   3.53355   6.69484   1.26655   0.00000   4.955E-03   0.000E+00   9.950E-01
 206  7.46427740   0.710  -1.44290   3.53355   6.69559   1.26905   0.00000   5.044E-03   0.000E+00   9.950E-01
 207  7.46655454   0.710  -1.44451   3.53354   6.69630   1.27147   0.00000   5.130E-03   0.000E+00   9.949E-01
 208  7.46881980   0.710  -1.44613   3.53353   6.69702   1.27389   0.00000   5.217E-03   0.000E+00   9.948E-01
 209  7.47107331   0.710  -1.44774   3.53353   6.69773   1.27631   0.00000   5.303E-03   0.000E+00   9.947E-01
 210  7.47331519   0.710  -1.44935   3.53352   6.69845   1.27874   0.00000   5.389E-03   0.000E+00   9.946E-01
 211  7.47554555   0.710  -1.45096   3.53352   6.69916   1.28116   0.00000   5.475E-03   0.000E+00   9.945E-01
 212  7.47776452   0.710  -1.45258   3.53351   6.69988   1.28358   0.00000   5.561E-03   0.000E+00   9.944E-01
 213  7.47997220   0.710  -1.45419   3.53350   6.70059   1.28600   0.00000   5.647E-03   0.000E+00   9.944E-01
 214  7.48216873   0.710  -1.45580   3.53350   6.70131   1.28843   0.00000   5.733E-03   0.000E+00   9.943E-01
 215  7.48435419   0.710  -1.45742   3.53349   6.70202   1.29085   0.00000   5.819E-03   0.000E+00   9.942E-01
 216  7.48652872   0.710  -1.45903   3.53349   6.70274   1.29327   0.00000   5.905E-03   0.000E+00   9.941E-01
 217  7.48869241   0.710  -1.46064   3.53348   6.70345   1.29569   0.00000   5.992E-03   0.000E+00   9.940E-01
 218  7.49084538   0.710  -1.46216   3.53347   6.70411   1.29800   0.00000   6.146E-03   0.000E+00   9.939E-01
 219  7.49298772   0.710  -1.46367   3.53347   6.70477   1.30029   0.00000   6.307E-03   0.000E+00   9.937E-01
 220  7.49511955   0.710  -1.46518   3.53346   6.70542   1.30258   0.00000   6.468E-03   0.000E+00   9.935E-01
 221  7.49724097   0.710  -1.46668   3.53346   6.70608   1.30487   0.00000   6.629E-03   0.000E+00   9.934E-01
 222  7.49935207   0.710  -1.46819   3.53345   6.70673   1.30716   0.00000   6.791E-03   0.000E+00   9.932E-01
 223  7.50145296   0.710  -1.46970   3.53345   6.70739   1.30945   0.00000   6.952E-03   0.000E+00   9.930E-01
 224  7.50354374   0.710  -1.47121   3.53344   6.70804   1.31174   0.00000   7.113E-03   0.000E+00   9.929E-01
 225  7.50562449   0.710  -1.47272   3.53344   6.70870   1.31403   0.00000   7.274E-03   0.000E+00   9.927E-01
 226  7.50769533   0.710  -1.47422   3.53343   6.70936   1.31632   0.00000   7.436E-03   0.000E+00   9.926E-01
 227  7.50975634   0.710  -1.47573   3.53342   6.71001   1.31861   0.00000   7.597E-03   0.000E+00   9.924E-01
 228  7.51180762   0.710  -1.47724   3.53342   6.71067   1.32090   0.00000   7.758E-03   0.000E+00   9.922E-01
 229  7.51384925   0.710  -1.47875   3.53341   6.71132   1.32319   0.00000   7.919E-03   0.000E+00   9.921E-01
 230  7.51588133   0.710  -1.48020   3.53341   6.71195   1.32541   0.00000   8.075E-03   0.000E+00   9.919E-01
 231  7.51790395   0.710  -1.48161   3.53340   6.71255   1.32758   0.00000   8.226E-03   0.000E+00   9.918E-01
 232  7.51991718   0.710  -1.48302   3.53340   6.71316   1.32974   0.00000   8.377E-03   0.000E+00   9.916E-01
 233  7.52192113   0.710  -1.48443   3.53339   6.71376   1.33191   0.00000   8.528E-03   0.000E+00   9.915E-01
 234  7.52391588   0.710  -1.48583   3.53339   6.71436   1.33407   0.00000   8.678E-03   0.000E+00   9.913E-01
 235  7.52590151   0.710  -1.48724   3.53339   6.71496   1.33623   0.00000   8.829E-03   0.000E+00   9.912E-01
 236  7.52787809   0.710  -1.48865   3.53338   6.71557   1.33840   0.00000   8.980E-03   0.000E+00   9.910E-01
 237  7.52984573   0.710  -1.49006   3.53338   6.71617   1.34056   0.00000   9.131E-03   0.000E+00   9.909E-01
 238  7.53180449   0.710  -1.49146   3.53337   6.71677   1.34273   0.00000   9.282E-03   0.000E+00   9.907E-01
 239  7.53375445   0.710  -1.49287   3.53337   6.71737   1.34489   0.00000   9.432E-03   0.000E+00   9.906E-01
 240  7.53569570   0.710  -1.49428   3.53336   6.71797   1.34706   0.00000   9.583E-03   0.000E+00   9.904E-01
 241  7.53762831   0.710  -1.49569   3.53336   6.71858   1.34922   0.00000   9.734E-03   0.000E+00   9.903E-01
 242  7.53955235   0.710  -1.49709   3.53335   6.71918   1.35138   0.00000   9.885E-03   0.000E+00   9.901E-01
 243  7.54146791   0.710  -1.49848   3.53335   6.71977   1.35352   0.00000   1.003E-02   0.000E+00   9.900E-01
 244  7.54337506   0.710  -1.49979   3.53334   6.72032   1.35556   0.00000   1.017E-02   0.000E+00   9.898E-01
 245  7.54527387   0.710  -1.50111   3.53334   6.72088   1.35761   0.00000   1.031E-02   0.000E+00   9.897E-01
 246  7.54716442   0.710  -1.50242   3.53334   6.72143   1.35965   0.00000   1.046E-02   0.000E+00   9.895E-01
 247  7.54904677   0.710  -1.50373   3.53333   6.72199   1.36169   0.00000   1.060E-02   0.000E+00   9.894E-01
 248  7.55092099   0.710  -1.50505   3.53333   6.72254   1.36373   0.00000   1.074E-02   0.000E+00   9.893E-01
 249  7.55278717   0.710  -1.50636   3.53332   6.72309   1.36578   0.00000   1.088E-02   0.000E+00   9.891E-01
 250  7.55464536   0.710  -1.50767   3.53332   6.72365   1.36782   0.00000   1.102E-02   0.000E+00   9.890E-01
 251  7.55649563   0.710  -1.50899   3.53332   6.72420   1.36986   0.00000   1.116E-02   0.000E+00   9.888E-01
 252  7.55833805   0.710  -1.51030   3.53331   6.72476   1.37191   0.00000   1.130E-02   0.000E+00   9.887E-01
 253  7.56017269   0.710  -1.51161   3.53331   6.72531   1.37395   0.00000   1.144E-02   0.000E+00   9.886E-01
 254  7.56199961   0.710  -1.51293   3.53330   6.72586   1.37599   0.00000   1.158E-02   0.000E+00   9.884E-01
 255  7.56381888   0.710  -1.51424   3.53330   6.72642   1.37803   0.00000   1.172E-02   0.000E+00   9.883E-01
 256  7.56563056   0.710  -1.51556   3.53329   6.72697   1.38008   0.00000   1.186E-02   0.000E+00   9.881E-01
 257  7.56743471   0.710  -1.51687   3.53329   6.72753   1.38212   0.00000   1.201E-02   0.000E+00   9.880E-01
 258  7.56923140   0.710  -1.51809   3.53329   6.72804   1.38405   0.00000   1.220E-02   0.000E+00   9.878E-01
 259  7.57102069   0.710  -1.51931   3.53328   6.72855   1.38597   0.00000   1.240E-02   0.000E+00   9.876E-01
 260  7.57280263   0.710  -1.52053   3.53328   6.72906   1.38790   0.00000   1.260E-02   0.000E+00   9.874E-01
 261  7.57457730   0.710  -1.52175   3.53328   6.72957   1.38983   0.00000   1.279E-02   0.000E+00   9.872E-01
 262  7.57634474   0.710  -1.52298   3.53328   6.73008   1.39176   0.00000   1.299E-02   0.000E+00   9.870E-01
 263  7.57810502   0.710  -1.52420   3.53327   6.73059   1.39369   0.00000   1.319E-02   0.000E+00   9.868E-01
 264  7.57985819   0.710  -1.52542   3.53327   6.73110   1.39562   0.00000   1.338E-02   0.000E+00   9.866E-01
 265  7.58160431   0.710  -1.52664   3.53327   6.73161   1.39755   0.00000   1.358E-02   0.000E+00   9.864E-01
 266  7.58334344   0.710  -1.52786   3.53327   6.73212   1.39947   0.00000   1.378E-02   0.000E+00   9.862E-01
 267  7.58507564   0.710  -1.52909   3.53326   6.73263   1.40140   0.00000   1.398E-02   0.000E+00   9.860E-01
 268  7.58680095   0.710  -1.53031   3.53326   6.73314   1.40333   0.00000   1.417E-02   0.000E+00   9.858E-01
 269  7.58851943   0.710  -1.53153   3.53326   6.73365   1.40526   0.00000   1.437E-02   0.000E+00   9.856E-01
 270  7.59023115   0.710  -1.53275   3.53326   6.73416   1.40719   0.00000   1.457E-02   0.000E+00   9.854E-01
 271  7.59193614   0.710  -1.53398   3.53325   6.73467   1.40912   0.00000   1.476E-02   0.000E+00   9.852E-01
 272  7.59363446   0.710  -1.53520   3.53325   6.73518   1.41105   0.00000   1.496E-02   0.000E+00   9.850E-01
 273  7.59532617   0.710  -1.53635   3.53325   6.73566   1.41289   0.00000   1.520E-02   0.000E+00   9.848E-01
 274  7.59701132   0.710  -1.53749   3.53325   6.73613   1.41471   0.00000   1.544E-02   0.000E+00   9.846E-01
 275  7.59868995   0.710  -1.53862   3.53324   6.73660   1.41652   0.00000   1.568E-02   0.000E+00   9.843E-01
 276  7.60036212   0.710  -1.53976   3.53324   6.73707   1.41834   0.00000   1.593E-02   0.000E+00   9.841E-01
 277  7.60202787   0.710  -1.54090   3.53324   6.73754   1.42016   0.00000   1.617E-02   0.000E+00   9.838E-01
 278  7.60368727   0.710  -1.54203   3.53324   6.73801   1.42198   0.00000   1.642E-02   0.000E+00   9.836E-01
 279  7.60534034   0.710  -1.54317   3.53324   6.73848   1.42380   0.00000   1.666E-02   0.000E+00   9.833E-01
 280  7.60698714   0.710  -1.54430   3.53324   6.73895   1.42562   0.00000   1.691E-02   0.000E+00   9.831E-01
 281  7.60862773   0.710  -1.54544   3.53323   6.73942   1.42743   0.00000   1.715E-02   0.000E+00   9.828E-01
 282  7.61026214   0.710  -1.54658   3.53323   6.73989   1.42925   0.00000   1.740E-02   0.000E+00   9.826E-01
 283  7.61189042   0.710  -1.54771   3.53323   6.74036   1.43107   0.00000   1.764E-02   0.000E+00   9.824E-01
 284  7.61351262   0.710  -1.54885   3.53323   6.74083   1.43289   0.00000   1.789E-02   0.000E+00   9.821E-01
 285  7.61512879   0.710  -1.54999   3.53323   6.74130   1.43471   0.00000   1.813E-02   0.000E+00   9.819E-01
 286  7.61673896   0.710  -1.55112   3.53322   6.74178   1.43653   0.00000   1.837E-02   0.000E+00   9.816E-01
 287  7.61834318   0.710  -1.55226   3.53322   6.74225   1.43834   0.00000   1.862E-02   0.000E+00   9.814E-01
 288  7.61994150   0.710  -1.55339   3.53322   6.74272   1.44016   0.00000   1.886E-02   0.000E+00   9.811E-01
 289  7.62153396   0.710  -1.55449   3.53322   6.74317   1.44193   0.00000   1.913E-02   0.000E+00   9.809E-01
 290  7.62312061   0.710  -1.55555   3.53322   6.74361   1.44364   0.00000   1.941E-02   0.000E+00   9.806E-01
 291  7.62470147   0.710  -1.55660   3.53322   6.74404   1.44535   0.00000   1.969E-02   0.000E+00   9.803E-01
 292  7.62627660   0.710  -1.55766   3.53322   6.74447   1.44706   0.00000   1.998E-02   0.000E+00   9.800E-01
 293  7.62784604   0.710  -1.55871   3.53321   6.74491   1.44878   0.00000   2.026E-02   0.000E+00   9.797E-01
 294  7.62940983   0.710  -1.55977   3.53321   6.74534   1.45049   0.00000   2.055E-02   0.000E+00   9.795E-01
 295  7.63096801   0.710  -1.56082   3.53321   6.74578   1.45220   0.00000   2.083E-02   0.000E+00   9.792E-01
 296  7.63252062   0.710  -1.56188   3.53321   6.74621   1.45391   0.00000   2.111E-02   0.000E+00   9.789E-01
 297  7.63406770   0.710  -1.56293   3.53321   6.74664   1.45562   0.00000   2.140E-02   0.000E+00   9.786E-01
 298  7.63560928   0.710  -1.56398   3.53321   6.74708   1.45733   0.00000   2.168E-02   0.000E+00   9.783E-01
 299  7.63714542   0.710  -1.56504   3.53321   6.74751   1.45904   0.00000   2.197E-02   0.000E+00   9.780E-01
 300  7.63867613   0.710  -1.56609   3.53321   6.74795   1.46075   0.00000   2.225E-02   0.000E+00   9.778E-01
 301  7.64020148   0.710  -1.56715   3.53321   6.74838   1.46246   0.00000   2.253E-02   0.000E+00   9.775E-01
 302  7.64172148   0.710  -1.56820   3.53320   6.74881   1.46417   0.00000   2.282E-02   0.000E+00   9.772E-01
 303  7.64323618   0.710  -1.56926   3.53320   6.74925   1.46588   0.00000   2.310E-02   0.000E+00   9.769E-01
 304  7.64474562   0.710  -1.57031   3.53320   6.74968   1.46759   0.00000   2.339E-02   0.000E+00   9.766E-01
 305  7.64624983   0.710  -1.57137   3.53320   6.75012   1.46930   0.00000   2.367E-02   0.000E+00   9.763E-01
 306  7.64774885   0.710  -1.57242   3.53320   6.75055   1.47101   0.00000   2.395E-02   0.000E+00   9.760E-01
 307  7.64924271   0.710  -1.57341   3.53320   6.75096   1.47264   0.00000   2.427E-02   0.000E+00   9.757E-01
 308  7.65073145   0.710  -1.57438   3.53320   6.75136   1.47424   0.00000   2.458E-02   0.000E+00   9.754E-01
 309  7.65221511   0.710  -1.57536   3.53320   6.75176   1.47585   0.00000   2.490E-02   0.000E+00   9.751E-01
 310  7.65369371   0.710  -1.57634   3.53320   6.75216   1.47746   0.00000   2.521E-02   0.000E+00   9.748E-01
 311  7.65516730   0.710  -1.57731   3.53320   6.75256   1.47906   0.00000   2.553E-02   0.000E+00   9.745E-01
 312  7.65663590   0.710  -1.57829   3.53320   6.75296   1.48067   0.00000   2.585E-02   0.000E+00   9.742E-01
 313  7.65809955   0.710  -1.57927   3.53320   6.75336   1.48228   0.00000   2.616E-02   0.000E+00   9.738E-01
 314  7.65955829   0.710  -1.58024   3.53320   6.75376   1.48388   0.00000   2.648E-02   0.000E+00   9.735E-01
 315  7.66101215   0.710  -1.58122   3.53320   6.75417   1.48549   0.00000   2.680E-02   0.000E+00   9.732E-01
 316  7.66246115   0.710  -1.58220   3.53321   6.75457   1.48709   0.00000   2.711E-02   0.000E+00   9.729E-01
 317  7.66390534   0.710  -1.58317   3.53321   6.75497   1.48870   0.00000   2.743E-02   0.000E+00   9.726E-01
 318  7.66534473   0.710  -1.58415   3.53321   6.75537   1.49031   0.00000   2.774E-02   0.000E+00   9.723E-01
 319  7.66677938   0.710  -1.58513   3.53321   6.75577   1.49191   0.00000   2.806E-02   0.000E+00   9.719E-01
 320  7.66820930   0.710  -1.58610   3.53321   6.75617   1.49352   0.00000   2.838E-02   0.000E+00   9.716E-01
 321  7.66963453   0.710  -1.58708   3.53321   6.75657   1.49513   0.00000   2.869E-02   0.000E+00   9.713E-01
 322  7.67105509   0.710  -1.58805   3.53321   6.75697   1.49673   0.00000   2.901E-02   0.000E+00   9.710E-01
 323  7.67247103   0.710  -1.58903   3.53321   6.75738   1.49834   0.00000   2.933E-02   0.000E+00   9.707E-01
 324  7.67388236   0.710  -1.59001   3.53321   6.75778   1.49995   0.00000   2.964E-02   0.000E+00   9.704E-01
 325  7.67528912   0.710  -1.59098   3.53321   6.75818   1.50155   0.00000   2.996E-02   0.000E+00   9.700E-01
 326  7.67669134   0.710  -1.59190   3.53321   6.75855   1.50307   0.00000   3.034E-02   0.000E+00   9.697E-01
 327  7.67808905   0.710  -1.59280   3.53321   6.75892   1.50458   0.00000   3.073E-02   0.000E+00   9.693E-01
 328  7.67948227   0.710  -1.59370   3.53321   6.75929   1.50609   0.00000   3.112E-02   0.000E+00   9.689E-01
 329  7.68087104   0.710  -1.59460   3.53321   6.75967   1.50759   0.00000   3.151E-02   0.000E+00   9.685E-01
 330  7.68225538   0.710  -1.59550   3.53321   6.76004   1.50910   0.00000   3.190E-02   0.000E+00   9.681E-01
 331  7.68363532   0.710  -1.59641   3.53321   6.76041   1.51061   0.00000   3.229E-02   0.000E+00   9.677E-01
 332  7.68501089   0.710  -1.59731   3.53321   6.76078   1.51211   0.00000   3.268E-02   0.000E+00   9.673E-01
 333  7.68638212   0.710  -1.59821   3.53321   6.76115   1.51362   0.00000   3.307E-02   0.000E+00   9.669E-01
 334  7.68774903   0.710  -1.59911   3.53321   6.76152   1.51513   0.00000   3.346E-02   0.000E+00   9.665E-01
 335  7.68911165   0.710  -1.60001   3.53321   6.76189   1.51663   0.00000   3.385E-02   0.000E+00   9.661E-01
 336  7.69047002   0.710  -1.60091   3.53322   6.76226   1.51814   0.00000   3.424E-02   0.000E+00   9.658E-01
 337  7.69182414   0.710  -1.60182   3.53322   6.76263   1.51965   0.00000   3.464E-02   0.000E+00   9.654E-01
 338  7.69317406   0.710  -1.60272   3.53322   6.76300   1.52115   0.00000   3.503E-02   0.000E+00   9.650E-01
 339  7.69451979   0.710  -1.60362   3.53322   6.76338   1.52266   0.00000   3.542E-02   0.000E+00   9.646E-01
 340  7.69586137   0.710  -1.60452   3.53322   6.76375   1.52417   0.00000   3.581E-02   0.000E+00   9.642E-01
 341  7.69719882   0.710  -1.60542   3.53322   6.76412   1.52567   0.00000   3.620E-02   0.000E+00   9.638E-01
 342  7.69853216   0.710  -1.60633   3.53322   6.76449   1.52718   0.00000   3.659E-02   0.000E+00   9.634E-01
 343  7.69986141   0.710  -1.60723   3.53322   6.76486   1.52869   0.00000   3.698E-02   0.000E+00   9.630E-01
 344  7.70118662   0.710  -1.60813   3.53322   6.76523   1.53019   0.00000   3.737E-02   0.000E+00   9.626E-01
 345  7.70250779   0.710  -1.60903   3.53322   6.76560   1.53170   0.00000   3.776E-02   0.000E+00   9.622E-01
 346  7.70382495   0.710  -1.60991   3.53322   6.76596   1.53317   0.00000   3.816E-02   0.000E+00   9.618E-01
 347  7.70513813   0.710  -1.61074   3.53322   6.76630   1.53458   0.00000   3.857E-02   0.000E+00   9.614E-01
 348  7.70644736   0.710  -1.61157   3.53322   6.76665   1.53598   0.00000   3.898E-02   0.000E+00   9.610E-01
 349  7.70775264   0.710  -1.61240   3.53323   6.76699   1.53739   0.00000   3.939E-02   0.000E+00   9.606E-01
 350  7.70905402   0.710  -1.61323   3.53323   6.76733   1.53880   0.00000   3.980E-02   0.000E+00   9.602E-01
 351  7.71035151   0.710  -1.61406   3.53323   6.76768   1.54021   0.00000   4.021E-02   0.000E+00   9.598E-01
 352  7.71164513   0.710  -1.61489   3.53323   6.76802   1.54162   0.00000   4.062E-02   0.000E+00   9.594E-01
 353  7.71293491   0.710  -1.61572   3.53323   6.76836   1.54303   0.00000   4.103E-02   0.000E+00   9.590E-01
 354  7.71422087   0.710  -1.61655   3.53324   6.76870   1.54444   0.00000   4.144E-02   0.000E+00   9.586E-01
 355  7.71550304   0.710  -1.61738   3.53324   6.76905   1.54584   0.00000   4.185E-02   0.000E+00   9.581E-01
 356  7.71678143   0.710  -1.61821   3.53324   6.76939   1.54725   0.00000   4.227E-02   0.000E+00   9.577E-01
 357  7.71805607   0.710  -1.61904   3.53324   6.76973   1.54866   0.00000   4.268E-02   0.000E+00   9.573E-01
 358  7.71932698   0.710  -1.61987   3.53324   6.77008   1.55007   0.00000   4.309E-02   0.000E+00   9.569E-01
 359  7.72059418   0.710  -1.62070   3.53324   6.77042   1.55148   0.00000   4.350E-02   0.000E+00   9.565E-01
 360  7.72185770   0.710  -1.62153   3.53325   6.77076   1.55289   0.00000   4.391E-02   0.000E+00   9.561E-01
 361  7.72311755   0.710  -1.62236   3.53325   6.77110   1.55429   0.00000   4.432E-02   0.000E+00   9.557E-01
 362  7.72437375   0.710  -1.62319   3.53325   6.77145   1.55570   0.00000   4.473E-02   0.000E+00   9.553E-01
 363  7.72562633   0.710  -1.62403   3.53325   6.77179   1.55711   0.00000   4.514E-02   0.000E+00   9.549E-01
 364  7.72687531   0.710  -1.62486   3.53325   6.77213   1.55852   0.00000   4.555E-02   0.000E+00   9.544E-01
 365  7.72812071   0.710  -1.62569   3.53326   6.77248   1.55993   0.00000   4.596E-02   0.000E+00   9.540E-01
 366  7.72936255   0.710  -1.62652   3.53326   6.77282   1.56134   0.00000   4.637E-02   0.000E+00   9.536E-01
 367  7.73060085   0.710  -1.62735   3.53326   6.77316   1.56275   0.00000   4.679E-02   0.000E+00   9.532E-01
 368  7.73183562   0.710  -1.62815   3.53326   6.77349   1.56410   0.00000   4.724E-02   0.000E+00   9.528E-01
 369  7.73306690   0.710  -1.62891   3.53326   6.77380   1.56541   0.00000   4.776E-02   0.000E+00   9.522E-01
 370  7.73429469   0.710  -1.62967   3.53327   6.77412   1.56671   0.00000   4.827E-02   0.000E+00   9.517E-01
 371  7.73551902   0.710  -1.63044   3.53327   6.77443   1.56801   0.00000   4.878E-02   0.000E+00   9.512E-01
 372  7.73673991   0.710  -1.63120   3.53327   6.77474   1.56932   0.00000   4.929E-02   0.000E+00   9.507E-01
 373  7.73795738   0.710  -1.63197   3.53327   6.77506   1.57062   0.00000   4.980E-02   0.000E+00   9.502E-01
 374  7.73917145   0.710  -1.63273   3.53327   6.77537   1.57192   0.00000   5.031E-02   0.000E+00   9.497E-01
 375  7.74038213   0.710  -1.63349   3.53328   6.77568   1.57323   0.00000   5.082E-02   0.000E+00   9.492E-01
 376  7.74158944   0.710  -1.63426   3.53328   6.77600   1.57453   0.00000   5.133E-02   0.000E+00   9.487E-01
 377  7.74279341   0.710  -1.63502   3.53328   6.77631   1.57583   0.00000   5.184E-02   0.000E+00   9.482E-01
 378  7.74399405   0.710  -1.63579   3.53328   6.77662   1.57714   0.00000   5.236E-02   0.000E+00   9.476E-01
 379  7.74519138   0.710  -1.63655   3.53328   6.77694   1.57844   0.00000   5.287E-02   0.000E+00   9.471E-01
 380  7.74638541   0.710  -1.63731   3.53329   6.77725   1.57974   0.00000   5.338E-02   0.000E+00   9.466E-01
 381  7.74757618   0.710  -1.63808   3.53329   6.77757   1.58105   0.00000   5.389E-02   0.000E+00   9.461E-01
 382  7.74876368   0.710  -1.63884   3.53329   6.77788   1.58235   0.00000   5.440E-02   0.000E+00   9.456E-01
 383  7.74994795   0.710  -1.63961   3.53329   6.77819   1.58365   0.00000   5.491E-02   0.000E+00   9.451E-01
 384  7.75112900   0.710  -1.64037   3.53330   6.77851   1.58496   0.00000   5.542E-02   0.000E+00   9.446E-01
 385  7.75230685   0.710  -1.64114   3.53330   6.77882   1.58626   0.00000   5.593E-02   0.000E+00   9.441E-01
 386  7.75348151   0.710  -1.64190   3.53330   6.77913   1.58756   0.00000   5.644E-02   0.000E+00   9.436E-01
 387  7.75465300   0.710  -1.64266   3.53330   6.77945   1.58887   0.00000   5.696E-02   0.000E+00   9.430E-01
 388  7.75582134   0.710  -1.64343   3.53330   6.77976   1.59017   0.00000   5.747E-02   0.000E+00   9.425E-01
 389  7.75698654   0.710  -1.64419   3.53331   6.78007   1.59147   0.00000   5.798E-02   0.000E+00   9.420E-01
 390  7.75814863   0.710  -1.64496   3.53331   6.78039   1.59278   0.00000   5.849E-02   0.000E+00   9.415E-01
 391  7.75930762   0.710  -1.64572   3.53331   6.78070   1.59408   0.00000   5.900E-02   0.000E+00   9.410E-01
 392  7.86000108   0.710  -1.70635   3.53363   6.80685   1.70063   0.00000   1.260E-01   0.000E+00   8.740E-01
 393  7.94168644   0.710  -1.75073   3.53401   6.82753   1.77995   0.00000   2.194E-01   0.000E+00   7.806E-01
 394  8.01041308   0.710  -1.78349   3.53434   6.84424   1.83729   0.00000   3.322E-01   0.000E+00   6.678E-01
 395  8.06973515   0.710  -1.80803   3.53460   6.85784   1.87744   0.00000   4.504E-01   0.000E+00   5.496E-01
 396  8.12191940   0.710  -1.82621   3.53475   6.86861   1.90425   0.00000   5.631E-01   0.000E+00   4.369E-01
 397  8.16850051   0.710  -1.83968   3.53483   6.87700   1.92142   0.00000   6.619E-01   0.000E+00   3.381E-01
 398  8.21056591   0.709  -1.84891   3.53483   6.88302   1.93067   0.00000   7.394E-01   0.000E+00   2.606E-01
 399  8.24891427   0.709  -1.85608   3.53481   6.88789   1.93659   0.00051   8.029E-01   0.000E+00   1.971E-01
 400  8.28414949   0.709  -1.86120   3.53476   6.89162   1.93923   0.00156   8.522E-01   0.000E+00   1.478E-01
 401  8.31673929   0.709  -1.86535   3.53471   6.89468   1.94075   0.00315   8.940E-01   0.000E+00   1.060E-01
 402  8.34705330   0.709  -1.86740   3.53465   6.89628   1.93983   0.00591   9.196E-01   0.000E+00   8.052E-02
 403  8.37538874   0.709  -1.86946   3.53459   6.89789   1.93890   0.00867   9.451E-01   0.000E+00   5.506E-02
 404  8.40198813   0.708  -1.87139   3.53454   6.89941   1.93790   0.01138   9.696E-01   0.000E+00   3.061E-02
 405  8.42705197   0.708  -1.87159   3.53449   6.89978   1.93566   0.01351   9.788E-01   0.000E+00   2.127E-02
 406  8.45074792   0.708  -1.87179   3.53444   6.90015   1.93342   0.01564   9.880E-01   0.000E+00   1.192E-02
 407  8.47321760   0.708  -1.87199   3.53439   6.90052   1.93118   0.01777   9.973E-01   0.000E+00   2.573E-03
 408  8.49458169   0.708  -1.87219   3.53434   6.90089   1.92894   0.01990   1.006E+00   0.000E+00  -6.774E-03
 409  8.51494392   0.708  -1.87226   3.53430   6.90117   1.92674   0.02189   1.014E+00   0.000E+00  -1.468E-02
 410  8.53439406   0.708  -1.87175   3.53427   6.90104   1.92476   0.02327   1.016E+00   0.000E+00  -1.618E-02
 411  8.55301032   0.708  -1.87124   3.53424   6.90092   1.92277   0.02465   1.017E+00   0.000E+00  -1.768E-02
 412  8.57086128   0.708  -1.87073   3.53422   6.90080   1.92078   0.02603   1.019E+00   0.000E+00  -1.919E-02
 413  8.58800739   0.708  -1.87022   3.53419   6.90068   1.91880   0.02741   1.020E+00   0.000E+00  -2.069E-02
 414  8.60450219   0.708  -1.86971   3.53417   6.90055   1.91681   0.02879   1.022E+00   0.000E+00  -2.219E-02
 415  8.62039336   0.707  -1.86920   3.53414   6.90043   1.91482   0.03017   1.023E+00   0.000E+00  -2.370E-02
 416  8.63572353   0.707  -1.86869   3.53411   6.90031   1.91284   0.03155   1.025E+00   0.000E+00  -2.520E-02
 417  8.65053096   0.707  -1.86813   3.53410   6.90011   1.91143   0.03257   1.025E+00   0.000E+00  -2.501E-02
 418  8.66485013   0.707  -1.86757   3.53409   6.89991   1.91010   0.03355   1.024E+00   0.000E+00  -2.455E-02
 419  8.67871221   0.707  -1.86701   3.53407   6.89970   1.90878   0.03453   1.024E+00   0.000E+00  -2.409E-02
 420  8.69214548   0.707  -1.86645   3.53406   6.89950   1.90746   0.03550   1.023E+00   0.000E+00  -2.364E-02
 421  8.70517568   0.707  -1.86589   3.53405   6.89929   1.90614   0.03648   1.023E+00   0.000E+00  -2.318E-02
 422  8.71782629   0.707  -1.86533   3.53404   6.89909   1.90482   0.03745   1.022E+00   0.000E+00  -2.273E-02
 423  8.73011881   0.707  -1.86477   3.53402   6.89888   1.90349   0.03843   1.022E+00   0.000E+00  -2.227E-02
 424  8.74207295   0.707  -1.86421   3.53401   6.89868   1.90217   0.03940   1.021E+00   0.000E+00  -2.182E-02
 425  8.75370685   0.707  -1.86364   3.53400   6.89847   1.90085   0.04038   1.021E+00   0.000E+00  -2.136E-02
 426  8.76503720   0.707  -1.86308   3.53398   6.89827   1.89953   0.04136   1.021E+00   0.000E+00  -2.091E-02
 427  8.77607946   0.707  -1.86252   3.53397   6.89806   1.89821   0.04233   1.020E+00   0.000E+00  -2.045E-02
 428  8.78684791   0.706  -1.86211   3.53397   6.89790   1.89744   0.03961   1.019E+00   0.000E+00  -1.986E-02
 429  8.79735580   0.706  -1.86171   3.53396   6.89774   1.89673   0.03643   1.019E+00   0.000E+00  -1.925E-02
 430  8.80761544   0.706  -1.86131   3.53396   6.89758   1.89603   0.03325   1.018E+00   0.000E+00  -1.865E-02
 431  8.81763830   0.706  -1.86091   3.53396   6.89742   1.89533   0.03007   1.018E+00   0.000E+00  -1.804E-02
 432  8.82743505   0.706  -1.86051   3.53395   6.89726   1.89463   0.02689   1.017E+00   0.000E+00  -1.743E-02
 433  8.83701567   0.706  -1.86011   3.53395   6.89710   1.89392   0.02371   1.016E+00   0.000E+00  -1.682E-02
 434  8.84638950   0.706  -1.85971   3.53394   6.89693   1.89322   0.02053   1.016E+00   0.000E+00  -1.622E-02
 435  8.85556527   0.706  -1.85931   3.53394   6.89677   1.89252   0.01734   1.015E+00   0.000E+00  -1.561E-02
 436  8.86455118   0.706  -1.85892   3.53394   6.89661   1.89182   0.01416   1.015E+00   0.000E+00  -1.500E-02
 437  8.87335492   0.706  -1.85852   3.53393   6.89645   1.89111   0.01098   1.014E+00   0.000E+00  -1.440E-02
 438  8.88198375   0.706  -1.85812   3.53393   6.89629   1.89041   0.00780   1.013E+00   0.000E+00  -1.379E-02
 439  8.89044446   0.706  -1.85772   3.53393   6.89613   1.88971   0.00462   1.013E+00   0.000E+00  -1.318E-02
 440  8.89874349   0.706  -1.85732   3.53392   6.89597   1.88901   0.00144   1.012E+00   0.000E+00  -1.257E-02
 441  8.90688690   0.706  -1.85779   3.53394   6.89603   1.89066   0.00010   1.010E+00   0.000E+00  -1.001E-02
 442  8.91488042   0.706  -1.85896   3.53398   6.89628   1.89424   0.00028   1.006E+00   0.000E+00  -5.826E-03
 443  8.92272947   0.706  -1.86014   3.53403   6.89652   1.89783   0.00046   1.001E+00   0.000E+00  -1.644E-03
 444  8.93043918   0.707  -1.86132   3.53407   6.89677   1.90142   0.00064   9.971E-01   0.000E+00   2.539E-03
 445  8.93801441   0.707  -1.86250   3.53411   6.89701   1.90501   0.00082   9.929E-01   0.000E+00   6.721E-03
 446  8.94545977   0.707  -1.86368   3.53415   6.89726   1.90860   0.00101   9.887E-01   0.000E+00   1.090E-02
 447  8.95277963   0.707  -1.86486   3.53419   6.89750   1.91218   0.00119   9.845E-01   0.000E+00   1.509E-02
 448  8.95997817   0.708  -1.86604   3.53424   6.89774   1.91577   0.00137   9.803E-01   0.000E+00   1.927E-02
 449  8.96705933   0.708  -1.86722   3.53428   6.89799   1.91936   0.00155   9.761E-01   0.000E+00   2.345E-02
 450  8.97402688   0.708  -1.86840   3.53432   6.89823   1.92295   0.00173   9.719E-01   0.000E+00   2.763E-02
 451  8.98088441   0.708  -1.86958   3.53436   6.89848   1.92654   0.00191   9.677E-01   0.000E+00   3.182E-02
 452  8.98763534   0.709  -1.87076   3.53440   6.89872   1.93013   0.00209   9.635E-01   0.000E+00   3.600E-02
 453  8.99428294   0.709  -1.87193   3.53445   6.89897   1.93371   0.00228   9.593E-01   0.000E+00   4.018E-02
 454  9.00083031   0.709  -1.87280   3.53447   6.89919   1.93615   0.00292   9.573E-01   0.000E+00   4.220E-02
 455  9.00728044   0.709  -1.87248   3.53445   6.89932   1.93418   0.00532   9.637E-01   0.000E+00   3.590E-02
 456  9.01363618   0.709  -1.87215   3.53442   6.89946   1.93221   0.00772   9.701E-01   0.000E+00   2.961E-02
 457  9.01990024   0.709  -1.87183   3.53439   6.89960   1.93024   0.01013   9.765E-01   0.000E+00   2.331E-02
 458  9.02607523   0.709  -1.87151   3.53436   6.89973   1.92827   0.01253   9.829E-01   0.000E+00   1.702E-02
 459  9.03216366   0.708  -1.87118   3.53434   6.89987   1.92630   0.01493   9.892E-01   0.000E+00   1.072E-02
 460  9.03816791   0.708  -1.87086   3.53431   6.90001   1.92433   0.01734   9.956E-01   0.000E+00   4.428E-03
 461  9.04409028   0.708  -1.87053   3.53428   6.90014   1.92236   0.01974   1.002E+00   0.000E+00  -1.867E-03
 462  9.04993297   0.708  -1.87021   3.53425   6.90028   1.92039   0.02214   1.008E+00   0.000E+00  -8.162E-03
 463  9.05569810   0.708  -1.86989   3.53423   6.90042   1.91842   0.02454   1.015E+00   0.000E+00  -1.446E-02
 464  9.06138770   0.708  -1.86956   3.53420   6.90054   1.91646   0.02692   1.021E+00   0.000E+00  -2.060E-02
 465  9.06700373   0.708  -1.86896   3.53419   6.90034   1.91495   0.02808   1.021E+00   0.000E+00  -2.076E-02
 466  9.07254806   0.707  -1.86837   3.53417   6.90013   1.91344   0.02925   1.021E+00   0.000E+00  -2.092E-02
 467  9.07802250   0.707  -1.86777   3.53416   6.89992   1.91193   0.03041   1.021E+00   0.000E+00  -2.108E-02
 468  9.08342880   0.707  -1.86718   3.53414   6.89971   1.91041   0.03158   1.022E+00   0.000E+00  -2.123E-02
 469  9.08876861   0.707  -1.86659   3.53413   6.89950   1.90890   0.03275   1.022E+00   0.000E+00  -2.139E-02
 470  9.09404358   0.707  -1.86599   3.53411   6.89929   1.90739   0.03391   1.022E+00   0.000E+00  -2.155E-02
 471  9.09925523   0.707  -1.86540   3.53410   6.89908   1.90588   0.03508   1.022E+00   0.000E+00  -2.171E-02
 472  9.10440509   0.707  -1.86481   3.53409   6.89887   1.90436   0.03624   1.022E+00   0.000E+00  -2.186E-02
 473  9.10949460   0.707  -1.86421   3.53407   6.89866   1.90285   0.03741   1.022E+00   0.000E+00  -2.202E-02
 474  9.11452515   0.707  -1.86362   3.53406   6.89845   1.90134   0.03857   1.023E+00   0.000E+00  -2.218E-02
 475  9.11949810   0.707  -1.86303   3.53404   6.89824   1.89982   0.03974   1.023E+00   0.000E+00  -2.234E-02
 476  9.12441475   0.707  -1.86243   3.53403   6.89804   1.89831   0.04091   1.023E+00   0.000E+00  -2.249E-02
 477  9.12927636   0.707  -1.86184   3.53401   6.89783   1.89680   0.04207   1.023E+00   0.000E+00  -2.265E-02
 478  9.13408415   0.707  -1.86138   3.53401   6.89765   1.89585   0.04027   1.022E+00   0.000E+00  -2.216E-02
 479  9.13883930   0.707  -1.86098   3.53400   6.89749   1.89516   0.03709   1.022E+00   0.000E+00  -2.136E-02
 480  9.14354294   0.706  -1.86058   3.53400   6.89733   1.89447   0.03390   1.021E+00   0.000E+00  -2.057E-02
 481  9.14819619   0.706  -1.86018   3.53400   6.89716   1.89378   0.03072   1.020E+00   0.000E+00  -1.977E-02
 482  9.15280011   0.706  -1.85979   3.53399   6.89700   1.89309   0.02754   1.019E+00   0.000E+00  -1.898E-02
 483  9.15735574   0.706  -1.85939   3.53399   6.89684   1.89240   0.02436   1.018E+00   0.000E+00  -1.818E-02
 484  9.16186407   0.706  -1.85899   3.53398   6.89668   1.89171   0.02118   1.017E+00   0.000E+00  -1.739E-02
 485  9.16632609   0.706  -1.85859   3.53398   6.89652   1.89102   0.01800   1.017E+00   0.000E+00  -1.660E-02
 486  9.17074272   0.706  -1.85819   3.53398   6.89635   1.89033   0.01482   1.016E+00   0.000E+00  -1.580E-02
 487  9.17511490   0.706  -1.85780   3.53397   6.89619   1.88964   0.01164   1.015E+00   0.000E+00  -1.501E-02
 488  9.17944349   0.706  -1.85740   3.53397   6.89603   1.88895   0.00846   1.014E+00   0.000E+00  -1.421E-02
 489  9.18372937   0.706  -1.85700   3.53397   6.89587   1.88826   0.00527   1.013E+00   0.000E+00  -1.342E-02
 490  9.18797336   0.706  -1.85660   3.53396   6.89571   1.88757   0.00209   1.013E+00   0.000E+00  -1.262E-02
 491  9.19217629   0.706  -1.85667   3.53397   6.89570   1.88804   0.00034   1.011E+00   0.000E+00  -1.089E-02
 492  9.19633893   0.706  -1.85765   3.53400   6.89598   1.89072   0.00133   1.007E+00   0.000E+00  -7.372E-03
 493  9.20046204   0.706  -1.85863   3.53403   6.89627   1.89341   0.00232   1.004E+00   0.000E+00  -3.849E-03
 494  9.20454639   0.707  -1.85961   3.53406   6.89655   1.89609   0.00331   1.000E+00   0.000E+00  -3.255E-04
 495  9.20859268   0.707  -1.86058   3.53409   6.89683   1.89878   0.00430   9.967E-01   0.000E+00   3.197E-03
 496  9.21260161   0.707  -1.86156   3.53412   6.89712   1.90146   0.00529   9.932E-01   0.000E+00   6.720E-03
 497  9.21657388   0.707  -1.86254   3.53415   6.89740   1.90415   0.00628   9.897E-01   0.000E+00   1.024E-02
 498  9.22051015   0.707  -1.86352   3.53418   6.89769   1.90683   0.00727   9.861E-01   0.000E+00   1.377E-02
 499  9.22441106   0.708  -1.86449   3.53421   6.89797   1.90952   0.00826   9.826E-01   0.000E+00   1.729E-02
 500  9.22827724   0.708  -1.86547   3.53424   6.89825   1.91220   0.00925   9.791E-01   0.000E+00   2.081E-02
 501  9.23210931   0.708  -1.86645   3.53427   6.89854   1.91489   0.01024   9.756E-01   0.000E+00   2.434E-02
 502  9.23590786   0.708  -1.86743   3.53430   6.89882   1.91757   0.01123   9.720E-01   0.000E+00   2.786E-02
 503  9.23967348   0.708  -1.86840   3.53433   6.89911   1.92026   0.01222   9.685E-01   0.000E+00   3.138E-02
 504  9.24340672   0.709  -1.86938   3.53436   6.89939   1.92294   0.01321   9.650E-01   0.000E+00   3.489E-02
 505  9.24710815   0.708  -1.86884   3.53434   6.89928   1.92105   0.01526   9.695E-01   0.000E+00   3.043E-02
 506  9.25077829   0.708  -1.86830   3.53431   6.89918   1.91916   0.01731   9.740E-01   0.000E+00   2.596E-02
 507  9.25441769   0.708  -1.86776   3.53429   6.89908   1.91728   0.01937   9.785E-01   0.000E+00   2.149E-02
 508  9.25802683   0.708  -1.86723   3.53427   6.89897   1.91539   0.02142   9.830E-01   0.000E+00   1.702E-02
 509  9.26160623   0.708  -1.86669   3.53425   6.89887   1.91350   0.02347   9.875E-01   0.000E+00   1.256E-02
 510  9.26515637   0.708  -1.86615   3.53423   6.89876   1.91161   0.02552   9.920E-01   0.000E+00   8.090E-03
 511  9.26867773   0.708  -1.86561   3.53420   6.89866   1.90973   0.02757   9.965E-01   0.000E+00   3.622E-03
 512  9.27217076   0.708  -1.86507   3.53418   6.89855   1.90784   0.02962   1.001E+00   0.000E+00  -8.452E-04
 513  9.27563592   0.707  -1.86454   3.53416   6.89845   1.90595   0.03167   1.005E+00   0.000E+00  -5.313E-03
 514  9.27907365   0.707  -1.86400   3.53414   6.89834   1.90406   0.03372   1.010E+00   0.000E+00  -9.780E-03
 515  9.28248438   0.707  -1.86346   3.53411   6.89824   1.90218   0.03577   1.014E+00   0.000E+00  -1.425E-02
 516  9.28586854   0.707  -1.86292   3.53409   6.89813   1.90029   0.03782   1.019E+00   0.000E+00  -1.871E-02
 517  9.28922653   0.707  -1.86238   3.53407   6.89803   1.89840   0.03987   1.023E+00   0.000E+00  -2.318E-02
 518  9.29255875   0.707  -1.86194   3.53406   6.89789   1.89726   0.04118   1.024E+00   0.000E+00  -2.410E-02
 519  9.29586561   0.707  -1.86154   3.53405   6.89773   1.89651   0.04210   1.024E+00   0.000E+00  -2.319E-02
 520  9.29914747   0.707  -1.86114   3.53405   6.89758   1.89576   0.04302   1.023E+00   0.000E+00  -2.229E-02
 521  9.30240472   0.707  -1.86074   3.53404   6.89742   1.89501   0.04394   1.022E+00   0.000E+00  -2.138E-02
 522  9.30563772   0.707  -1.86035   3.53404   6.89726   1.89425   0.04486   1.021E+00   0.000E+00  -2.047E-02
 523  9.30884683   0.707  -1.85995   3.53403   6.89711   1.89350   0.04578   1.020E+00   0.000E+00  -1.957E-02
 524  9.31203240   0.707  -1.85955   3.53403   6.89695   1.89275   0.04671   1.019E+00   0.000E+00  -1.866E-02
 525  9.31519478   0.706  -1.85915   3.53403   6.89680   1.89200   0.04763   1.018E+00   0.000E+00  -1.775E-02
 526  9.31833429   0.706  -1.85875   3.53402   6.89664   1.89124   0.04855   1.017E+00   0.000E+00  -1.685E-02
 527  9.32145127   0.706  -1.85835   3.53402   6.89648   1.89049   0.04947   1.016E+00   0.000E+00  -1.594E-02
 528  9.32454604   0.706  -1.85796   3.53401   6.89633   1.88974   0.05039   1.015E+00   0.000E+00  -1.503E-02
 529  9.32761891   0.706  -1.85756   3.53401   6.89617   1.88898   0.05131   1.015E+00   0.000E+00  -1.412E-02
 530  9.33067020   0.706  -1.85716   3.53400   6.89602   1.88823   0.05223   1.014E+00   0.000E+00  -1.322E-02
 531  9.33370019   0.706  -1.85679   3.53400   6.89587   1.88758   0.05159   1.013E+00   0.000E+00  -1.251E-02
 532  9.33670919   0.706  -1.85647   3.53400   6.89573   1.88712   0.04763   1.013E+00   0.000E+00  -1.222E-02
 533  9.33969749   0.706  -1.85616   3.53400   6.89560   1.88667   0.04367   1.012E+00   0.000E+00  -1.194E-02
 534  9.34266537   0.706  -1.85584   3.53400   6.89546   1.88621   0.03971   1.012E+00   0.000E+00  -1.165E-02
 535  9.34561310   0.706  -1.85552   3.53399   6.89532   1.88576   0.03575   1.012E+00   0.000E+00  -1.137E-02
 536  9.34854096   0.706  -1.85521   3.53399   6.89519   1.88531   0.03178   1.011E+00   0.000E+00  -1.108E-02
 537  9.35144921   0.706  -1.85489   3.53399   6.89505   1.88485   0.02782   1.011E+00   0.000E+00  -1.080E-02
 538  9.35433811   0.706  -1.85457   3.53399   6.89492   1.88440   0.02386   1.011E+00   0.000E+00  -1.052E-02
 539  9.35720793   0.706  -1.85426   3.53399   6.89478   1.88395   0.01990   1.011E+00   0.000E+00  -1.023E-02
 540  9.36005891   0.706  -1.85394   3.53399   6.89465   1.88349   0.01593   1.010E+00   0.000E+00  -9.945E-03
 541  9.36289129   0.706  -1.85363   3.53398   6.89451   1.88304   0.01197   1.010E+00   0.000E+00  -9.661E-03
 542  9.36570532   0.705  -1.85331   3.53398   6.89437   1.88259   0.00801   1.010E+00   0.000E+00  -9.376E-03
 543  9.36850124   0.705  -1.85299   3.53398   6.89424   1.88213   0.00405   1.009E+00   0.000E+00  -9.091E-03
 544  9.37127927   0.705  -1.85268   3.53398   6.89410   1.88168   0.00009   1.009E+00   0.000E+00  -8.806E-03
 545  9.37403964   0.706  -1.85353   3.53400   6.89440   1.88362   0.00177   1.006E+00   0.000E+00  -6.057E-03
 546  9.37678258   0.706  -1.85442   3.53402   6.89471   1.88561   0.00359   1.003E+00   0.000E+00  -3.254E-03
 547  9.37950830   0.706  -1.85530   3.53404   6.89502   1.88760   0.00540   1.001E+00   0.000E+00  -4.503E-04
 548  9.38221703   0.706  -1.85619   3.53406   6.89533   1.88960   0.00722   9.977E-01   0.000E+00   2.353E-03
 549  9.38490896   0.706  -1.85707   3.53408   6.89563   1.89159   0.00903   9.948E-01   0.000E+00   5.157E-03
 550  9.38758431   0.707  -1.85795   3.53410   6.89594   1.89358   0.01084   9.920E-01   0.000E+00   7.960E-03
 551  9.39024328   0.707  -1.85884   3.53412   6.89625   1.89557   0.01266   9.891E-01   0.000E+00   1.076E-02
 552  9.39288607   0.707  -1.85972   3.53414   6.89656   1.89757   0.01447   9.863E-01   0.000E+00   1.357E-02
 553  9.39551288   0.707  -1.86060   3.53416   6.89687   1.89956   0.01629   9.834E-01   0.000E+00   1.637E-02
 554  9.39812389   0.707  -1.86149   3.53418   6.89717   1.90155   0.01810   9.806E-01   0.000E+00   1.917E-02
 555  9.40071930   0.707  -1.86237   3.53420   6.89748   1.90354   0.01991   9.777E-01   0.000E+00   2.198E-02
 556  9.40329929   0.708  -1.86326   3.53422   6.89779   1.90554   0.02173   9.749E-01   0.000E+00   2.478E-02
 557  9.40586404   0.708  -1.86414   3.53424   6.89810   1.90753   0.02354   9.720E-01   0.000E+00   2.758E-02
 558  9.40841374   0.708  -1.86418   3.53424   6.89813   1.90741   0.02521   9.732E-01   0.000E+00   2.636E-02
 559  9.41094855   0.708  -1.86373   3.53423   6.89801   1.90608   0.02680   9.768E-01   0.000E+00   2.286E-02
 560  9.41346866   0.708  -1.86329   3.53421   6.89789   1.90475   0.02839   9.803E-01   0.000E+00   1.935E-02
 561  9.41597422   0.708  -1.86284   3.53420   6.89777   1.90343   0.02998   9.838E-01   0.000E+00   1.584E-02
 562  9.41846542   0.707  -1.86240   3.53418   6.89765   1.90210   0.03157   9.873E-01   0.000E+00   1.233E-02
 563  9.42094240   0.707  -1.86195   3.53417   6.89753   1.90078   0.03316   9.909E-01   0.000E+00   8.824E-03
 564  9.42340534   0.707  -1.86150   3.53415   6.89741   1.89945   0.03475   9.944E-01   0.000E+00   5.316E-03
 565  9.42585439   0.707  -1.86106   3.53414   6.89729   1.89813   0.03634   9.979E-01   0.000E+00   1.808E-03
 566  9.42828971   0.707  -1.86061   3.53412   6.89717   1.89680   0.03793   1.001E+00   0.000E+00  -1.700E-03
 567  9.43071144   0.707  -1.86017   3.53411   6.89705   1.89548   0.03952   1.005E+00   0.000E+00  -5.208E-03
 568  9.43311975   0.707  -1.85972   3.53409   6.89693   1.89415   0.04111   1.008E+00   0.000E+00  -8.716E-03
 569  9.43551477   0.707  -1.85928   3.53408   6.89681   1.89283   0.04270   1.012E+00   0.000E+00  -1.222E-02
 570  9.43789666   0.707  -1.85883   3.53406   6.89669   1.89150   0.04429   1.016E+00   0.000E+00  -1.573E-02
 571  9.44026556   0.707  -1.85841   3.53405   6.89656   1.89039   0.04440   1.018E+00   0.000E+00  -1.804E-02
 572  9.44262161   0.706  -1.85802   3.53405   6.89640   1.88978   0.04100   1.017E+00   0.000E+00  -1.751E-02
 573  9.44496494   0.706  -1.85764   3.53404   6.89625   1.88917   0.03759   1.017E+00   0.000E+00  -1.698E-02
 574  9.44729570   0.706  -1.85726   3.53404   6.89609   1.88856   0.03419   1.016E+00   0.000E+00  -1.645E-02
 575  9.44961402   0.706  -1.85688   3.53404   6.89593   1.88795   0.03079   1.016E+00   0.000E+00  -1.591E-02
 576  9.45192002   0.706  -1.85650   3.53404   6.89577   1.88735   0.02738   1.015E+00   0.000E+00  -1.538E-02
 577  9.45421385   0.706  -1.85611   3.53404   6.89561   1.88674   0.02398   1.015E+00   0.000E+00  -1.485E-02
 578  9.45649562   0.706  -1.85573   3.53403   6.89546   1.88613   0.02057   1.014E+00   0.000E+00  -1.432E-02
 579  9.45876547   0.706  -1.85535   3.53403   6.89530   1.88552   0.01717   1.014E+00   0.000E+00  -1.378E-02
 580  9.46102352   0.706  -1.85497   3.53403   6.89514   1.88491   0.01377   1.013E+00   0.000E+00  -1.325E-02
 581  9.46326989   0.706  -1.85458   3.53403   6.89498   1.88430   0.01036   1.013E+00   0.000E+00  -1.272E-02
 582  9.46550469   0.706  -1.85420   3.53402   6.89482   1.88369   0.00696   1.012E+00   0.000E+00  -1.219E-02
 583  9.46772806   0.706  -1.85382   3.53402   6.89467   1.88309   0.00355   1.012E+00   0.000E+00  -1.166E-02
 584  9.46994010   0.706  -1.85344   3.53402   6.89451   1.88248   0.00015   1.011E+00   0.000E+00  -1.112E-02
 585  9.47214093   0.706  -1.85395   3.53403   6.89469   1.88357   0.00227   1.009E+00   0.000E+00  -9.037E-03
 586  9.47433067   0.706  -1.85451   3.53404   6.89489   1.88474   0.00465   1.007E+00   0.000E+00  -6.878E-03
 587  9.47650942   0.706  -1.85507   3.53405   6.89509   1.88591   0.00703   1.005E+00   0.000E+00  -4.719E-03
 588  9.47867729   0.706  -1.85563   3.53406   6.89529   1.88708   0.00941   1.002E+00   0.000E+00  -2.561E-03
 589  9.48083440   0.706  -1.85619   3.53408   6.89549   1.88825   0.01179   1.000E+00   0.000E+00  -4.020E-04
 590  9.48298085   0.706  -1.85675   3.53409   6.89569   1.88942   0.01416   9.981E-01   0.000E+00   1.757E-03
 591  9.48511674   0.707  -1.85730   3.53410   6.89589   1.89059   0.01654   9.959E-01   0.000E+00   3.916E-03
 592  9.48724217   0.707  -1.85786   3.53411   6.89609   1.89176   0.01892   9.937E-01   0.000E+00   6.074E-03
 593  9.48935726   0.707  -1.85842   3.53412   6.89629   1.89294   0.02130   9.915E-01   0.000E+00   8.233E-03
 594  9.49146209   0.707  -1.85898   3.53413   6.89649   1.89411   0.02368   9.894E-01   0.000E+00   1.039E-02
 595  9.49355677   0.707  -1.85954   3.53414   6.89669   1.89528   0.02606   9.872E-01   0.000E+00   1.255E-02
 596  9.49564140   0.707  -1.86010   3.53415   6.89689   1.89645   0.02844   9.850E-01   0.000E+00   1.471E-02
 597  9.49771607   0.707  -1.86065   3.53417   6.89709   1.89762   0.03081   9.828E-01   0.000E+00   1.687E-02
 598  9.49978088   0.707  -1.86063   3.53416   6.89709   1.89749   0.03277   9.835E-01   0.000E+00   1.623E-02
 599  9.50183591   0.707  -1.86024   3.53416   6.89697   1.89654   0.03447   9.859E-01   0.000E+00   1.385E-02
 600  9.50388127   0.707  -1.85984   3.53415   6.89684   1.89558   0.03616   9.883E-01   0.000E+00   1.147E-02
 601  9.50591704   0.707  -1.85945   3.53414   6.89671   1.89463   0.03786   9.907E-01   0.000E+00   9.084E-03
 602  9.50794331   0.707  -1.85906   3.53413   6.89659   1.89368   0.03955   9.931E-01   0.000E+00   6.700E-03
 603  9.50996017   0.707  -1.85866   3.53412   6.89646   1.89273   0.04125   9.955E-01   0.000E+00   4.317E-03
 604  9.51196770   0.707  -1.85827   3.53411   6.89634   1.89178   0.04295   9.979E-01   0.000E+00   1.933E-03
 605  9.51396600   0.707  -1.85788   3.53410   6.89621   1.89083   0.04464   1.000E+00   0.000E+00  -4.507E-04
 606  9.51595515   0.707  -1.85749   3.53409   6.89609   1.88988   0.04634   1.003E+00   0.000E+00  -2.834E-03
 607  9.51793523   0.707  -1.85709   3.53408   6.89596   1.88893   0.04803   1.005E+00   0.000E+00  -5.218E-03
 608  9.51990632   0.706  -1.85670   3.53407   6.89583   1.88798   0.04973   1.007E+00   0.000E+00  -7.602E-03
 609  9.52186851   0.706  -1.85631   3.53407   6.89571   1.88703   0.05142   1.010E+00   0.000E+00  -9.985E-03
 610  9.52382187   0.706  -1.85592   3.53406   6.89558   1.88608   0.05312   1.012E+00   0.000E+00  -1.237E-02
 611  9.52576648   0.706  -1.85554   3.53405   6.89545   1.88526   0.05323   1.014E+00   0.000E+00  -1.400E-02
 612  9.52770243   0.706  -1.85520   3.53405   6.89530   1.88477   0.04916   1.014E+00   0.000E+00  -1.365E-02
 613  9.52962978   0.706  -1.85486   3.53405   6.89516   1.88429   0.04509   1.013E+00   0.000E+00  -1.330E-02
 614  9.53154862   0.706  -1.85452   3.53405   6.89501   1.88381   0.04101   1.013E+00   0.000E+00  -1.294E-02
 615  9.53345902   0.706  -1.85418   3.53405   6.89487   1.88332   0.03694   1.012E+00   0.000E+00  -1.259E-02
 616  9.53536105   0.706  -1.85384   3.53405   6.89472   1.88284   0.03287   1.012E+00   0.000E+00  -1.223E-02
 617  9.53725479   0.706  -1.85350   3.53405   6.89457   1.88236   0.02879   1.012E+00   0.000E+00  -1.188E-02
 618  9.53914030   0.706  -1.85316   3.53404   6.89443   1.88187   0.02472   1.011E+00   0.000E+00  -1.153E-02
 619  9.54101767   0.706  -1.85282   3.53404   6.89428   1.88139   0.02064   1.011E+00   0.000E+00  -1.117E-02
 620  9.54288695   0.706  -1.85248   3.53404   6.89413   1.88091   0.01657   1.011E+00   0.000E+00  -1.082E-02
 621  9.54474822   0.706  -1.85214   3.53404   6.89399   1.88042   0.01250   1.010E+00   0.000E+00  -1.047E-02
 622  9.54660155   0.706  -1.85180   3.53404   6.89384   1.87994   0.00842   1.010E+00   0.000E+00  -1.011E-02
 623  9.54844701   0.706  -1.85146   3.53404   6.89370   1.87946   0.00435   1.009E+00   0.000E+00  -9.758E-03
 624  9.55028465   0.705  -1.85112   3.53404   6.89355   1.87897   0.00027   1.009E+00   0.000E+00  -9.404E-03
 625  9.55211456   0.706  -1.85152   3.53405   6.89370   1.87966   0.00271   1.007E+00   0.000E+00  -7.815E-03
 626  9.55393678   0.706  -1.85196   3.53405   6.89387   1.88044   0.00561   1.006E+00   0.000E+00  -6.138E-03
 627  9.55575139   0.706  -1.85241   3.53406   6.89404   1.88121   0.00851   1.004E+00   0.000E+00  -4.460E-03
 628  9.55755845   0.706  -1.85285   3.53406   6.89422   1.88198   0.01141   1.003E+00   0.000E+00  -2.783E-03
 629  9.55935802   0.706  -1.85330   3.53407   6.89439   1.88276   0.01431   1.001E+00   0.000E+00  -1.105E-03
 630  9.56115017   0.706  -1.85375   3.53408   6.89456   1.88353   0.01721   9.992E-01   0.000E+00   5.725E-04
 631  9.56293495   0.706  -1.85419   3.53408   6.89473   1.88430   0.02012   9.976E-01   0.000E+00   2.250E-03
 632  9.56471243   0.706  -1.85464   3.53409   6.89490   1.88508   0.02302   9.959E-01   0.000E+00   3.928E-03
 633  9.56648266   0.706  -1.85508   3.53409   6.89507   1.88585   0.02592   9.943E-01   0.000E+00   5.605E-03
 634  9.56824571   0.707  -1.85553   3.53410   6.89524   1.88662   0.02882   9.926E-01   0.000E+00   7.283E-03
 635  9.57000162   0.707  -1.85598   3.53411   6.89542   1.88740   0.03172   9.910E-01   0.000E+00   8.960E-03
 636  9.57175047   0.707  -1.85642   3.53411   6.89559   1.88817   0.03462   9.893E-01   0.000E+00   1.064E-02
 637  9.57349230   0.707  -1.85687   3.53412   6.89576   1.88894   0.03753   9.877E-01   0.000E+00   1.232E-02
 638  9.57522718   0.707  -1.85686   3.53412   6.89576   1.88889   0.03699   9.880E-01   0.000E+00   1.197E-02
 639  9.57695515   0.707  -1.85653   3.53411   6.89565   1.88827   0.03409   9.897E-01   0.000E+00   1.023E-02
 640  9.57867627   0.707  -1.85621   3.53411   6.89553   1.88766   0.03119   9.915E-01   0.000E+00   8.493E-03
 641  9.58039060   0.707  -1.85588   3.53411   6.89541   1.88704   0.02829   9.932E-01   0.000E+00   6.754E-03
 642  9.58209819   0.707  -1.85556   3.53410   6.89530   1.88642   0.02539   9.949E-01   0.000E+00   5.015E-03
 643  9.58379909   0.707  -1.85524   3.53410   6.89518   1.88580   0.02248   9.966E-01   0.000E+00   3.276E-03
 644  9.58549336   0.706  -1.85491   3.53410   6.89506   1.88518   0.01958   9.984E-01   0.000E+00   1.537E-03
 645  9.58718104   0.706  -1.85459   3.53409   6.89495   1.88456   0.01668   1.000E+00   0.000E+00  -2.023E-04
 646  9.58886219   0.706  -1.85426   3.53409   6.89483   1.88394   0.01378   1.002E+00   0.000E+00  -1.941E-03
 647  9.59053685   0.706  -1.85394   3.53408   6.89472   1.88332   0.01088   1.004E+00   0.000E+00  -3.680E-03
 648  9.59220508   0.706  -1.85361   3.53408   6.89460   1.88270   0.00798   1.005E+00   0.000E+00  -5.419E-03
 649  9.59386693   0.706  -1.85329   3.53408   6.89448   1.88208   0.00508   1.007E+00   0.000E+00  -7.158E-03
 650  9.59552245   0.706  -1.85296   3.53407   6.89437   1.88146   0.00217   1.009E+00   0.000E+00  -8.897E-03
 651  9.59717168   0.706  -1.85276   3.53407   6.89430   1.88106   0.00085   1.010E+00   0.000E+00  -9.922E-03
 652  9.59881466   0.706  -1.85292   3.53407   6.89436   1.88131   0.00426   1.009E+00   0.000E+00  -8.812E-03
 653  9.60045146   0.706  -1.85308   3.53408   6.89441   1.88156   0.00766   1.007E+00   0.000E+00  -7.703E-03
 654  9.60208211   0.706  -1.85324   3.53408   6.89447   1.88181   0.01107   1.006E+00   0.000E+00  -6.594E-03
 655  9.60370666   0.706  -1.85341   3.53408   6.89453   1.88206   0.01447   1.005E+00   0.000E+00  -5.484E-03
 656  9.60532516   0.706  -1.85357   3.53408   6.89459   1.88231   0.01787   1.004E+00   0.000E+00  -4.375E-03
 657  9.60693765   0.706  -1.85373   3.53408   6.89465   1.88256   0.02128   1.003E+00   0.000E+00  -3.265E-03
 658  9.60854417   0.706  -1.85389   3.53409   6.89471   1.88281   0.02468   1.002E+00   0.000E+00  -2.156E-03
 659  9.61014477   0.706  -1.85405   3.53409   6.89477   1.88306   0.02808   1.001E+00   0.000E+00  -1.047E-03
 660  9.61173949   0.706  -1.85421   3.53409   6.89483   1.88331   0.03149   9.996E-01   0.000E+00   6.268E-05
 661  9.61332838   0.706  -1.85437   3.53409   6.89489   1.88356   0.03489   9.985E-01   0.000E+00   1.172E-03
 662  9.61491148   0.707  -1.85453   3.53410   6.89495   1.88381   0.03830   9.973E-01   0.000E+00   2.281E-03
 663  9.61648883   0.707  -1.85469   3.53410   6.89501   1.88406   0.04170   9.962E-01   0.000E+00   3.391E-03
 664  9.61806047   0.707  -1.85486   3.53410   6.89507   1.88431   0.04510   9.951E-01   0.000E+00   4.500E-03
 665  9.61962644   0.707  -1.85459   3.53410   6.89497   1.88391   0.04231   9.960E-01   0.000E+00   3.694E-03
 666  9.62118679   0.707  -1.85428   3.53410   6.89485   1.88344   0.03891   9.970E-01   0.000E+00   2.699E-03
 667  9.62274155   0.706  -1.85398   3.53409   6.89473   1.88297   0.03550   9.981E-01   0.000E+00   1.703E-03
 668  9.62429077   0.706  -1.85367   3.53409   6.89461   1.88250   0.03210   9.991E-01   0.000E+00   7.079E-04
 669  9.62583447   0.706  -1.85336   3.53409   6.89448   1.88204   0.02870   1.000E+00   0.000E+00  -2.876E-04
 670  9.62737271   0.706  -1.85305   3.53409   6.89436   1.88157   0.02529   1.001E+00   0.000E+00  -1.283E-03
 671  9.62890552   0.706  -1.85275   3.53408   6.89424   1.88110   0.02189   1.002E+00   0.000E+00  -2.278E-03
 672  9.63043294   0.706  -1.85244   3.53408   6.89412   1.88064   0.01849   1.003E+00   0.000E+00  -3.274E-03
 673  9.63195501   0.706  -1.85213   3.53408   6.89400   1.88017   0.01508   1.004E+00   0.000E+00  -4.269E-03
 674  9.63347176   0.706  -1.85182   3.53408   6.89388   1.87970   0.01168   1.005E+00   0.000E+00  -5.265E-03
 675  9.63498324   0.706  -1.85152   3.53408   6.89376   1.87924   0.00827   1.006E+00   0.000E+00  -6.260E-03
 676  9.63648947   0.706  -1.85121   3.53407   6.89363   1.87877   0.00487   1.007E+00   0.000E+00  -7.256E-03
 677  9.63799049   0.706  -1.85090   3.53407   6.89351   1.87830   0.00147   1.009E+00   0.000E+00  -8.251E-03
 678  9.63948634   0.706  -1.85084   3.53407   6.89349   1.87818   0.00000   1.008E+00   0.000E+00  -8.171E-03
 679  9.64097706   0.706  -1.85097   3.53407   6.89354   1.87833   0.00000   1.008E+00   0.000E+00  -7.276E-03
 680  9.64246268   0.706  -1.85109   3.53407   6.89359   1.87848   0.00000   1.007E+00   0.000E+00  -6.381E-03
 681  9.64394324   0.706  -1.85122   3.53408   6.89363   1.87863   0.00000   1.006E+00   0.000E+00  -5.486E-03
 682  9.64541877   0.706  -1.85135   3.53408   6.89368   1.87877   0.00000   1.005E+00   0.000E+00  -4.591E-03
 683  9.64688930   0.706  -1.85147   3.53408   6.89373   1.87892   0.00000   1.004E+00   0.000E+00  -3.696E-03
 684  9.64835486   0.706  -1.85160   3.53408   6.89378   1.87907   0.00000   1.003E+00   0.000E+00  -2.801E-03
 685  9.64981550   0.706  -1.85172   3.53408   6.89383   1.87922   0.00000   1.002E+00   0.000E+00  -1.906E-03
 686  9.65127124   0.706  -1.85185   3.53408   6.89388   1.87937   0.00000   1.001E+00   0.000E+00  -1.011E-03
 687  9.65272212   0.706  -1.85198   3.53408   6.89393   1.87951   0.00000   1.000E+00   0.000E+00  -1.158E-04
 688  9.65416817   0.706  -1.85210   3.53409   6.89397   1.87966   0.00000   9.995E-01   0.000E+00   7.792E-04
 689  9.65560942   0.706  -1.85223   3.53409   6.89402   1.87981   0.00000   9.986E-01   0.000E+00   1.674E-03
 690  9.65704590   0.706  -1.85235   3.53409   6.89407   1.87996   0.00000   9.977E-01   0.000E+00   2.569E-03
 691  9.65847765   0.706  -1.85243   3.53409   6.89410   1.88005   0.00000   9.971E-01   0.000E+00   3.172E-03
 692  9.65990469   0.706  -1.85236   3.53409   6.89408   1.87994   0.00000   9.975E-01   0.000E+00   2.787E-03
 693  9.66132705   0.706  -1.85229   3.53409   6.89405   1.87984   0.00000   9.978E-01   0.000E+00   2.402E-03
 694  9.66274478   0.706  -1.85222   3.53409   6.89402   1.87974   0.00000   9.982E-01   0.000E+00   2.016E-03
 695  9.66415789   0.706  -1.85215   3.53409   6.89399   1.87964   0.00000   9.986E-01   0.000E+00   1.631E-03
 696  9.66556642   0.706  -1.85208   3.53409   6.89396   1.87954   0.00000   9.990E-01   0.000E+00   1.246E-03
 697  9.66697039   0.706  -1.85201   3.53409   6.89393   1.87944   0.00000   9.993E-01   0.000E+00   8.604E-04
 698  9.66836984   0.706  -1.85194   3.53409   6.89390   1.87933   0.00000   9.997E-01   0.000E+00   4.751E-04
 699  9.66976480   0.706  -1.85187   3.53409   6.89388   1.87923   0.00000   1.000E+00   0.000E+00   8.987E-05
 700  9.67115529   0.706  -1.85180   3.53409   6.89385   1.87913   0.00000   1.000E+00   0.000E+00  -2.954E-04
 701  9.67254134   0.706  -1.85173   3.53409   6.89382   1.87903   0.00000   1.001E+00   0.000E+00  -6.807E-04
 702  9.67392298   0.706  -1.85166   3.53409   6.89379   1.87893   0.00000   1.001E+00   0.000E+00  -1.066E-03
 703  9.67530024   0.706  -1.85159   3.53409   6.89376   1.87882   0.00000   1.002E+00   0.000E+00  -1.451E-03
 704  9.67667315   0.706  -1.85152   3.53409   6.89373   1.87872   0.00000   1.002E+00   0.000E+00  -1.837E-03
 705  9.67804173   0.706  -1.85143   3.53409   6.89370   1.87860   0.00000   1.002E+00   0.000E+00  -1.910E-03
 706  9.67940601   0.706  -1.85135   3.53409   6.89366   1.87847   0.00000   1.002E+00   0.000E+00  -1.944E-03
 707  9.68076602   0.706  -1.85126   3.53409   6.89362   1.87834   0.00000   1.002E+00   0.000E+00  -1.977E-03
 708  9.68212179   0.706  -1.85117   3.53409   6.89359   1.87821   0.00000   1.002E+00   0.000E+00  -2.011E-03
 709  9.68347333   0.706  -1.85109   3.53409   6.89355   1.87809   0.00000   1.002E+00   0.000E+00  -2.045E-03
 710  9.68482068   0.706  -1.85100   3.53409   6.89351   1.87796   0.00000   1.002E+00   0.000E+00  -2.079E-03
 711  9.68616386   0.706  -1.85092   3.53410   6.89348   1.87783   0.00000   1.002E+00   0.000E+00  -2.112E-03
 712  9.68750291   0.706  -1.85083   3.53410   6.89344   1.87770   0.00000   1.002E+00   0.000E+00  -2.146E-03
 713  9.68883783   0.706  -1.85074   3.53410   6.89340   1.87758   0.00000   1.002E+00   0.000E+00  -2.180E-03
 714  9.69016867   0.706  -1.85066   3.53410   6.89337   1.87745   0.00000   1.002E+00   0.000E+00  -2.214E-03
 715  9.69149544   0.706  -1.85057   3.53410   6.89333   1.87732   0.00000   1.002E+00   0.000E+00  -2.247E-03
 716  9.69281817   0.706  -1.85049   3.53410   6.89329   1.87720   0.00000   1.002E+00   0.000E+00  -2.281E-03
 717  9.69413688   0.706  -1.85040   3.53410   6.89326   1.87707   0.00000   1.002E+00   0.000E+00  -2.315E-03
 718  9.69545160   0.706  -1.85031   3.53410   6.89322   1.87694   0.00000   1.002E+00   0.000E+00  -2.327E-03
 719  9.69676236   0.706  -1.85023   3.53410   6.89319   1.87682   0.00000   1.002E+00   0.000E+00  -2.322E-03
 720  9.69806917   0.706  -1.85014   3.53410   6.89315   1.87670   0.00000   1.002E+00   0.000E+00  -2.317E-03
 721  9.69937205   0.706  -1.85006   3.53410   6.89312   1.87657   0.00000   1.002E+00   0.000E+00  -2.311E-03
 722  9.70067104   0.706  -1.84997   3.53410   6.89308   1.87645   0.00000   1.002E+00   0.000E+00  -2.306E-03
 723  9.70196616   0.706  -1.84989   3.53410   6.89304   1.87632   0.00000   1.002E+00   0.000E+00  -2.301E-03
 724  9.70325743   0.706  -1.84981   3.53410   6.89301   1.87620   0.00000   1.002E+00   0.000E+00  -2.296E-03
 725  9.70454487   0.706  -1.84972   3.53410   6.89297   1.87608   0.00000   1.002E+00   0.000E+00  -2.290E-03
 726  9.70582850   0.706  -1.84964   3.53410   6.89294   1.87595   0.00000   1.002E+00   0.000E+00  -2.285E-03
 727  9.70710835   0.706  -1.84955   3.53410   6.89290   1.87583   0.00000   1.002E+00   0.000E+00  -2.280E-03
 728  9.70838444   0.706  -1.84947   3.53410   6.89287   1.87571   0.00000   1.002E+00   0.000E+00  -2.275E-03
 729  9.70965679   0.706  -1.84938   3.53410   6.89283   1.87558   0.00000   1.002E+00   0.000E+00  -2.269E-03
 730  9.71092543   0.706  -1.84930   3.53410   6.89280   1.87546   0.00000   1.002E+00   0.000E+00  -2.264E-03
 731  9.71219037   0.706  -1.84921   3.53410   6.89276   1.87534   0.00000   1.002E+00   0.000E+00  -2.258E-03
 732  9.71345164   0.706  -1.84913   3.53410   6.89273   1.87522   0.00000   1.002E+00   0.000E+00  -2.249E-03
 733  9.71470925   0.706  -1.84905   3.53410   6.89270   1.87510   0.00000   1.002E+00   0.000E+00  -2.240E-03
 734  9.71596323   0.706  -1.84898   3.53410   6.89266   1.87498   0.00000   1.002E+00   0.000E+00  -2.231E-03
 735  9.71721361   0.706  -1.84890   3.53410   6.89263   1.87487   0.00000   1.002E+00   0.000E+00  -2.222E-03
 736  9.71846039   0.706  -1.84882   3.53410   6.89259   1.87475   0.00000   1.002E+00   0.000E+00  -2.213E-03
 737  9.71970360   0.706  -1.84874   3.53410   6.89256   1.87463   0.00000   1.002E+00   0.000E+00  -2.204E-03
 738  9.72094327   0.706  -1.84866   3.53410   6.89253   1.87451   0.00000   1.002E+00   0.000E+00  -2.195E-03
 739  9.72217940   0.706  -1.84858   3.53410   6.89249   1.87439   0.00000   1.002E+00   0.000E+00  -2.186E-03
 740  9.72341203   0.706  -1.84850   3.53410   6.89246   1.87428   0.00000   1.002E+00   0.000E+00  -2.177E-03
 741  9.72464117   0.706  -1.84842   3.53410   6.89243   1.87416   0.00000   1.002E+00   0.000E+00  -2.168E-03
 742  9.72586684   0.706  -1.84834   3.53410   6.89239   1.87404   0.00000   1.002E+00   0.000E+00  -2.159E-03
 743  9.72708906   0.706  -1.84826   3.53410   6.89236   1.87392   0.00000   1.002E+00   0.000E+00  -2.150E-03
 744  9.72830785   0.706  -1.84818   3.53410   6.89232   1.87381   0.00000   1.002E+00   0.000E+00  -2.141E-03
 745  9.72952324   0.706  -1.84810   3.53410   6.89229   1.87369   0.00000   1.002E+00   0.000E+00  -2.132E-03
 746  9.73073522   0.706  -1.84803   3.53410   6.89226   1.87358   0.00000   1.002E+00   0.000E+00  -2.123E-03
 747  9.73194384   0.706  -1.84795   3.53410   6.89223   1.87347   0.00000   1.002E+00   0.000E+00  -2.114E-03
 748  9.73314910   0.706  -1.84787   3.53410   6.89220   1.87336   0.00000   1.002E+00   0.000E+00  -2.105E-03
 749  9.73435103   0.706  -1.84780   3.53410   6.89217   1.87325   0.00000   1.002E+00   0.000E+00  -2.096E-03
 750  9.73554964   0.706  -1.84772   3.53410   6.89214   1.87314   0.00000   1.002E+00   0.000E+00  -2.087E-03
 751  9.73674495   0.706  -1.84765   3.53411   6.89210   1.87302   0.00000   1.002E+00   0.000E+00  -2.078E-03
 752  9.73793698   0.706  -1.84757   3.53411   6.89207   1.87291   0.00000   1.002E+00   0.000E+00  -2.069E-03
 753  9.73912574   0.706  -1.84749   3.53411   6.89204   1.87280   0.00000   1.002E+00   0.000E+00  -2.060E-03
 754  9.74031126   0.706  -1.84742   3.53411   6.89201   1.87269   0.00000   1.002E+00   0.000E+00  -2.051E-03
 755  9.74149356   0.706  -1.84734   3.53411   6.89198   1.87258   0.00000   1.002E+00   0.000E+00  -2.042E-03
 756  9.74267264   0.706  -1.84726   3.53411   6.89195   1.87246   0.00000   1.002E+00   0.000E+00  -2.033E-03
 757  9.74384853   0.706  -1.84719   3.53411   6.89192   1.87235   0.00000   1.002E+00   0.000E+00  -2.024E-03
 758  9.74502125   0.706  -1.84711   3.53411   6.89188   1.87224   0.00000   1.002E+00   0.000E+00  -2.017E-03
 759  9.74619081   0.706  -1.84704   3.53411   6.89185   1.87213   0.00000   1.002E+00   0.000E+00  -2.011E-03
 760  9.74735722   0.706  -1.84697   3.53411   6.89181   1.87202   0.00000   1.002E+00   0.000E+00  -2.005E-03
 761  9.74852052   0.706  -1.84689   3.53411   6.89178   1.87191   0.00000   1.002E+00   0.000E+00  -1.999E-03
 762  9.74968070   0.706  -1.84682   3.53411   6.89175   1.87179   0.00000   1.002E+00   0.000E+00  -1.993E-03
 763  9.75083779   0.706  -1.84675   3.53411   6.89171   1.87168   0.00000   1.002E+00   0.000E+00  -1.987E-03
 764  9.75199181   0.706  -1.84668   3.53411   6.89168   1.87157   0.00000   1.002E+00   0.000E+00  -1.981E-03
 765  9.75314277   0.706  -1.84660   3.53411   6.89165   1.87146   0.00000   1.002E+00   0.000E+00  -1.975E-03
 766  9.75429069   0.706  -1.84653   3.53411   6.89161   1.87135   0.00000   1.002E+00   0.000E+00  -1.969E-03
 767  9.75543559   0.706  -1.84646   3.53411   6.89158   1.87124   0.00000   1.002E+00   0.000E+00  -1.963E-03
 768  9.75657747   0.706  -1.84638   3.53411   6.89155   1.87112   0.00000   1.002E+00   0.000E+00  -1.957E-03
 769  9.75771636   0.706  -1.84631   3.53411   6.89151   1.87101   0.00000   1.002E+00   0.000E+00  -1.951E-03
 770  9.75885226   0.706  -1.84624   3.53411   6.89148   1.87090   0.00000   1.002E+00   0.000E+00  -1.945E-03
 771  9.75998521   0.706  -1.84617   3.53411   6.89144   1.87079   0.00000   1.002E+00   0.000E+00  -1.938E-03
 772  9.76111521   0.706  -1.84610   3.53411   6.89142   1.87069   0.00000   1.002E+00   0.000E+00  -1.929E-03
 773  9.76224227   0.706  -1.84603   3.53411   6.89139   1.87059   0.00000   1.002E+00   0.000E+00  -1.920E-03
 774  9.76336642   0.706  -1.84596   3.53411   6.89136   1.87049   0.00000   1.002E+00   0.000E+00  -1.911E-03
 775  9.76448767   0.706  -1.84589   3.53411   6.89133   1.87039   0.00000   1.002E+00   0.000E+00  -1.902E-03
 776  9.76560603   0.706  -1.84582   3.53411   6.89130   1.87029   0.00000   1.002E+00   0.000E+00  -1.893E-03
 777  9.76672151   0.706  -1.84575   3.53411   6.89127   1.87018   0.00000   1.002E+00   0.000E+00  -1.884E-03
 778  9.76783414   0.706  -1.84568   3.53412   6.89125   1.87008   0.00000   1.002E+00   0.000E+00  -1.875E-03
 779  9.76894392   0.705  -1.84562   3.53412   6.89122   1.86998   0.00000   1.002E+00   0.000E+00  -1.866E-03
 780  9.77005088   0.705  -1.84555   3.53412   6.89119   1.86988   0.00000   1.002E+00   0.000E+00  -1.857E-03
 781  9.77115502   0.705  -1.84548   3.53412   6.89116   1.86978   0.00000   1.002E+00   0.000E+00  -1.848E-03
 782  9.77225636   0.705  -1.84541   3.53412   6.89113   1.86968   0.00000   1.002E+00   0.000E+00  -1.839E-03
 783  9.77335492   0.705  -1.84534   3.53412   6.89110   1.86958   0.00000   1.002E+00   0.000E+00  -1.830E-03
 784  9.77445070   0.705  -1.84527   3.53412   6.89107   1.86948   0.00000   1.002E+00   0.000E+00  -1.821E-03
 785  9.77554373   0.705  -1.84520   3.53412   6.89105   1.86938   0.00000   1.002E+00   0.000E+00  -1.814E-03
 786  9.77663401   0.705  -1.84514   3.53412   6.89102   1.86928   0.00000   1.002E+00   0.000E+00  -1.806E-03
 787  9.77772157   0.705  -1.84507   3.53412   6.89099   1.86919   0.00000   1.002E+00   0.000E+00  -1.799E-03
 788  9.77880640   0.705  -1.84501   3.53412   6.89097   1.86909   0.00000   1.002E+00   0.000E+00  -1.791E-03
 789  9.77988853   0.705  -1.84494   3.53412   6.89094   1.86900   0.00000   1.002E+00   0.000E+00  -1.784E-03
 790  9.78096798   0.705  -1.84487   3.53412   6.89091   1.86890   0.00000   1.002E+00   0.000E+00  -1.776E-03
 791  9.78204474   0.705  -1.84481   3.53412   6.89089   1.86880   0.00000   1.002E+00   0.000E+00  -1.769E-03
 792  9.78311885   0.705  -1.84474   3.53412   6.89086   1.86871   0.00000   1.002E+00   0.000E+00  -1.761E-03
 793  9.78419030   0.705  -1.84468   3.53412   6.89083   1.86861   0.00000   1.002E+00   0.000E+00  -1.754E-03
 794  9.78525912   0.705  -1.84461   3.53412   6.89080   1.86852   0.00000   1.002E+00   0.000E+00  -1.746E-03
 795  9.78632531   0.705  -1.84454   3.53412   6.89078   1.86842   0.00000   1.002E+00   0.000E+00  -1.739E-03
 796  9.78738889   0.705  -1.84448   3.53412   6.89075   1.86832   0.00000   1.002E+00   0.000E+00  -1.731E-03
 797  9.78844987   0.705  -1.84441   3.53412   6.89072   1.86823   0.00000   1.002E+00   0.000E+00  -1.724E-03
 798  9.78950827   0.705  -1.84435   3.53412   6.89070   1.86813   0.00000   1.002E+00   0.000E+00  -1.717E-03
 799  9.79056409   0.705  -1.84429   3.53412   6.89067   1.86804   0.00000   1.002E+00   0.000E+00  -1.710E-03
 800  9.79161736   0.705  -1.84422   3.53412   6.89065   1.86795   0.00000   1.002E+00   0.000E+00  -1.703E-03
 801  9.79266807   0.705  -1.84416   3.53412   6.89062   1.86786   0.00000   1.002E+00   0.000E+00  -1.696E-03
 802  9.79371625   0.705  -1.84410   3.53412   6.89060   1.86777   0.00000   1.002E+00   0.000E+00  -1.690E-03
 803  9.79476191   0.705  -1.84404   3.53412   6.89057   1.86768   0.00000   1.002E+00   0.000E+00  -1.683E-03
 804  9.79580505   0.705  -1.84398   3.53412   6.89054   1.86759   0.00000   1.002E+00   0.000E+00  -1.676E-03
 805  9.79684570   0.705  -1.84391   3.53412   6.89052   1.86749   0.00000   1.002E+00   0.000E+00  -1.669E-03
 806  9.79788386   0.705  -1.84385   3.53412   6.89049   1.86740   0.00000   1.002E+00   0.000E+00  -1.663E-03
 807  9.79891954   0.705  -1.84379   3.53412   6.89047   1.86731   0.00000   1.002E+00   0.000E+00  -1.656E-03
 808  9.79995275   0.705  -1.84373   3.53412   6.89044   1.86722   0.00000   1.002E+00   0.000E+00  -1.649E-03
 809  9.80098352   0.705  -1.84366   3.53412   6.89042   1.86713   0.00000   1.002E+00   0.000E+00  -1.642E-03
 810  9.80201184   0.705  -1.84360   3.53412   6.89039   1.86704   0.00000   1.002E+00   0.000E+00  -1.636E-03
 811  9.80303774   0.705  -1.84354   3.53412   6.89037   1.86695   0.00000   1.002E+00   0.000E+00  -1.629E-03
 812  9.80406122   0.705  -1.84348   3.53412   6.89034   1.86686   0.00000   1.002E+00   0.000E+00  -1.623E-03
 813  9.80508229   0.705  -1.84342   3.53412   6.89032   1.86677   0.00000   1.002E+00   0.000E+00  -1.617E-03
 814  9.80610096   0.705  -1.84336   3.53412   6.89029   1.86669   0.00000   1.002E+00   0.000E+00  -1.611E-03
 815  9.80711726   0.705  -1.84330   3.53412   6.89027   1.86660   0.00000   1.002E+00   0.000E+00  -1.605E-03
 816  9.80813118   0.705  -1.84324   3.53412   6.89025   1.86651   0.00000   1.002E+00   0.000E+00  -1.599E-03
 817  9.80914274   0.705  -1.84318   3.53412   6.89022   1.86642   0.00000   1.002E+00   0.000E+00  -1.593E-03
 818  9.81015194   0.705  -1.84312   3.53413   6.89020   1.86634   0.00000   1.002E+00   0.000E+00  -1.587E-03
 819  9.81115881   0.705  -1.84306   3.53413   6.89017   1.86625   0.00000   1.002E+00   0.000E+00  -1.581E-03
 820  9.81216335   0.705  -1.84300   3.53413   6.89015   1.86616   0.00000   1.002E+00   0.000E+00  -1.575E-03
 821  9.81316557   0.705  -1.84294   3.53413   6.89013   1.86608   0.00000   1.002E+00   0.000E+00  -1.569E-03
 822  9.81416548   0.705  -1.84288   3.53413   6.89010   1.86599   0.00000   1.002E+00   0.000E+00  -1.563E-03
 823  9.81516310   0.705  -1.84282   3.53413   6.89008   1.86590   0.00000   1.002E+00   0.000E+00  -1.557E-03
 824  9.81615843   0.705  -1.84276   3.53413   6.89005   1.86582   0.00000   1.002E+00   0.000E+00  -1.551E-03
 825  9.81715148   0.705  -1.84270   3.53413   6.89003   1.86573   0.00000   1.002E+00   0.000E+00  -1.545E-03
 826  9.81814227   0.705  -1.84265   3.53413   6.89001   1.86565   0.00000   1.002E+00   0.000E+00  -1.539E-03
 827  9.81913081   0.705  -1.84259   3.53413   6.88998   1.86557   0.00000   1.002E+00   0.000E+00  -1.533E-03
 828  9.82011709   0.705  -1.84253   3.53413   6.88996   1.86548   0.00000   1.002E+00   0.000E+00  -1.527E-03
 829  9.82110115   0.705  -1.84248   3.53413   6.88994   1.86540   0.00000   1.002E+00   0.000E+00  -1.521E-03
 830  9.82208298   0.705  -1.84242   3.53413   6.88991   1.86532   0.00000   1.002E+00   0.000E+00  -1.515E-03
 831  9.82306259   0.705  -1.84236   3.53413   6.88989   1.86523   0.00000   1.001E+00   0.000E+00  -1.509E-03
 832  9.82404000   0.705  -1.84230   3.53413   6.88987   1.86515   0.00000   1.001E+00   0.000E+00  -1.503E-03
 833  9.82501522   0.705  -1.84225   3.53413   6.88985   1.86507   0.00000   1.001E+00   0.000E+00  -1.497E-03
 834  9.82598825   0.705  -1.84219   3.53413   6.88982   1.86498   0.00000   1.001E+00   0.000E+00  -1.491E-03
 835  9.82695910   0.705  -1.84213   3.53413   6.88980   1.86490   0.00000   1.001E+00   0.000E+00  -1.485E-03
 836  9.82792779   0.705  -1.84208   3.53413   6.88978   1.86482   0.00000   1.001E+00   0.000E+00  -1.479E-03
 837  9.82889432   0.705  -1.84202   3.53413   6.88975   1.86473   0.00000   1.001E+00   0.000E+00  -1.473E-03
 838  9.82985871   0.705  -1.84196   3.53413   6.88973   1.86465   0.00000   1.001E+00   0.000E+00  -1.468E-03
 839  9.83082096   0.705  -1.84191   3.53413   6.88971   1.86457   0.00000   1.001E+00   0.000E+00  -1.463E-03
 840  9.83178108   0.705  -1.84185   3.53413   6.88969   1.86449   0.00000   1.001E+00   0.000E+00  -1.459E-03
 841  9.83273909   0.705  -1.84180   3.53413   6.88966   1.86441   0.00000   1.001E+00   0.000E+00  -1.454E-03
 842  9.83369498   0.705  -1.84174   3.53413   6.88964   1.86433   0.00000   1.001E+00   0.000E+00  -1.450E-03
 843  9.83464878   0.705  -1.84169   3.53413   6.88962   1.86425   0.00000   1.001E+00   0.000E+00  -1.445E-03
 844  9.83560049   0.705  -1.84164   3.53413   6.88960   1.86418   0.00000   1.001E+00   0.000E+00  -1.441E-03
 845  9.83655011   0.705  -1.84158   3.53414   6.88958   1.86410   0.00000   1.001E+00   0.000E+00  -1.436E-03
 846  9.83749767   0.705  -1.84153   3.53414   6.88956   1.86402   0.00000   1.001E+00   0.000E+00  -1.432E-03
 847  9.83844316   0.705  -1.84147   3.53414   6.88953   1.86394   0.00000   1.001E+00   0.000E+00  -1.427E-03
 848  9.83938660   0.705  -1.84142   3.53414   6.88951   1.86386   0.00000   1.001E+00   0.000E+00  -1.423E-03
 849  9.84032799   0.705  -1.84136   3.53414   6.88949   1.86378   0.00000   1.001E+00   0.000E+00  -1.418E-03
 850  9.84126734   0.705  -1.84131   3.53414   6.88947   1.86370   0.00000   1.001E+00   0.000E+00  -1.414E-03
 851  9.84220467   0.705  -1.84125   3.53414   6.88945   1.86362   0.00000   1.001E+00   0.000E+00  -1.409E-03
 852  9.84313998   0.705  -1.84120   3.53414   6.88943   1.86354   0.00000   1.001E+00   0.000E+00  -1.404E-03
 853  9.84407328   0.705  -1.84115   3.53414   6.88941   1.86347   0.00000   1.001E+00   0.000E+00  -1.399E-03
 854  9.84500458   0.705  -1.84110   3.53414   6.88938   1.86339   0.00000   1.001E+00   0.000E+00  -1.394E-03
 855  9.84593389   0.705  -1.84105   3.53414   6.88936   1.86332   0.00000   1.001E+00   0.000E+00  -1.388E-03
 856  9.84686121   0.705  -1.84099   3.53414   6.88934   1.86324   0.00000   1.001E+00   0.000E+00  -1.383E-03
 857  9.84778655   0.705  -1.84094   3.53414   6.88932   1.86317   0.00000   1.001E+00   0.000E+00  -1.378E-03
 858  9.84870993   0.705  -1.84089   3.53414   6.88930   1.86309   0.00000   1.001E+00   0.000E+00  -1.373E-03
 859  9.84963135   0.705  -1.84084   3.53414   6.88928   1.86301   0.00000   1.001E+00   0.000E+00  -1.367E-03
 860  9.85055082   0.705  -1.84079   3.53414   6.88926   1.86294   0.00000   1.001E+00   0.000E+00  -1.362E-03
 861  9.85146835   0.705  -1.84074   3.53414   6.88924   1.86286   0.00000   1.001E+00   0.000E+00  -1.357E-03
 862  9.85238394   0.705  -1.84068   3.53414   6.88922   1.86279   0.00000   1.001E+00   0.000E+00  -1.352E-03
 863  9.85329760   0.705  -1.84063   3.53414   6.88920   1.86271   0.00000   1.001E+00   0.000E+00  -1.346E-03
 864  9.85420935   0.705  -1.84058   3.53414   6.88917   1.86264   0.00000   1.001E+00   0.000E+00  -1.341E-03
 865  9.85511919   0.705  -1.84053   3.53414   6.88915   1.86256   0.00000   1.001E+00   0.000E+00  -1.336E-03
 866  9.85602712   0.705  -1.84048   3.53414   6.88913   1.86249   0.00000   1.001E+00   0.000E+00  -1.332E-03
 867  9.85693316   0.705  -1.84043   3.53414   6.88911   1.86242   0.00000   1.001E+00   0.000E+00  -1.327E-03
 868  9.85783732   0.705  -1.84038   3.53414   6.88909   1.86235   0.00000   1.001E+00   0.000E+00  -1.323E-03
 869  9.85873959   0.705  -1.84033   3.53414   6.88907   1.86227   0.00000   1.001E+00   0.000E+00  -1.318E-03
 870  9.85964000   0.705  -1.84028   3.53414   6.88905   1.86220   0.00000   1.001E+00   0.000E+00  -1.314E-03
 871  9.86053854   0.705  -1.84023   3.53415   6.88903   1.86213   0.00000   1.001E+00   0.000E+00  -1.309E-03
 872  9.86143523   0.705  -1.84018   3.53415   6.88901   1.86206   0.00000   1.001E+00   0.000E+00  -1.305E-03
 873  9.86233007   0.705  -1.84013   3.53415   6.88899   1.86199   0.00000   1.001E+00   0.000E+00  -1.300E-03
 874  9.86322307   0.705  -1.84008   3.53415   6.88897   1.86192   0.00000   1.001E+00   0.000E+00  -1.296E-03
 875  9.86411423   0.705  -1.84003   3.53415   6.88895   1.86184   0.00000   1.001E+00   0.000E+00  -1.291E-03
 876  9.86500358   0.705  -1.83998   3.53415   6.88893   1.86177   0.00000   1.001E+00   0.000E+00  -1.287E-03
 877  9.86589110   0.705  -1.83993   3.53415   6.88891   1.86170   0.00000   1.001E+00   0.000E+00  -1.282E-03
 878  9.86677682   0.705  -1.83988   3.53415   6.88889   1.86163   0.00000   1.001E+00   0.000E+00  -1.278E-03
 879  9.86766073   0.705  -1.83983   3.53415   6.88887   1.86156   0.00000   1.001E+00   0.000E+00  -1.273E-03
 880  9.86854285   0.705  -1.83978   3.53415   6.88885   1.86149   0.00000   1.001E+00   0.000E+00  -1.269E-03
 881  9.86942317   0.705  -1.83973   3.53415   6.88884   1.86142   0.00000   1.001E+00   0.000E+00  -1.264E-03
 882  9.87030172   0.705  -1.83969   3.53415   6.88882   1.86135   0.00000   1.001E+00   0.000E+00  -1.260E-03
 883  9.87117850   0.705  -1.83964   3.53415   6.88880   1.86128   0.00000   1.001E+00   0.000E+00  -1.255E-03
 884  9.87205350   0.705  -1.83959   3.53415   6.88878   1.86121   0.00000   1.001E+00   0.000E+00  -1.251E-03
 885  9.87292675   0.705  -1.83954   3.53415   6.88876   1.86115   0.00000   1.001E+00   0.000E+00  -1.246E-03
 886  9.87379825   0.704  -1.83949   3.53415   6.88874   1.86108   0.00000   1.001E+00   0.000E+00  -1.242E-03
 887  9.87466800   0.704  -1.83945   3.53415   6.88872   1.86101   0.00000   1.001E+00   0.000E+00  -1.237E-03
 888  9.87553601   0.704  -1.83940   3.53415   6.88870   1.86094   0.00000   1.001E+00   0.000E+00  -1.233E-03
 889  9.87640229   0.704  -1.83935   3.53415   6.88869   1.86087   0.00000   1.001E+00   0.000E+00  -1.228E-03
 890  9.87726685   0.704  -1.83930   3.53415   6.88867   1.86080   0.00000   1.001E+00   0.000E+00  -1.224E-03
 891  9.87812969   0.704  -1.83925   3.53415   6.88865   1.86073   0.00000   1.001E+00   0.000E+00  -1.220E-03
 892  9.87899082   0.704  -1.83921   3.53415   6.88863   1.86067   0.00000   1.001E+00   0.000E+00  -1.216E-03
 893  9.87985024   0.704  -1.83916   3.53415   6.88861   1.86060   0.00000   1.001E+00   0.000E+00  -1.212E-03
 894  9.88070797   0.704  -1.83912   3.53415   6.88859   1.86053   0.00000   1.001E+00   0.000E+00  -1.208E-03
 895  9.88156400   0.704  -1.83907   3.53415   6.88858   1.86047   0.00000   1.001E+00   0.000E+00  -1.205E-03
 896  9.88241835   0.704  -1.83902   3.53415   6.88856   1.86040   0.00000   1.001E+00   0.000E+00  -1.201E-03
 897  9.88327103   0.704  -1.83898   3.53415   6.88854   1.86033   0.00000   1.001E+00   0.000E+00  -1.197E-03
 898  9.88412203   0.704  -1.83893   3.53416   6.88852   1.86027   0.00000   1.001E+00   0.000E+00  -1.193E-03
 899  9.88497137   0.704  -1.83888   3.53416   6.88850   1.86020   0.00000   1.001E+00   0.000E+00  -1.190E-03
 900  9.88581905   0.704  -1.83884   3.53416   6.88849   1.86013   0.00000   1.001E+00   0.000E+00  -1.186E-03
 901  9.88666508   0.704  -1.83879   3.53416   6.88847   1.86007   0.00000   1.001E+00   0.000E+00  -1.182E-03
 902  9.88750947   0.704  -1.83874   3.53416   6.88845   1.86000   0.00000   1.001E+00   0.000E+00  -1.178E-03
 903  9.88835221   0.704  -1.83870   3.53416   6.88843   1.85993   0.00000   1.001E+00   0.000E+00  -1.175E-03
 904  9.88919333   0.704  -1.83865   3.53416   6.88841   1.85987   0.00000   1.001E+00   0.000E+00  -1.171E-03
 905  9.89003282   0.704  -1.83861   3.53416   6.88840   1.85980   0.00000   1.001E+00   0.000E+00  -1.167E-03
 906  9.89087069   0.704  -1.83856   3.53416   6.88838   1.85974   0.00000   1.001E+00   0.000E+00  -1.162E-03
 907  9.89170694   0.704  -1.83852   3.53416   6.88836   1.85968   0.00000   1.001E+00   0.000E+00  -1.158E-03
 908  9.89254159   0.704  -1.83847   3.53416   6.88835   1.85961   0.00000   1.001E+00   0.000E+00  -1.153E-03
 909  9.89337464   0.704  -1.83843   3.53416   6.88833   1.85955   0.00000   1.001E+00   0.000E+00  -1.149E-03
 910  9.89420609   0.704  -1.83838   3.53416   6.88831   1.85949   0.00000   1.001E+00   0.000E+00  -1.144E-03
 911  9.89503595   0.704  -1.83834   3.53416   6.88830   1.85942   0.00000   1.001E+00   0.000E+00  -1.140E-03
 912  9.89586424   0.704  -1.83830   3.53416   6.88828   1.85936   0.00000   1.001E+00   0.000E+00  -1.135E-03
 913  9.89669094   0.704  -1.83825   3.53416   6.88827   1.85930   0.00000   1.001E+00   0.000E+00  -1.131E-03
 914  9.89751607   0.704  -1.83821   3.53416   6.88825   1.85923   0.00000   1.001E+00   0.000E+00  -1.126E-03
 915  9.89833964   0.704  -1.83816   3.53416   6.88823   1.85917   0.00000   1.001E+00   0.000E+00  -1.122E-03
 916  9.89916165   0.704  -1.83812   3.53416   6.88822   1.85911   0.00000   1.001E+00   0.000E+00  -1.117E-03
 917  9.89998211   0.704  -1.83808   3.53416   6.88820   1.85905   0.00000   1.001E+00   0.000E+00  -1.113E-03
 918  9.90080102   0.704  -1.83803   3.53416   6.88818   1.85898   0.00000   1.001E+00   0.000E+00  -1.109E-03
 919  9.90161839   0.704  -1.83799   3.53416   6.88817   1.85892   0.00000   1.001E+00   0.000E+00  -1.106E-03
 920  9.90243422   0.704  -1.83795   3.53416   6.88815   1.85886   0.00000   1.001E+00   0.000E+00  -1.103E-03
 921  9.90324853   0.704  -1.83791   3.53416   6.88813   1.85880   0.00000   1.001E+00   0.000E+00  -1.100E-03
 922  9.90406131   0.704  -1.83786   3.53416   6.88812   1.85874   0.00000   1.001E+00   0.000E+00  -1.097E-03
 923  9.90487257   0.704  -1.83782   3.53416   6.88810   1.85868   0.00000   1.001E+00   0.000E+00  -1.094E-03
 924  9.90568232   0.704  -1.83778   3.53416   6.88808   1.85862   0.00000   1.001E+00   0.000E+00  -1.091E-03
 925  9.90649056   0.704  -1.83774   3.53417   6.88807   1.85856   0.00000   1.001E+00   0.000E+00  -1.088E-03
 926  9.90729730   0.704  -1.83770   3.53417   6.88805   1.85850   0.00000   1.001E+00   0.000E+00  -1.085E-03
 927  9.90810255   0.704  -1.83765   3.53417   6.88803   1.85844   0.00000   1.001E+00   0.000E+00  -1.082E-03
 928  9.90890630   0.704  -1.83761   3.53417   6.88802   1.85838   0.00000   1.001E+00   0.000E+00  -1.079E-03
 929  9.90970857   0.704  -1.83757   3.53417   6.88800   1.85832   0.00000   1.001E+00   0.000E+00  -1.076E-03
 930  9.91050936   0.704  -1.83753   3.53417   6.88798   1.85826   0.00000   1.001E+00   0.000E+00  -1.073E-03
 931  9.91130868   0.704  -1.83749   3.53417   6.88797   1.85819   0.00000   1.001E+00   0.000E+00  -1.070E-03
 932  9.91210653   0.704  -1.83745   3.53417   6.88795   1.85814   0.00000   1.001E+00   0.000E+00  -1.066E-03
 933  9.91290291   0.704  -1.83741   3.53417   6.88794   1.85808   0.00000   1.001E+00   0.000E+00  -1.062E-03
 934  9.91369784   0.704  -1.83736   3.53417   6.88792   1.85802   0.00000   1.001E+00   0.000E+00  -1.058E-03
 935  9.91449131   0.704  -1.83732   3.53417   6.88791   1.85796   0.00000   1.001E+00   0.000E+00  -1.055E-03
 936  9.91528334   0.704  -1.83728   3.53417   6.88789   1.85790   0.00000   1.001E+00   0.000E+00  -1.051E-03
 937  9.91607393   0.704  -1.83724   3.53417   6.88787   1.85784   0.00000   1.001E+00   0.000E+00  -1.047E-03
 938  9.91686308   0.704  -1.83720   3.53417   6.88786   1.85779   0.00000   1.001E+00   0.000E+00  -1.043E-03
 939  9.91765080   0.704  -1.83716   3.53417   6.88784   1.85773   0.00000   1.001E+00   0.000E+00  -1.040E-03
 940  9.91843709   0.704  -1.83712   3.53417   6.88783   1.85767   0.00000   1.001E+00   0.000E+00  -1.036E-03
 941  9.91922196   0.704  -1.83708   3.53417   6.88781   1.85761   0.00000   1.001E+00   0.000E+00  -1.032E-03
 942  9.92000541   0.704  -1.83704   3.53417   6.88780   1.85755   0.00000   1.001E+00   0.000E+00  -1.028E-03
 943  9.92078746   0.704  -1.83700   3.53417   6.88778   1.85749   0.00000   1.001E+00   0.000E+00  -1.025E-03
 944  9.92156810   0.704  -1.83696   3.53417   6.88776   1.85743   0.00000   1.001E+00   0.000E+00  -1.021E-03
 945  9.92234734   0.704  -1.83692   3.53417   6.88775   1.85738   0.00000   1.001E+00   0.000E+00  -1.018E-03
 946  9.92312518   0.704  -1.83688   3.53417   6.88774   1.85732   0.00000   1.001E+00   0.000E+00  -1.014E-03
 947  9.92390163   0.704  -1.83684   3.53417   6.88772   1.85727   0.00000   1.001E+00   0.000E+00  -1.011E-03
 948  9.92467670   0.704  -1.83680   3.53417   6.88771   1.85721   0.00000   1.001E+00   0.000E+00  -1.008E-03
 949  9.92545038   0.704  -1.83676   3.53417   6.88769   1.85715   0.00000   1.001E+00   0.000E+00  -1.005E-03
 950  9.92622269   0.704  -1.83672   3.53417   6.88768   1.85710   0.00000   1.001E+00   0.000E+00  -1.001E-03
 951  9.92699363   0.704  -1.83668   3.53418   6.88766   1.85704   0.00000   1.001E+00   0.000E+00  -9.982E-04
 952  9.92776320   0.704  -1.83664   3.53418   6.88765   1.85698   0.00000   1.001E+00   0.000E+00  -9.950E-04
 953  9.92853141   0.704  -1.83660   3.53418   6.88764   1.85693   0.00000   1.001E+00   0.000E+00  -9.918E-04
 954  9.92929827   0.704  -1.83656   3.53418   6.88762   1.85687   0.00000   1.001E+00   0.000E+00  -9.886E-04
 955  9.93006377   0.704  -1.83652   3.53418   6.88761   1.85682   0.00000   1.001E+00   0.000E+00  -9.854E-04
 956  9.93082793   0.704  -1.83648   3.53418   6.88759   1.85676   0.00000   1.001E+00   0.000E+00  -9.821E-04
 957  9.93159074   0.704  -1.83644   3.53418   6.88758   1.85670   0.00000   1.001E+00   0.000E+00  -9.789E-04
 958  9.93235222   0.704  -1.83640   3.53418   6.88756   1.85665   0.00000   1.001E+00   0.000E+00  -9.758E-04
 959  9.93311236   0.704  -1.83637   3.53418   6.88755   1.85659   0.00000   1.001E+00   0.000E+00  -9.728E-04
 960  9.93387118   0.704  -1.83633   3.53418   6.88754   1.85654   0.00000   1.001E+00   0.000E+00  -9.698E-04
 961  9.93462867   0.704  -1.83629   3.53418   6.88752   1.85649   0.00000   1.001E+00   0.000E+00  -9.668E-04
 962  9.93538484   0.704  -1.83625   3.53418   6.88751   1.85644   0.00000   1.001E+00   0.000E+00  -9.638E-04
 963  9.93613970   0.704  -1.83622   3.53418   6.88749   1.85638   0.00000   1.001E+00   0.000E+00  -9.608E-04
 964  9.93689325   0.704  -1.83618   3.53418   6.88748   1.85633   0.00000   1.001E+00   0.000E+00  -9.578E-04
 965  9.93764549   0.704  -1.83614   3.53418   6.88746   1.85628   0.00000   1.001E+00   0.000E+00  -9.548E-04
 966  9.93839643   0.704  -1.83610   3.53418   6.88745   1.85622   0.00000   1.001E+00   0.000E+00  -9.518E-04
 967  9.93914608   0.704  -1.83607   3.53418   6.88744   1.85617   0.00000   1.001E+00   0.000E+00  -9.488E-04
 968  9.93989444   0.704  -1.83603   3.53418   6.88742   1.85612   0.00000   1.001E+00   0.000E+00  -9.458E-04
 969  9.94064150   0.704  -1.83599   3.53418   6.88741   1.85606   0.00000   1.001E+00   0.000E+00  -9.428E-04
 970  9.94138729   0.704  -1.83595   3.53418   6.88739   1.85601   0.00000   1.001E+00   0.000E+00  -9.398E-04
 971  9.94213180   0.704  -1.83592   3.53418   6.88738   1.85596   0.00000   1.001E+00   0.000E+00  -9.368E-04
 972  9.94287503   0.704  -1.83588   3.53418   6.88737   1.85590   0.00000   1.001E+00   0.000E+00  -9.340E-04
 973  9.94361699   0.704  -1.83585   3.53418   6.88735   1.85585   0.00000   1.001E+00   0.000E+00  -9.311E-04
 974  9.94435769   0.704  -1.83581   3.53418   6.88734   1.85580   0.00000   1.001E+00   0.000E+00  -9.283E-04
 975  9.94509712   0.704  -1.83577   3.53418   6.88733   1.85575   0.00000   1.001E+00   0.000E+00  -9.254E-04
 976  9.94583530   0.704  -1.83574   3.53418   6.88731   1.85570   0.00000   1.001E+00   0.000E+00  -9.226E-04
 977  9.94657223   0.704  -1.83570   3.53418   6.88730   1.85565   0.00000   1.001E+00   0.000E+00  -9.197E-04
 978  9.94730791   0.704  -1.83567   3.53419   6.88728   1.85559   0.00000   1.001E+00   0.000E+00  -9.169E-04
 979  9.94804234   0.704  -1.83563   3.53419   6.88727   1.85554   0.00000   1.001E+00   0.000E+00  -9.140E-04
 980  9.94877553   0.704  -1.83559   3.53419   6.88726   1.85549   0.00000   1.001E+00   0.000E+00  -9.112E-04
 981  9.94950749   0.704  -1.83556   3.53419   6.88724   1.85544   0.00000   1.001E+00   0.000E+00  -9.083E-04
 982  9.95023822   0.704  -1.83552   3.53419   6.88723   1.85539   0.00000   1.001E+00   0.000E+00  -9.055E-04
 983  9.95096772   0.704  -1.83549   3.53419   6.88722   1.85534   0.00000   1.001E+00   0.000E+00  -9.026E-04
 984  9.95169600   0.704  -1.83545   3.53419   6.88720   1.85528   0.00000   1.001E+00   0.000E+00  -8.998E-04
 985  9.95242305   0.704  -1.83541   3.53419   6.88719   1.85523   0.00000   1.001E+00   0.000E+00  -8.970E-04
 986  9.95314889   0.704  -1.83538   3.53419   6.88718   1.85518   0.00000   1.001E+00   0.000E+00  -8.942E-04
 987  9.95387352   0.704  -1.83534   3.53419   6.88717   1.85514   0.00000   1.001E+00   0.000E+00  -8.914E-04
 988  9.95459695   0.704  -1.83531   3.53419   6.88715   1.85509   0.00000   1.001E+00   0.000E+00  -8.887E-04
 989  9.95531917   0.704  -1.83527   3.53419   6.88714   1.85504   0.00000   1.001E+00   0.000E+00  -8.859E-04
 990  9.95604019   0.704  -1.83524   3.53419   6.88713   1.85499   0.00000   1.001E+00   0.000E+00  -8.831E-04
 991  9.95676002   0.704  -1.83520   3.53420   6.88711   1.85494   0.00000   1.001E+00   0.000E+00  -8.803E-04
 992  9.95747865   0.704  -1.83517   3.53420   6.88710   1.85489   0.00000   1.001E+00   0.000E+00  -8.776E-04
 993  9.95819610   0.704  -1.83513   3.53420   6.88709   1.85484   0.00000   1.001E+00   0.000E+00  -8.748E-04
 994  9.95891236   0.704  -1.83510   3.53420   6.88708   1.85479   0.00000   1.001E+00   0.000E+00  -8.720E-04
 995  9.95962745   0.704  -1.83506   3.53420   6.88706   1.85474   0.00000   1.001E+00   0.000E+00  -8.692E-04
 996  9.96034136   0.704  -1.83503   3.53420   6.88705   1.85469   0.00000   1.001E+00   0.000E+00  -8.665E-04
 997  9.96105410   0.704  -1.83499   3.53420   6.88704   1.85464   0.00000   1.001E+00   0.000E+00  -8.637E-04
 998  9.96176567   0.704  -1.83496   3.53420   6.88703   1.85459   0.00000   1.001E+00   0.000E+00  -8.610E-04
 999  9.96247608   0.704  -1.83492   3.53420   6.88701   1.85454   0.00000   1.001E+00   0.000E+00  -8.586E-04
1000  9.96318532   0.704  -1.83489   3.53420   6.88700   1.85450   0.00000   1.001E+00   0.000E+00  -8.561E-04
1001  9.96389341   0.704  -1.83486   3.53420   6.88699   1.85445   0.00000   1.001E+00   0.000E+00  -8.536E-04
1002  9.96460035   0.704  -1.83482   3.53420   6.88697   1.85440   0.00000   1.001E+00   0.000E+00  -8.511E-04
1003  9.96530614   0.704  -1.83479   3.53420   6.88696   1.85436   0.00000   1.001E+00   0.000E+00  -8.487E-04
1004  9.96601078   0.703  -1.83475   3.53420   6.88695   1.85431   0.00000   1.001E+00   0.000E+00  -8.462E-04
1005  9.96671428   0.703  -1.83472   3.53420   6.88694   1.85426   0.00000   1.001E+00   0.000E+00  -8.437E-04
1006  9.96741665   0.703  -1.83469   3.53420   6.88692   1.85421   0.00000   1.001E+00   0.000E+00  -8.413E-04
1007  9.96811788   0.703  -1.83465   3.53420   6.88691   1.85417   0.00000   1.001E+00   0.000E+00  -8.388E-04
1008  9.96881798   0.703  -1.83462   3.53420   6.88690   1.85412   0.00000   1.001E+00   0.000E+00  -8.363E-04
1009  9.96951695   0.703  -1.83459   3.53420   6.88688   1.85407   0.00000   1.001E+00   0.000E+00  -8.338E-04
1010  9.97021480   0.703  -1.83455   3.53420   6.88687   1.85403   0.00000   1.001E+00   0.000E+00  -8.314E-04
1011  9.97091153   0.703  -1.83452   3.53420   6.88686   1.85398   0.00000   1.001E+00   0.000E+00  -8.289E-04
1012  9.97160715   0.703  -1.83449   3.53420   6.88685   1.85393   0.00000   1.001E+00   0.000E+00  -8.263E-04
1013  9.97230165   0.703  -1.83445   3.53420   6.88684   1.85389   0.00000   1.001E+00   0.000E+00  -8.238E-04
1014  9.97299504   0.703  -1.83442   3.53420   6.88683   1.85384   0.00000   1.001E+00   0.000E+00  -8.212E-04
1015  9.97368733   0.703  -1.83439   3.53420   6.88681   1.85380   0.00000   1.001E+00   0.000E+00  -8.187E-04
1016  9.97437852   0.703  -1.83436   3.53420   6.88680   1.85375   0.00000   1.001E+00   0.000E+00  -8.161E-04
1017  9.97506860   0.703  -1.83433   3.53420   6.88679   1.85370   0.00000   1.001E+00   0.000E+00  -8.136E-04
1018  9.97575760   0.703  -1.83429   3.53421   6.88678   1.85366   0.00000   1.001E+00   0.000E+00  -8.110E-04
1019  9.97644550   0.703  -1.83426   3.53421   6.88677   1.85361   0.00000   1.001E+00   0.000E+00  -8.085E-04
1020  9.97713231   0.703  -1.83423   3.53421   6.88676   1.85357   0.00000   1.001E+00   0.000E+00  -8.059E-04
1021  9.97781804   0.703  -1.83420   3.53421   6.88675   1.85352   0.00000   1.001E+00   0.000E+00  -8.034E-04
1022  9.97850269   0.703  -1.83416   3.53421   6.88674   1.85347   0.00000   1.001E+00   0.000E+00  -8.008E-04
1023  9.97918626   0.703  -1.83413   3.53421   6.88672   1.85343   0.00000   1.001E+00   0.000E+00  -7.983E-04
1024  9.97986876   0.703  -1.83410   3.53421   6.88671   1.85338   0.00000   1.001E+00   0.000E+00  -7.958E-04
1025  9.98055018   0.703  -1.83407   3.53421   6.88670   1.85334   0.00000   1.001E+00   0.000E+00  -7.934E-04
1026  9.98123054   0.703  -1.83404   3.53421   6.88669   1.85329   0.00000   1.001E+00   0.000E+00  -7.910E-04
1027  9.98190983   0.703  -1.83401   3.53421   6.88668   1.85325   0.00000   1.001E+00   0.000E+00  -7.887E-04
1028  9.98258807   0.703  -1.83398   3.53421   6.88667   1.85321   0.00000   1.001E+00   0.000E+00  -7.864E-04
1029  9.98326524   0.703  -1.83395   3.53421   6.88666   1.85316   0.00000   1.001E+00   0.000E+00  -7.841E-04
1030  9.98394136   0.703  -1.83391   3.53421   6.88665   1.85312   0.00000   1.001E+00   0.000E+00  -7.817E-04
1031  9.98461643   0.703  -1.83388   3.53421   6.88663   1.85307   0.00000   1.001E+00   0.000E+00  -7.794E-04
1032  9.98529046   0.703  -1.83385   3.53421   6.88662   1.85303   0.00000   1.001E+00   0.000E+00  -7.771E-04
1033  9.98596344   0.703  -1.83382   3.53421   6.88661   1.85299   0.00000   1.001E+00   0.000E+00  -7.748E-04
1034  9.98663537   0.703  -1.83379   3.53421   6.88660   1.85294   0.00000   1.001E+00   0.000E+00  -7.724E-04
1035  9.98730627   0.703  -1.83376   3.53421   6.88659   1.85290   0.00000   1.001E+00   0.000E+00  -7.701E-04
1036  9.98797614   0.703  -1.83373   3.53421   6.88658   1.85285   0.00000   1.001E+00   0.000E+00  -7.678E-04
1037  9.98864497   0.703  -1.83370   3.53421   6.88657   1.85281   0.00000   1.001E+00   0.000E+00  -7.655E-04
1038  9.98931277   0.703  -1.83367   3.53421   6.88656   1.85276   0.00000   1.001E+00   0.000E+00  -7.632E-04
1039  9.98997955   0.703  -1.83364   3.53421   6.88655   1.85272   0.00000   1.001E+00   0.000E+00  -7.610E-04
1040  9.99064531   0.703  -1.83361   3.53421   6.88654   1.85268   0.00000   1.001E+00   0.000E+00  -7.589E-04
1041  9.99131005   0.703  -1.83358   3.53421   6.88652   1.85264   0.00000   1.001E+00   0.000E+00  -7.567E-04
1042  9.99197377   0.703  -1.83355   3.53421   6.88651   1.85260   0.00000   1.001E+00   0.000E+00  -7.545E-04
1043  9.99263648   0.703  -1.83352   3.53421   6.88650   1.85255   0.00000   1.001E+00   0.000E+00  -7.523E-04
1044  9.99329817   0.703  -1.83348   3.53421   6.88649   1.85251   0.00000   1.001E+00   0.000E+00  -7.502E-04
1045  9.99395887   0.703  -1.83345   3.53422   6.88648   1.85247   0.00000   1.001E+00   0.000E+00  -7.480E-04
1046  9.99461856   0.703  -1.83342   3.53422   6.88647   1.85243   0.00000   1.001E+00   0.000E+00  -7.458E-04
1047  9.99527724   0.703  -1.83339   3.53422   6.88646   1.85239   0.00000   1.001E+00   0.000E+00  -7.436E-04
1048  9.99593494   0.703  -1.83336   3.53422   6.88645   1.85234   0.00000   1.001E+00   0.000E+00  -7.415E-04
1049  9.99659163   0.703  -1.83333   3.53422   6.88644   1.85230   0.00000   1.001E+00   0.000E+00  -7.393E-04
1050  9.99724734   0.703  -1.83330   3.53422   6.88643   1.85226   0.00000   1.001E+00   0.000E+00  -7.371E-04
1051  9.99790205   0.703  -1.83327   3.53422   6.88642   1.85222   0.00000   1.001E+00   0.000E+00  -7.350E-04
1052  9.99855578   0.703  -1.83324   3.53422   6.88641   1.85218   0.00000   1.001E+00   0.000E+00  -7.330E-04
1053  9.99920853   0.703  -1.83321   3.53422   6.88640   1.85214   0.00000   1.001E+00   0.000E+00  -7.311E-04
1054  9.99986030   0.703  -1.83318   3.53422   6.88639   1.85210   0.00000   1.001E+00   0.000E+00  -7.291E-04
1055 10.00051109   0.703  -1.83315   3.53422   6.88638   1.85205   0.00000   1.001E+00   0.000E+00  -7.272E-04
1056 10.00116091   0.703  -1.83312   3.53422   6.88637   1.85201   0.00000   1.001E+00   0.000E+00  -7.252E-04
1057 10.00180976   0.703  -1.83309   3.53422   6.88636   1.85197   0.00000   1.001E+00   0.000E+00  -7.233E-04
1058 10.00245764   0.703  -1.83306   3.53422   6.88635   1.85193   0.00000   1.001E+00   0.000E+00  -7.213E-04
1059 10.00310455   0.703  -1.83304   3.53422   6.88634   1.85189   0.00000   1.001E+00   0.000E+00  -7.194E-04
1060 10.00375051   0.703  -1.83301   3.53422   6.88633   1.85185   0.00000   1.001E+00   0.000E+00  -7.174E-04
1061 10.00439550   0.703  -1.83298   3.53422   6.88631   1.85181   0.00000   1.001E+00   0.000E+00  -7.155E-04
1062 10.00503953   0.703  -1.83295   3.53422   6.88630   1.85177   0.00000   1.001E+00   0.000E+00  -7.135E-04
1063 10.00568262   0.703  -1.83292   3.53422   6.88629   1.85172   0.00000   1.001E+00   0.000E+00  -7.116E-04
1064 10.00632475   0.703  -1.83289   3.53422   6.88628   1.85168   0.00000   1.001E+00   0.000E+00  -7.096E-04
1065 10.00696593   0.703  -1.83285   3.53422   6.88627   1.85163   0.00000   1.001E+00   0.000E+00  -7.192E-04
1066 10.00760617   0.703  -1.83282   3.53422   6.88626   1.85158   0.00000   1.001E+00   0.000E+00  -7.341E-04
1067 10.00824547   0.703  -1.83278   3.53422   6.88624   1.85153   0.00000   1.001E+00   0.000E+00  -7.490E-04
1068 10.00888382   0.703  -1.83274   3.53422   6.88623   1.85148   0.00000   1.001E+00   0.000E+00  -7.639E-04
1069 10.00952124   0.703  -1.83271   3.53422   6.88622   1.85142   0.00000   1.001E+00   0.000E+00  -7.788E-04
1070 10.01015773   0.703  -1.83267   3.53422   6.88620   1.85137   0.00000   1.001E+00   0.000E+00  -7.938E-04
1071 10.01079328   0.703  -1.83263   3.53423   6.88619   1.85132   0.00000   1.001E+00   0.000E+00  -8.087E-04
1072 10.01142791   0.703  -1.83260   3.53423   6.88618   1.85127   0.00000   1.001E+00   0.000E+00  -8.236E-04
1073 10.01206161   0.703  -1.83256   3.53423   6.88616   1.85121   0.00000   1.001E+00   0.000E+00  -8.385E-04
1074 10.01269438   0.703  -1.83252   3.53423   6.88615   1.85116   0.00000   1.001E+00   0.000E+00  -8.534E-04
1075 10.01332624   0.703  -1.83249   3.53423   6.88614   1.85111   0.00000   1.001E+00   0.000E+00  -8.683E-04
1076 10.01395718   0.703  -1.83245   3.53423   6.88612   1.85106   0.00000   1.001E+00   0.000E+00  -8.833E-04
1077 10.01458720   0.703  -1.83241   3.53423   6.88611   1.85100   0.00000   1.001E+00   0.000E+00  -8.982E-04
1078 10.01521631   0.703  -1.83238   3.53423   6.88610   1.85095   0.00000   1.001E+00   0.000E+00  -9.077E-04
1079 10.01584451   0.703  -1.83234   3.53423   6.88608   1.85090   0.00000   1.001E+00   0.000E+00  -9.070E-04
1080 10.01647180   0.703  -1.83230   3.53423   6.88607   1.85085   0.00000   1.001E+00   0.000E+00  -9.062E-04
1081 10.01709819   0.703  -1.83227   3.53423   6.88605   1.85080   0.00000   1.001E+00   0.000E+00  -9.055E-04
1082 10.01772367   0.703  -1.83223   3.53423   6.88604   1.85075   0.00000   1.001E+00   0.000E+00  -9.047E-04
1083 10.01834826   0.703  -1.83219   3.53423   6.88602   1.85069   0.00000   1.001E+00   0.000E+00  -9.040E-04
1084 10.01897195   0.703  -1.83216   3.53423   6.88601   1.85064   0.00000   1.001E+00   0.000E+00  -9.032E-04
1085 10.01959474   0.703  -1.83212   3.53423   6.88600   1.85059   0.00000   1.001E+00   0.000E+00  -9.025E-04
1086 10.02021664   0.703  -1.83208   3.53423   6.88598   1.85054   0.00000   1.001E+00   0.000E+00  -9.017E-04
1087 10.02083766   0.703  -1.83205   3.53423   6.88597   1.85049   0.00000   1.001E+00   0.000E+00  -9.010E-04
1088 10.02145778   0.703  -1.83201   3.53423   6.88595   1.85044   0.00000   1.001E+00   0.000E+00  -9.002E-04
1089 10.02207702   0.703  -1.83197   3.53423   6.88594   1.85038   0.00000   1.001E+00   0.000E+00  -8.995E-04
1090 10.02269538   0.703  -1.83194   3.53423   6.88592   1.85033   0.00000   1.001E+00   0.000E+00  -8.987E-04
1091 10.02331287   0.703  -1.83190   3.53423   6.88591   1.85028   0.00000   1.001E+00   0.000E+00  -8.980E-04
