 # M = 0.55 Mo, Y = 0.2700, Z = 2.00000E-02, alpha = 1.68, X_D = 4.0E-05
 # Solar Mixture: Asplund et al. (2005)         
 # ------------------------------------------------------------------------------------------------------------
 # NMD   LOG AGE    Xc      LOG L     LOG TE    LOG Tc   LOG RHOc    M-CC       L-PP       L-CNO       L-GRA
 #        (yr)              (Lo)        (K)       (K)   (gr/cm^3)    (Mo)        (L)         (L)         (L)
 # ------------------------------------------------------------------------------------------------------------
   1  4.94211181   0.710   0.50981   3.59539   6.05865  -1.04596   0.00000   9.500E-01   0.000E+00   4.950E-02
   2  5.13514907   0.710   0.50130   3.59539   6.06272  -1.03371   0.00000   9.351E-01   0.000E+00   6.535E-02
   3  5.26831913   0.710   0.49306   3.59536   6.06665  -1.02193   0.00000   9.359E-01   0.000E+00   6.421E-02
   4  5.37009408   0.710   0.48583   3.59535   6.07011  -1.01155   0.00000   9.393E-01   0.000E+00   6.083E-02
   5  5.45248860   0.710   0.47883   3.59534   6.07346  -1.00148   0.00000   9.434E-01   0.000E+00   5.695E-02
   6  5.52171611   0.710   0.47281   3.59533   6.07633  -0.99286   0.00000   9.461E-01   0.000E+00   5.415E-02
   7  5.58141078   0.710   0.46695   3.59531   6.07912  -0.98447   0.00000   9.486E-01   0.000E+00   5.152E-02
   8  5.63388304   0.710   0.46109   3.59530   6.08191  -0.97609   0.00000   9.510E-01   0.000E+00   4.890E-02
   9  5.68069344   0.710   0.45560   3.59528   6.08452  -0.96826   0.00000   9.513E-01   0.000E+00   4.869E-02
  10  5.72294570   0.710   0.45010   3.59526   6.08712  -0.96043   0.00000   9.516E-01   0.000E+00   4.849E-02
  11  5.76144928   0.710   0.44461   3.59524   6.08973  -0.95259   0.00000   9.519E-01   0.000E+00   4.828E-02
  12  5.79681548   0.710   0.43902   3.59521   6.09237  -0.94465   0.00000   9.512E-01   0.000E+00   4.889E-02
  13  5.82951730   0.710   0.43337   3.59519   6.09505  -0.93661   0.00000   9.498E-01   0.000E+00   5.007E-02
  14  5.85992820   0.710   0.42772   3.59516   6.09772  -0.92858   0.00000   9.484E-01   0.000E+00   5.126E-02
  15  5.88834827   0.710   0.42207   3.59513   6.10039  -0.92055   0.00000   9.471E-01   0.000E+00   5.244E-02
  16  5.91502221   0.710   0.41583   3.59509   6.10332  -0.91175   0.00000   9.446E-01   0.000E+00   5.502E-02
  17  5.94015224   0.710   0.40955   3.59505   6.10626  -0.90291   0.00000   9.420E-01   0.000E+00   5.767E-02
  18  5.96390734   0.710   0.40328   3.59501   6.10920  -0.89406   0.00000   9.395E-01   0.000E+00   6.033E-02
  19  5.98643020   0.710   0.39657   3.59496   6.11235  -0.88461   0.00000   9.360E-01   0.000E+00   6.394E-02
  20  6.00784236   0.710   0.38921   3.59490   6.11578  -0.87429   0.00000   9.309E-01   0.000E+00   6.892E-02
  21  6.02824825   0.710   0.38186   3.59484   6.11922  -0.86396   0.00000   9.259E-01   0.000E+00   7.391E-02
  22  6.04773822   0.710   0.37415   3.59478   6.12283  -0.85315   0.00000   9.201E-01   0.000E+00   7.975E-02
  23  6.06639097   0.710   0.36516   3.59470   6.12700  -0.84060   0.00000   9.112E-01   0.000E+00   8.865E-02
  24  6.08427547   0.710   0.35617   3.59461   6.13118  -0.82804   0.00000   9.024E-01   0.000E+00   9.755E-02
  25  6.10145252   0.710   0.34603   3.59451   6.13587  -0.81394   0.00000   8.899E-01   0.000E+00   1.101E-01
  26  6.11797595   0.710   0.33473   3.59438   6.14108  -0.79828   0.00000   8.737E-01   0.000E+00   1.263E-01
  27  6.13389370   0.710   0.32263   3.59424   6.14666  -0.78151   0.00000   8.539E-01   0.000E+00   1.461E-01
  28  6.14924860   0.710   0.30841   3.59407   6.15321  -0.76182   0.00000   8.246E-01   0.000E+00   1.754E-01
  29  6.16407911   0.710   0.29235   3.59386   6.16057  -0.73972   0.00000   7.860E-01   0.000E+00   2.140E-01
  30  6.17841985   0.710   0.27408   3.59359   6.16889  -0.71473   0.00000   7.357E-01   0.000E+00   2.643E-01
  31  6.19230214   0.710   0.25223   3.59324   6.17882  -0.68491   0.00000   6.606E-01   0.000E+00   3.394E-01
  32  6.20575440   0.710   0.22630   3.59280   6.19054  -0.64965   0.00000   5.559E-01   0.000E+00   4.441E-01
  33  6.21880246   0.710   0.19598   3.59222   6.20413  -0.60883   0.00000   4.234E-01   0.000E+00   5.766E-01
  34  6.23146991   0.710   0.16241   3.59153   6.21911  -0.56383   0.00000   2.803E-01   0.000E+00   7.197E-01
  35  6.24377833   0.710   0.12682   3.59072   6.23490  -0.51649   0.00000   1.587E-01   0.000E+00   8.413E-01
  36  6.25574750   0.710   0.09171   3.58986   6.25043  -0.47001   0.00000   8.181E-02   0.000E+00   9.182E-01
  37  6.26739563   0.710   0.05863   3.58900   6.26485  -0.42664   0.00000   4.540E-02   0.000E+00   9.546E-01
  38  6.27873949   0.710   0.02796   3.58816   6.27814  -0.38668   0.00000   2.384E-02   0.000E+00   9.762E-01
  39  6.28979458   0.710  -0.00035   3.58733   6.29052  -0.34977   0.00000   1.239E-02   0.000E+00   9.876E-01
  40  6.30057522   0.710  -0.02656   3.58654   6.30175  -0.31602   0.00000   6.175E-03   0.000E+00   9.938E-01
  41  6.31109472   0.710  -0.05095   3.58579   6.31216  -0.28470   0.00000   3.000E-03   0.000E+00   9.970E-01
  42  6.33590106   0.710  -0.10371   3.58409   6.33455  -0.21734   0.00000   1.000E-03   0.000E+00   9.990E-01
  43  6.35936672   0.710  -0.14888   3.58258   6.35366  -0.15988   0.00000   0.000E+00   0.000E+00   1.000E+00
  44  6.38162923   0.710  -0.18822   3.58126   6.37028  -0.10983   0.00000   0.000E+00   0.000E+00   1.000E+00
  45  6.40280596   0.710  -0.22312   3.58008   6.38504  -0.06545   0.00000   0.000E+00   0.000E+00   1.000E+00
  46  6.42299792   0.710  -0.25426   3.57906   6.39826  -0.02569   0.00000   0.000E+00   0.000E+00   1.000E+00
  47  6.44229264   0.710  -0.28241   3.57815   6.41023   0.01036   0.00000   0.000E+00   0.000E+00   1.000E+00
  48  6.46076649   0.710  -0.30813   3.57733   6.42121   0.04341   0.00000   0.000E+00   0.000E+00   1.000E+00
  49  6.47848646   0.710  -0.33190   3.57658   6.43137   0.07399   0.00000   0.000E+00   0.000E+00   1.000E+00
  50  6.49551167   0.710  -0.35373   3.57592   6.44075   0.10222   0.00000   0.000E+00   0.000E+00   1.000E+00
  51  6.51189457   0.710  -0.37402   3.57532   6.44950   0.12855   0.00000   0.000E+00   0.000E+00   1.000E+00
  52  6.52768186   0.710  -0.39300   3.57476   6.45770   0.15327   0.00000   0.000E+00   0.000E+00   1.000E+00
  53  6.54291532   0.710  -0.41086   3.57425   6.46544   0.17656   0.00000   0.000E+00   0.000E+00   1.000E+00
  54  6.55763251   0.710  -0.42770   3.57377   6.47276   0.19860   0.00000   0.000E+00   0.000E+00   1.000E+00
  55  6.57186727   0.710  -0.44358   3.57333   6.47966   0.21941   0.00000   0.000E+00   0.000E+00   1.000E+00
  56  6.58565024   0.710  -0.45857   3.57292   6.48620   0.23912   0.00000   0.000E+00   0.000E+00   1.000E+00
  57  6.59900920   0.710  -0.47288   3.57253   6.49245   0.25795   0.00000   0.000E+00   0.000E+00   1.000E+00
  58  6.61196947   0.710  -0.48659   3.57216   6.49844   0.27602   0.00000   0.000E+00   0.000E+00   1.000E+00
  59  6.62455416   0.710  -0.49968   3.57181   6.50417   0.29329   0.00000   0.000E+00   0.000E+00   1.000E+00
  60  6.63678443   0.710  -0.51208   3.57149   6.50961   0.30969   0.00000   0.000E+00   0.000E+00   1.000E+00
  61  6.64867969   0.710  -0.52412   3.57118   6.51489   0.32561   0.00000   0.000E+00   0.000E+00   1.000E+00
  62  6.66025780   0.710  -0.53565   3.57087   6.51996   0.34086   0.00000   0.000E+00   0.000E+00   1.000E+00
  63  6.67153525   0.710  -0.54668   3.57059   6.52481   0.35547   0.00000   0.000E+00   0.000E+00   1.000E+00
  64  6.68252725   0.710  -0.55748   3.57031   6.52956   0.36980   0.00000   0.000E+00   0.000E+00   1.000E+00
  65  6.69324790   0.710  -0.56766   3.57005   6.53404   0.38330   0.00000   0.000E+00   0.000E+00   1.000E+00
  66  6.70371027   0.710  -0.57775   3.56980   6.53848   0.39668   0.00000   0.000E+00   0.000E+00   1.000E+00
  67  6.71392651   0.710  -0.58726   3.56956   6.54267   0.40933   0.00000   0.000E+00   0.000E+00   1.000E+00
  68  6.72390794   0.710  -0.59670   3.56932   6.54684   0.42188   0.00000   0.000E+00   0.000E+00   1.000E+00
  69  6.73366511   0.710  -0.60565   3.56910   6.55078   0.43377   0.00000   0.000E+00   0.000E+00   1.000E+00
  70  6.74320788   0.710  -0.61458   3.56887   6.55472   0.44565   0.00000   0.000E+00   0.000E+00   1.000E+00
  71  6.75254546   0.710  -0.62297   3.56866   6.55842   0.45681   0.00000   0.000E+00   0.000E+00   1.000E+00
  72  6.76168650   0.710  -0.63137   3.56845   6.56212   0.46798   0.00000   0.000E+00   0.000E+00   1.000E+00
  73  6.77063910   0.710  -0.63935   3.56825   6.56564   0.47861   0.00000   0.000E+00   0.000E+00   1.000E+00
  74  6.77941087   0.710  -0.64723   3.56806   6.56912   0.48910   0.00000   0.000E+00   0.000E+00   1.000E+00
  75  6.78800897   0.710  -0.65491   3.56787   6.57251   0.49933   0.00000   0.000E+00   0.000E+00   1.000E+00
  76  6.79644014   0.710  -0.66230   3.56769   6.57578   0.50918   0.00000   0.000E+00   0.000E+00   1.000E+00
  77  6.80471075   0.710  -0.66969   3.56750   6.57905   0.51903   0.00000   0.000E+00   0.000E+00   1.000E+00
  78  6.81282680   0.710  -0.67670   3.56733   6.58214   0.52837   0.00000   0.000E+00   0.000E+00   1.000E+00
  79  6.82079395   0.710  -0.68364   3.56716   6.58521   0.53762   0.00000   0.000E+00   0.000E+00   1.000E+00
  80  6.82861758   0.710  -0.69051   3.56698   6.58824   0.54679   0.00000   0.000E+00   0.000E+00   1.000E+00
  81  6.83630275   0.710  -0.69703   3.56682   6.59112   0.55548   0.00000   0.000E+00   0.000E+00   1.000E+00
  82  6.84385429   0.710  -0.70355   3.56666   6.59400   0.56417   0.00000   0.000E+00   0.000E+00   1.000E+00
  83  6.85127677   0.710  -0.70995   3.56651   6.59683   0.57272   0.00000   0.000E+00   0.000E+00   1.000E+00
  84  6.85857451   0.710  -0.71606   3.56636   6.59954   0.58089   0.00000   0.000E+00   0.000E+00   1.000E+00
  85  6.86575165   0.710  -0.72217   3.56622   6.60224   0.58906   0.00000   0.000E+00   0.000E+00   1.000E+00
  86  6.87281211   0.710  -0.72820   3.56607   6.60491   0.59712   0.00000   0.000E+00   0.000E+00   1.000E+00
  87  6.87975962   0.710  -0.73393   3.56593   6.60746   0.60480   0.00000   0.000E+00   0.000E+00   1.000E+00
  88  6.88659774   0.710  -0.73967   3.56580   6.61000   0.61248   0.00000   0.000E+00   0.000E+00   1.000E+00
  89  6.89332985   0.710  -0.74541   3.56566   6.61254   0.62016   0.00000   0.000E+00   0.000E+00   1.000E+00
  90  6.89995920   0.710  -0.75081   3.56553   6.61494   0.62740   0.00000   0.000E+00   0.000E+00   1.000E+00
  91  6.90648887   0.710  -0.75618   3.56540   6.61733   0.63462   0.00000   0.000E+00   0.000E+00   1.000E+00
  92  6.91292182   0.710  -0.76156   3.56527   6.61971   0.64183   0.00000   0.000E+00   0.000E+00   1.000E+00
  93  6.91926087   0.710  -0.76678   3.56515   6.62203   0.64885   0.00000   0.000E+00   0.000E+00   1.000E+00
  94  6.92550873   0.710  -0.77182   3.56503   6.62426   0.65564   0.00000   0.000E+00   0.000E+00   1.000E+00
  95  6.93166798   0.710  -0.77687   3.56492   6.62649   0.66243   0.00000   0.000E+00   0.000E+00   1.000E+00
  96  6.93774109   0.710  -0.78191   3.56480   6.62873   0.66921   0.00000   0.000E+00   0.000E+00   1.000E+00
  97  6.94373045   0.710  -0.78672   3.56469   6.63081   0.67575   0.00000   0.000E+00   0.000E+00   1.000E+00
  98  6.94963833   0.710  -0.79145   3.56458   6.63285   0.68219   0.00000   0.000E+00   0.000E+00   1.000E+00
  99  6.95546692   0.710  -0.79618   3.56447   6.63489   0.68863   0.00000   0.000E+00   0.000E+00   1.000E+00
 100  6.96121833   0.710  -0.80091   3.56437   6.63692   0.69508   0.00000   0.000E+00   0.000E+00   1.000E+00
 101  6.96689456   0.710  -0.80541   3.56426   6.63883   0.70127   0.00000   0.000E+00   0.000E+00   1.000E+00
 102  6.97249756   0.710  -0.80984   3.56416   6.64069   0.70738   0.00000   0.000E+00   0.000E+00   1.000E+00
 103  6.97802919   0.710  -0.81427   3.56407   6.64256   0.71350   0.00000   0.000E+00   0.000E+00   1.000E+00
 104  6.98349125   0.710  -0.81870   3.56397   6.64442   0.71961   0.00000   0.000E+00   0.000E+00   1.000E+00
 105  6.98888547   0.710  -0.82298   3.56387   6.64620   0.72556   0.00000   0.000E+00   0.000E+00   1.000E+00
 106  6.99421350   0.710  -0.82712   3.56378   6.64791   0.73137   0.00000   0.000E+00   0.000E+00   1.000E+00
 107  6.99947697   0.710  -0.83127   3.56369   6.64962   0.73718   0.00000   0.000E+00   0.000E+00   1.000E+00
 108  7.00467740   0.710  -0.83542   3.56360   6.65132   0.74299   0.00000   0.000E+00   0.000E+00   1.000E+00
 109  7.00981630   0.710  -0.83956   3.56351   6.65303   0.74879   0.00000   0.000E+00   0.000E+00   1.000E+00
 110  7.01489511   0.710  -0.84344   3.56343   6.65459   0.75430   0.00000   0.000E+00   0.000E+00   1.000E+00
 111  7.01991520   0.710  -0.84733   3.56334   6.65616   0.75982   0.00000   0.000E+00   0.000E+00   1.000E+00
 112  7.02487793   0.710  -0.85121   3.56326   6.65773   0.76533   0.00000   0.000E+00   0.000E+00   1.000E+00
 113  7.02978459   0.710  -0.85509   3.56318   6.65930   0.77085   0.00000   0.000E+00   0.000E+00   1.000E+00
 114  7.03463644   0.710  -0.85893   3.56309   6.66084   0.77631   0.00000   0.000E+00   0.000E+00   1.000E+00
 115  7.03943467   0.710  -0.86256   3.56302   6.66228   0.78155   0.00000   0.000E+00   0.000E+00   1.000E+00
 116  7.04418048   0.710  -0.86620   3.56294   6.66371   0.78680   0.00000   0.000E+00   0.000E+00   1.000E+00
 117  7.04887498   0.710  -0.86983   3.56287   6.66515   0.79204   0.00000   0.000E+00   0.000E+00   1.000E+00
 118  7.05351928   0.710  -0.87346   3.56279   6.66659   0.79728   0.00000   0.000E+00   0.000E+00   1.000E+00
 119  7.05811444   0.710  -0.87708   3.56272   6.66802   0.80251   0.00000   9.293E-06   0.000E+00   1.000E+00
 120  7.06266149   0.710  -0.88048   3.56265   6.66934   0.80750   0.00000   1.910E-04   0.000E+00   9.998E-01
 121  7.06716143   0.710  -0.88387   3.56258   6.67067   0.81248   0.00000   3.727E-04   0.000E+00   9.996E-01
 122  7.07161521   0.710  -0.88726   3.56251   6.67199   0.81746   0.00000   5.543E-04   0.000E+00   9.994E-01
 123  7.07602379   0.710  -0.89065   3.56244   6.67332   0.82244   0.00000   7.360E-04   0.000E+00   9.993E-01
 124  7.08038806   0.710  -0.89404   3.56237   6.67464   0.82742   0.00000   9.177E-04   0.000E+00   9.991E-01
 125  7.08470891   0.710  -0.89731   3.56231   6.67591   0.83227   0.00000   1.000E-03   0.000E+00   9.990E-01
 126  7.08898720   0.710  -0.90047   3.56225   6.67713   0.83701   0.00000   1.000E-03   0.000E+00   9.990E-01
 127  7.09322375   0.710  -0.90364   3.56219   6.67835   0.84174   0.00000   1.000E-03   0.000E+00   9.990E-01
 128  7.09741937   0.710  -0.90680   3.56213   6.67957   0.84648   0.00000   1.000E-03   0.000E+00   9.990E-01
 129  7.10157484   0.710  -0.90996   3.56207   6.68078   0.85121   0.00000   1.000E-03   0.000E+00   9.990E-01
 130  7.10569094   0.710  -0.91312   3.56201   6.68200   0.85595   0.00000   1.000E-03   0.000E+00   9.990E-01
 131  7.10976838   0.710  -0.91615   3.56196   6.68316   0.86053   0.00000   1.000E-03   0.000E+00   9.990E-01
 132  7.11380790   0.710  -0.91910   3.56190   6.68429   0.86502   0.00000   1.000E-03   0.000E+00   9.990E-01
 133  7.11781020   0.710  -0.92205   3.56185   6.68542   0.86952   0.00000   1.000E-03   0.000E+00   9.990E-01
 134  7.12177594   0.710  -0.92499   3.56179   6.68655   0.87402   0.00000   1.000E-03   0.000E+00   9.990E-01
 135  7.12570581   0.710  -0.92794   3.56174   6.68767   0.87852   0.00000   1.000E-03   0.000E+00   9.990E-01
 136  7.12960042   0.710  -0.93089   3.56169   6.68880   0.88302   0.00000   1.000E-03   0.000E+00   9.990E-01
 137  7.13346043   0.710  -0.93377   3.56164   6.68990   0.88744   0.00000   1.000E-03   0.000E+00   9.990E-01
 138  7.13728643   0.710  -0.93652   3.56159   6.69094   0.89172   0.00000   1.000E-03   0.000E+00   9.990E-01
 139  7.14107901   0.710  -0.93926   3.56154   6.69199   0.89599   0.00000   1.000E-03   0.000E+00   9.990E-01
 140  7.14483877   0.710  -0.94201   3.56150   6.69303   0.90026   0.00000   1.000E-03   0.000E+00   9.990E-01
 141  7.14856625   0.710  -0.94475   3.56145   6.69408   0.90454   0.00000   1.000E-03   0.000E+00   9.990E-01
 142  7.15226201   0.710  -0.94750   3.56141   6.69512   0.90881   0.00000   1.000E-03   0.000E+00   9.990E-01
 143  7.15592659   0.710  -0.95024   3.56136   6.69617   0.91309   0.00000   1.000E-03   0.000E+00   9.990E-01
 144  7.15956051   0.710  -0.95288   3.56132   6.69717   0.91724   0.00000   1.000E-03   0.000E+00   9.990E-01
 145  7.16316427   0.710  -0.95544   3.56128   6.69813   0.92131   0.00000   1.000E-03   0.000E+00   9.990E-01
 146  7.16673837   0.710  -0.95799   3.56124   6.69910   0.92537   0.00000   1.000E-03   0.000E+00   9.990E-01
 147  7.17028330   0.710  -0.96055   3.56119   6.70006   0.92943   0.00000   1.000E-03   0.000E+00   9.990E-01
 148  7.17379952   0.710  -0.96310   3.56115   6.70103   0.93349   0.00000   1.000E-03   0.000E+00   9.990E-01
 149  7.17728751   0.710  -0.96566   3.56111   6.70200   0.93755   0.00000   1.000E-03   0.000E+00   9.990E-01
 150  7.18074771   0.710  -0.96821   3.56107   6.70296   0.94161   0.00000   1.000E-03   0.000E+00   9.990E-01
 151  7.18418055   0.710  -0.97072   3.56103   6.70391   0.94561   0.00000   1.033E-03   0.000E+00   9.990E-01
 152  7.18758648   0.710  -0.97309   3.56100   6.70480   0.94947   0.00000   1.161E-03   0.000E+00   9.988E-01
 153  7.19096590   0.710  -0.97546   3.56096   6.70570   0.95332   0.00000   1.288E-03   0.000E+00   9.987E-01
 154  7.19431923   0.710  -0.97783   3.56093   6.70659   0.95718   0.00000   1.416E-03   0.000E+00   9.986E-01
 155  7.19764686   0.710  -0.98019   3.56089   6.70748   0.96104   0.00000   1.544E-03   0.000E+00   9.985E-01
 156  7.20094919   0.710  -0.98256   3.56086   6.70837   0.96489   0.00000   1.672E-03   0.000E+00   9.983E-01
 157  7.20422660   0.710  -0.98493   3.56082   6.70927   0.96875   0.00000   1.799E-03   0.000E+00   9.982E-01
 158  7.20747946   0.710  -0.98730   3.56079   6.71016   0.97260   0.00000   1.927E-03   0.000E+00   9.981E-01
 159  7.21070814   0.710  -0.98959   3.56076   6.71103   0.97638   0.00000   2.000E-03   0.000E+00   9.980E-01
 160  7.21391299   0.710  -0.99179   3.56073   6.71185   0.98004   0.00000   2.000E-03   0.000E+00   9.980E-01
 161  7.21709437   0.710  -0.99399   3.56070   6.71268   0.98371   0.00000   2.000E-03   0.000E+00   9.980E-01
 162  7.22025261   0.710  -0.99619   3.56067   6.71351   0.98737   0.00000   2.000E-03   0.000E+00   9.980E-01
 163  7.22338804   0.710  -0.99839   3.56064   6.71434   0.99104   0.00000   2.000E-03   0.000E+00   9.980E-01
 164  7.22650101   0.710  -1.00059   3.56061   6.71517   0.99470   0.00000   2.000E-03   0.000E+00   9.980E-01
 165  7.22959182   0.710  -1.00278   3.56058   6.71599   0.99837   0.00000   2.000E-03   0.000E+00   9.980E-01
 166  7.23266079   0.710  -1.00498   3.56055   6.71682   1.00204   0.00000   2.000E-03   0.000E+00   9.980E-01
 167  7.23570822   0.710  -1.00718   3.56052   6.71765   1.00570   0.00000   2.000E-03   0.000E+00   9.980E-01
 168  7.23873442   0.710  -1.00922   3.56050   6.71840   1.00915   0.00000   2.108E-03   0.000E+00   9.979E-01
 169  7.24173967   0.710  -1.01125   3.56047   6.71915   1.01259   0.00000   2.218E-03   0.000E+00   9.978E-01
 170  7.24472428   0.710  -1.01328   3.56045   6.71989   1.01604   0.00000   2.328E-03   0.000E+00   9.977E-01
 171  7.24768851   0.710  -1.01532   3.56042   6.72064   1.01948   0.00000   2.438E-03   0.000E+00   9.976E-01
 172  7.25063265   0.710  -1.01735   3.56040   6.72139   1.02292   0.00000   2.548E-03   0.000E+00   9.975E-01
 173  7.25355696   0.710  -1.01939   3.56038   6.72214   1.02637   0.00000   2.658E-03   0.000E+00   9.973E-01
 174  7.25646172   0.710  -1.02142   3.56035   6.72289   1.02981   0.00000   2.768E-03   0.000E+00   9.972E-01
 175  7.25934717   0.710  -1.02345   3.56033   6.72364   1.03325   0.00000   2.878E-03   0.000E+00   9.971E-01
 176  7.26221358   0.710  -1.02549   3.56030   6.72438   1.03670   0.00000   2.987E-03   0.000E+00   9.970E-01
 177  7.26506120   0.710  -1.02738   3.56028   6.72510   1.04002   0.00000   3.090E-03   0.000E+00   9.969E-01
 178  7.26789026   0.710  -1.02926   3.56026   6.72582   1.04332   0.00000   3.192E-03   0.000E+00   9.968E-01
 179  7.27070102   0.710  -1.03113   3.56024   6.72654   1.04663   0.00000   3.294E-03   0.000E+00   9.967E-01
 180  7.27349370   0.710  -1.03301   3.56022   6.72725   1.04993   0.00000   3.395E-03   0.000E+00   9.966E-01
 181  7.27626854   0.710  -1.03488   3.56021   6.72797   1.05324   0.00000   3.497E-03   0.000E+00   9.965E-01
 182  7.27902576   0.710  -1.03676   3.56019   6.72868   1.05654   0.00000   3.599E-03   0.000E+00   9.964E-01
 183  7.28176559   0.710  -1.03863   3.56017   6.72940   1.05984   0.00000   3.700E-03   0.000E+00   9.963E-01
 184  7.28448824   0.710  -1.04051   3.56015   6.73012   1.06315   0.00000   3.802E-03   0.000E+00   9.962E-01
 185  7.28719393   0.710  -1.04239   3.56013   6.73083   1.06645   0.00000   3.904E-03   0.000E+00   9.961E-01
 186  7.28988286   0.710  -1.04425   3.56011   6.73155   1.06975   0.00000   4.005E-03   0.000E+00   9.960E-01
 187  7.29255525   0.710  -1.04598   3.56009   6.73221   1.07288   0.00000   4.102E-03   0.000E+00   9.959E-01
 188  7.29521130   0.710  -1.04770   3.56008   6.73288   1.07602   0.00000   4.200E-03   0.000E+00   9.958E-01
 189  7.29785120   0.710  -1.04943   3.56007   6.73354   1.07915   0.00000   4.297E-03   0.000E+00   9.957E-01
 190  7.30047515   0.710  -1.05115   3.56005   6.73421   1.08229   0.00000   4.394E-03   0.000E+00   9.956E-01
 191  7.30308335   0.710  -1.05288   3.56004   6.73488   1.08542   0.00000   4.491E-03   0.000E+00   9.955E-01
 192  7.30567597   0.710  -1.05461   3.56002   6.73554   1.08856   0.00000   4.588E-03   0.000E+00   9.954E-01
 193  7.30825320   0.710  -1.05633   3.56001   6.73621   1.09169   0.00000   4.686E-03   0.000E+00   9.953E-01
 194  7.31081524   0.710  -1.05806   3.55999   6.73687   1.09483   0.00000   4.783E-03   0.000E+00   9.952E-01
 195  7.31336224   0.710  -1.05978   3.55998   6.73754   1.09796   0.00000   4.880E-03   0.000E+00   9.951E-01
 196  7.31589440   0.710  -1.06151   3.55996   6.73820   1.10110   0.00000   4.977E-03   0.000E+00   9.950E-01
 197  7.31841188   0.710  -1.06313   3.55995   6.73884   1.10411   0.00000   5.070E-03   0.000E+00   9.949E-01
 198  7.32091485   0.710  -1.06472   3.55994   6.73946   1.10709   0.00000   5.162E-03   0.000E+00   9.948E-01
 199  7.32340348   0.710  -1.06631   3.55993   6.74008   1.11007   0.00000   5.254E-03   0.000E+00   9.947E-01
 200  7.32587792   0.710  -1.06790   3.55992   6.74071   1.11305   0.00000   5.346E-03   0.000E+00   9.947E-01
 201  7.32833835   0.710  -1.06949   3.55991   6.74133   1.11603   0.00000   5.438E-03   0.000E+00   9.946E-01
 202  7.33078492   0.710  -1.07108   3.55990   6.74195   1.11901   0.00000   5.530E-03   0.000E+00   9.945E-01
 203  7.33321779   0.710  -1.07266   3.55989   6.74257   1.12198   0.00000   5.622E-03   0.000E+00   9.944E-01
 204  7.33563710   0.710  -1.07425   3.55988   6.74320   1.12496   0.00000   5.714E-03   0.000E+00   9.943E-01
 205  7.33804300   0.710  -1.07584   3.55987   6.74382   1.12794   0.00000   5.805E-03   0.000E+00   9.942E-01
 206  7.34043566   0.710  -1.07743   3.55986   6.74444   1.13092   0.00000   5.897E-03   0.000E+00   9.941E-01
 207  7.34281520   0.710  -1.07902   3.55985   6.74507   1.13390   0.00000   5.989E-03   0.000E+00   9.940E-01
 208  7.34518178   0.710  -1.08050   3.55984   6.74566   1.13674   0.00000   6.077E-03   0.000E+00   9.939E-01
 209  7.34753553   0.710  -1.08197   3.55984   6.74624   1.13957   0.00000   6.164E-03   0.000E+00   9.938E-01
 210  7.34987659   0.710  -1.08343   3.55983   6.74683   1.14240   0.00000   6.251E-03   0.000E+00   9.937E-01
 211  7.35220510   0.710  -1.08490   3.55982   6.74741   1.14523   0.00000   6.338E-03   0.000E+00   9.937E-01
 212  7.35452119   0.710  -1.08636   3.55982   6.74800   1.14806   0.00000   6.425E-03   0.000E+00   9.936E-01
 213  7.35682500   0.710  -1.08783   3.55981   6.74858   1.15088   0.00000   6.512E-03   0.000E+00   9.935E-01
 214  7.35911665   0.710  -1.08930   3.55980   6.74917   1.15371   0.00000   6.599E-03   0.000E+00   9.934E-01
 215  7.36139627   0.710  -1.09076   3.55980   6.74975   1.15654   0.00000   6.686E-03   0.000E+00   9.933E-01
 216  7.36366399   0.710  -1.09223   3.55979   6.75034   1.15937   0.00000   6.773E-03   0.000E+00   9.932E-01
 217  7.36591992   0.710  -1.09369   3.55978   6.75092   1.16220   0.00000   6.860E-03   0.000E+00   9.931E-01
 218  7.36816420   0.710  -1.09516   3.55977   6.75151   1.16503   0.00000   6.948E-03   0.000E+00   9.931E-01
 219  7.37039694   0.710  -1.09657   3.55977   6.75208   1.16780   0.00000   7.066E-03   0.000E+00   9.929E-01
 220  7.37261827   0.710  -1.09792   3.55977   6.75263   1.17049   0.00000   7.231E-03   0.000E+00   9.928E-01
 221  7.37482828   0.710  -1.09926   3.55976   6.75318   1.17318   0.00000   7.396E-03   0.000E+00   9.926E-01
 222  7.37702711   0.710  -1.10060   3.55976   6.75373   1.17587   0.00000   7.561E-03   0.000E+00   9.924E-01
 223  7.37921487   0.710  -1.10195   3.55976   6.75429   1.17856   0.00000   7.726E-03   0.000E+00   9.923E-01
 224  7.38139165   0.710  -1.10329   3.55976   6.75484   1.18125   0.00000   7.892E-03   0.000E+00   9.921E-01
 225  7.38355758   0.710  -1.10463   3.55975   6.75539   1.18394   0.00000   8.057E-03   0.000E+00   9.919E-01
 226  7.38571276   0.710  -1.10598   3.55975   6.75594   1.18663   0.00000   8.222E-03   0.000E+00   9.918E-01
 227  7.38785730   0.710  -1.10732   3.55975   6.75649   1.18932   0.00000   8.387E-03   0.000E+00   9.916E-01
 228  7.38999131   0.710  -1.10866   3.55975   6.75705   1.19201   0.00000   8.552E-03   0.000E+00   9.914E-01
 229  7.39211487   0.710  -1.11000   3.55974   6.75760   1.19470   0.00000   8.718E-03   0.000E+00   9.913E-01
 230  7.39422811   0.710  -1.11135   3.55974   6.75815   1.19739   0.00000   8.883E-03   0.000E+00   9.911E-01
 231  7.39633111   0.710  -1.11266   3.55974   6.75869   1.20004   0.00000   9.046E-03   0.000E+00   9.910E-01
 232  7.39842398   0.710  -1.11389   3.55974   6.75921   1.20260   0.00000   9.202E-03   0.000E+00   9.908E-01
 233  7.40050681   0.710  -1.11512   3.55974   6.75973   1.20516   0.00000   9.359E-03   0.000E+00   9.906E-01
 234  7.40257969   0.710  -1.11636   3.55974   6.76025   1.20772   0.00000   9.516E-03   0.000E+00   9.905E-01
 235  7.40464274   0.710  -1.11759   3.55974   6.76077   1.21028   0.00000   9.673E-03   0.000E+00   9.903E-01
 236  7.40669602   0.710  -1.11882   3.55974   6.76129   1.21284   0.00000   9.830E-03   0.000E+00   9.902E-01
 237  7.40873965   0.710  -1.12006   3.55974   6.76181   1.21539   0.00000   9.987E-03   0.000E+00   9.900E-01
 238  7.41077370   0.710  -1.12129   3.55975   6.76233   1.21795   0.00000   1.014E-02   0.000E+00   9.899E-01
 239  7.41279827   0.710  -1.12252   3.55975   6.76285   1.22051   0.00000   1.030E-02   0.000E+00   9.897E-01
 240  7.41481345   0.710  -1.12376   3.55975   6.76337   1.22307   0.00000   1.046E-02   0.000E+00   9.895E-01
 241  7.41681932   0.710  -1.12499   3.55975   6.76389   1.22563   0.00000   1.061E-02   0.000E+00   9.894E-01
 242  7.41881597   0.710  -1.12622   3.55975   6.76441   1.22819   0.00000   1.077E-02   0.000E+00   9.892E-01
 243  7.42080348   0.710  -1.12745   3.55975   6.76493   1.23075   0.00000   1.093E-02   0.000E+00   9.891E-01
 244  7.42278194   0.710  -1.12863   3.55975   6.76544   1.23324   0.00000   1.108E-02   0.000E+00   9.889E-01
 245  7.42475142   0.710  -1.12976   3.55976   6.76593   1.23568   0.00000   1.123E-02   0.000E+00   9.888E-01
 246  7.42671201   0.710  -1.13089   3.55976   6.76642   1.23811   0.00000   1.138E-02   0.000E+00   9.886E-01
 247  7.42866380   0.710  -1.13202   3.55977   6.76691   1.24055   0.00000   1.153E-02   0.000E+00   9.885E-01
 248  7.43060685   0.710  -1.13315   3.55977   6.76740   1.24299   0.00000   1.168E-02   0.000E+00   9.883E-01
 249  7.43254124   0.710  -1.13428   3.55977   6.76790   1.24543   0.00000   1.183E-02   0.000E+00   9.882E-01
 250  7.43446706   0.710  -1.13541   3.55978   6.76839   1.24786   0.00000   1.198E-02   0.000E+00   9.880E-01
 251  7.43638437   0.710  -1.13654   3.55978   6.76888   1.25030   0.00000   1.212E-02   0.000E+00   9.879E-01
 252  7.43829326   0.710  -1.13767   3.55979   6.76937   1.25274   0.00000   1.227E-02   0.000E+00   9.877E-01
 253  7.44019380   0.710  -1.13880   3.55979   6.76986   1.25518   0.00000   1.242E-02   0.000E+00   9.876E-01
 254  7.44208605   0.710  -1.13992   3.55980   6.77036   1.25761   0.00000   1.257E-02   0.000E+00   9.874E-01
 255  7.44397009   0.710  -1.14105   3.55980   6.77085   1.26005   0.00000   1.272E-02   0.000E+00   9.873E-01
 256  7.44584600   0.710  -1.14218   3.55981   6.77134   1.26249   0.00000   1.287E-02   0.000E+00   9.871E-01
 257  7.44771384   0.710  -1.14330   3.55981   6.77183   1.26491   0.00000   1.303E-02   0.000E+00   9.870E-01
 258  7.44957368   0.710  -1.14433   3.55982   6.77230   1.26724   0.00000   1.324E-02   0.000E+00   9.868E-01
 259  7.45142559   0.710  -1.14537   3.55983   6.77276   1.26956   0.00000   1.345E-02   0.000E+00   9.865E-01
 260  7.45326963   0.710  -1.14640   3.55983   6.77323   1.27188   0.00000   1.367E-02   0.000E+00   9.863E-01
 261  7.45510588   0.710  -1.14743   3.55984   6.77370   1.27420   0.00000   1.388E-02   0.000E+00   9.861E-01
 262  7.45693440   0.710  -1.14846   3.55985   6.77417   1.27652   0.00000   1.409E-02   0.000E+00   9.859E-01
 263  7.45875525   0.710  -1.14950   3.55985   6.77463   1.27885   0.00000   1.430E-02   0.000E+00   9.857E-01
 264  7.46056850   0.710  -1.15053   3.55986   6.77510   1.28117   0.00000   1.452E-02   0.000E+00   9.855E-01
 265  7.46237421   0.710  -1.15156   3.55987   6.77557   1.28349   0.00000   1.473E-02   0.000E+00   9.853E-01
 266  7.46417244   0.710  -1.15259   3.55987   6.77604   1.28581   0.00000   1.494E-02   0.000E+00   9.851E-01
 267  7.46596326   0.710  -1.15363   3.55988   6.77650   1.28813   0.00000   1.515E-02   0.000E+00   9.848E-01
 268  7.46774672   0.710  -1.15466   3.55989   6.77697   1.29045   0.00000   1.537E-02   0.000E+00   9.846E-01
 269  7.46952289   0.710  -1.15569   3.55990   6.77744   1.29278   0.00000   1.558E-02   0.000E+00   9.844E-01
 270  7.47129183   0.710  -1.15672   3.55990   6.77790   1.29510   0.00000   1.579E-02   0.000E+00   9.842E-01
 271  7.47305359   0.710  -1.15775   3.55991   6.77837   1.29742   0.00000   1.601E-02   0.000E+00   9.840E-01
 272  7.47480823   0.710  -1.15870   3.55992   6.77882   1.29963   0.00000   1.628E-02   0.000E+00   9.837E-01
 273  7.47655581   0.710  -1.15964   3.55993   6.77926   1.30184   0.00000   1.655E-02   0.000E+00   9.835E-01
 274  7.47829638   0.710  -1.16058   3.55994   6.77970   1.30405   0.00000   1.682E-02   0.000E+00   9.832E-01
 275  7.48003001   0.710  -1.16152   3.55995   6.78015   1.30626   0.00000   1.709E-02   0.000E+00   9.829E-01
 276  7.48175675   0.710  -1.16246   3.55996   6.78059   1.30847   0.00000   1.736E-02   0.000E+00   9.826E-01
 277  7.48347665   0.710  -1.16340   3.55998   6.78104   1.31068   0.00000   1.763E-02   0.000E+00   9.824E-01
 278  7.48518976   0.710  -1.16434   3.55999   6.78148   1.31289   0.00000   1.790E-02   0.000E+00   9.821E-01
 279  7.48689614   0.710  -1.16528   3.56000   6.78193   1.31510   0.00000   1.817E-02   0.000E+00   9.818E-01
 280  7.48859585   0.710  -1.16622   3.56001   6.78237   1.31731   0.00000   1.844E-02   0.000E+00   9.816E-01
 281  7.49028892   0.710  -1.16716   3.56002   6.78282   1.31952   0.00000   1.871E-02   0.000E+00   9.813E-01
 282  7.49197543   0.710  -1.16810   3.56003   6.78326   1.32174   0.00000   1.898E-02   0.000E+00   9.810E-01
 283  7.49365541   0.710  -1.16905   3.56004   6.78370   1.32395   0.00000   1.925E-02   0.000E+00   9.808E-01
 284  7.49532891   0.710  -1.16999   3.56005   6.78415   1.32616   0.00000   1.952E-02   0.000E+00   9.805E-01
 285  7.49699599   0.710  -1.17093   3.56006   6.78459   1.32837   0.00000   1.979E-02   0.000E+00   9.802E-01
 286  7.49865670   0.710  -1.17185   3.56007   6.78503   1.33056   0.00000   2.006E-02   0.000E+00   9.799E-01
 287  7.50031108   0.710  -1.17270   3.56009   6.78546   1.33266   0.00000   2.031E-02   0.000E+00   9.797E-01
 288  7.50195918   0.710  -1.17356   3.56010   6.78588   1.33477   0.00000   2.057E-02   0.000E+00   9.794E-01
 289  7.50360105   0.710  -1.17442   3.56011   6.78631   1.33687   0.00000   2.083E-02   0.000E+00   9.792E-01
 290  7.50523674   0.710  -1.17527   3.56013   6.78673   1.33898   0.00000   2.109E-02   0.000E+00   9.789E-01
 291  7.50686629   0.710  -1.17613   3.56014   6.78716   1.34109   0.00000   2.134E-02   0.000E+00   9.787E-01
 292  7.50848975   0.710  -1.17698   3.56015   6.78758   1.34319   0.00000   2.160E-02   0.000E+00   9.784E-01
 293  7.51010716   0.710  -1.17784   3.56017   6.78801   1.34530   0.00000   2.186E-02   0.000E+00   9.781E-01
 294  7.51171858   0.710  -1.17869   3.56018   6.78843   1.34741   0.00000   2.212E-02   0.000E+00   9.779E-01
 295  7.51332403   0.710  -1.17955   3.56019   6.78886   1.34951   0.00000   2.237E-02   0.000E+00   9.776E-01
 296  7.51492357   0.710  -1.18040   3.56021   6.78928   1.35162   0.00000   2.263E-02   0.000E+00   9.774E-01
 297  7.51651724   0.710  -1.18126   3.56022   6.78971   1.35372   0.00000   2.289E-02   0.000E+00   9.771E-01
 298  7.51810509   0.710  -1.18212   3.56024   6.79013   1.35583   0.00000   2.315E-02   0.000E+00   9.769E-01
 299  7.51968715   0.710  -1.18297   3.56025   6.79056   1.35794   0.00000   2.340E-02   0.000E+00   9.766E-01
 300  7.52126347   0.710  -1.18383   3.56026   6.79098   1.36004   0.00000   2.366E-02   0.000E+00   9.763E-01
 301  7.52283409   0.710  -1.18468   3.56028   6.79141   1.36215   0.00000   2.392E-02   0.000E+00   9.761E-01
 302  7.52439904   0.710  -1.18548   3.56029   6.79182   1.36419   0.00000   2.421E-02   0.000E+00   9.758E-01
 303  7.52595838   0.710  -1.18626   3.56031   6.79222   1.36619   0.00000   2.452E-02   0.000E+00   9.755E-01
 304  7.52751214   0.710  -1.18703   3.56032   6.79263   1.36820   0.00000   2.482E-02   0.000E+00   9.752E-01
 305  7.52906037   0.710  -1.18780   3.56034   6.79304   1.37020   0.00000   2.513E-02   0.000E+00   9.749E-01
 306  7.53060309   0.710  -1.18858   3.56035   6.79344   1.37221   0.00000   2.544E-02   0.000E+00   9.746E-01
 307  7.53214035   0.710  -1.18935   3.56037   6.79385   1.37421   0.00000   2.575E-02   0.000E+00   9.743E-01
 308  7.53367219   0.710  -1.19013   3.56039   6.79425   1.37622   0.00000   2.605E-02   0.000E+00   9.739E-01
 309  7.53519864   0.710  -1.19090   3.56040   6.79466   1.37822   0.00000   2.636E-02   0.000E+00   9.736E-01
 310  7.53671975   0.710  -1.19167   3.56042   6.79506   1.38023   0.00000   2.667E-02   0.000E+00   9.733E-01
 311  7.53823555   0.710  -1.19245   3.56043   6.79547   1.38223   0.00000   2.697E-02   0.000E+00   9.730E-01
 312  7.53974608   0.710  -1.19322   3.56045   6.79588   1.38424   0.00000   2.728E-02   0.000E+00   9.727E-01
 313  7.54125137   0.710  -1.19400   3.56047   6.79628   1.38625   0.00000   2.759E-02   0.000E+00   9.724E-01
 314  7.54275146   0.710  -1.19477   3.56048   6.79669   1.38825   0.00000   2.789E-02   0.000E+00   9.721E-01
 315  7.54424639   0.710  -1.19554   3.56050   6.79709   1.39026   0.00000   2.820E-02   0.000E+00   9.718E-01
 316  7.54573619   0.710  -1.19632   3.56051   6.79750   1.39226   0.00000   2.851E-02   0.000E+00   9.715E-01
 317  7.54722090   0.710  -1.19709   3.56053   6.79790   1.39427   0.00000   2.881E-02   0.000E+00   9.712E-01
 318  7.54870054   0.710  -1.19784   3.56055   6.79830   1.39624   0.00000   2.914E-02   0.000E+00   9.709E-01
 319  7.55017517   0.710  -1.19853   3.56057   6.79870   1.39815   0.00000   2.949E-02   0.000E+00   9.705E-01
 320  7.55164480   0.710  -1.19923   3.56059   6.79909   1.40006   0.00000   2.984E-02   0.000E+00   9.702E-01
 321  7.55310948   0.710  -1.19993   3.56061   6.79948   1.40197   0.00000   3.019E-02   0.000E+00   9.698E-01
 322  7.55456924   0.710  -1.20063   3.56063   6.79987   1.40389   0.00000   3.054E-02   0.000E+00   9.695E-01
 323  7.55602410   0.710  -1.20133   3.56065   6.80026   1.40580   0.00000   3.089E-02   0.000E+00   9.691E-01
 324  7.55747411   0.710  -1.20202   3.56067   6.80065   1.40771   0.00000   3.124E-02   0.000E+00   9.688E-01
 325  7.55891929   0.710  -1.20272   3.56069   6.80104   1.40962   0.00000   3.160E-02   0.000E+00   9.684E-01
 326  7.56035968   0.710  -1.20342   3.56071   6.80143   1.41154   0.00000   3.195E-02   0.000E+00   9.681E-01
 327  7.56179531   0.710  -1.20412   3.56073   6.80182   1.41345   0.00000   3.230E-02   0.000E+00   9.677E-01
 328  7.56322621   0.710  -1.20482   3.56075   6.80221   1.41536   0.00000   3.265E-02   0.000E+00   9.674E-01
 329  7.56465241   0.710  -1.20551   3.56077   6.80260   1.41727   0.00000   3.300E-02   0.000E+00   9.670E-01
 330  7.56607394   0.710  -1.20621   3.56079   6.80299   1.41918   0.00000   3.335E-02   0.000E+00   9.666E-01
 331  7.56749083   0.710  -1.20691   3.56081   6.80338   1.42110   0.00000   3.370E-02   0.000E+00   9.663E-01
 332  7.56890311   0.710  -1.20761   3.56083   6.80378   1.42301   0.00000   3.405E-02   0.000E+00   9.659E-01
 333  7.57031082   0.710  -1.20830   3.56085   6.80417   1.42492   0.00000   3.440E-02   0.000E+00   9.656E-01
 334  7.57171398   0.710  -1.20900   3.56087   6.80456   1.42683   0.00000   3.475E-02   0.000E+00   9.652E-01
 335  7.57311262   0.710  -1.20968   3.56089   6.80494   1.42872   0.00000   3.512E-02   0.000E+00   9.649E-01
 336  7.57450677   0.710  -1.21030   3.56091   6.80532   1.43054   0.00000   3.551E-02   0.000E+00   9.645E-01
 337  7.57589646   0.710  -1.21093   3.56093   6.80569   1.43236   0.00000   3.590E-02   0.000E+00   9.641E-01
 338  7.57728172   0.710  -1.21155   3.56095   6.80607   1.43418   0.00000   3.629E-02   0.000E+00   9.637E-01
 339  7.57866257   0.710  -1.21218   3.56097   6.80645   1.43600   0.00000   3.668E-02   0.000E+00   9.633E-01
 340  7.58003905   0.710  -1.21280   3.56100   6.80682   1.43782   0.00000   3.707E-02   0.000E+00   9.629E-01
 341  7.58141117   0.710  -1.21343   3.56102   6.80720   1.43964   0.00000   3.747E-02   0.000E+00   9.625E-01
 342  7.58277898   0.710  -1.21405   3.56104   6.80757   1.44146   0.00000   3.786E-02   0.000E+00   9.621E-01
 343  7.58414249   0.710  -1.21468   3.56106   6.80795   1.44328   0.00000   3.825E-02   0.000E+00   9.618E-01
 344  7.58550173   0.710  -1.21530   3.56108   6.80832   1.44510   0.00000   3.864E-02   0.000E+00   9.614E-01
 345  7.58685674   0.710  -1.21593   3.56110   6.80870   1.44692   0.00000   3.903E-02   0.000E+00   9.610E-01
 346  7.58820752   0.710  -1.21655   3.56113   6.80907   1.44874   0.00000   3.942E-02   0.000E+00   9.606E-01
 347  7.58955412   0.710  -1.21718   3.56115   6.80945   1.45056   0.00000   3.981E-02   0.000E+00   9.602E-01
 348  7.59089656   0.710  -1.21780   3.56117   6.80983   1.45238   0.00000   4.020E-02   0.000E+00   9.598E-01
 349  7.59223486   0.710  -1.21843   3.56119   6.81020   1.45420   0.00000   4.059E-02   0.000E+00   9.594E-01
 350  7.59356905   0.710  -1.21905   3.56121   6.81058   1.45602   0.00000   4.099E-02   0.000E+00   9.590E-01
 351  7.59489915   0.710  -1.21968   3.56124   6.81095   1.45784   0.00000   4.138E-02   0.000E+00   9.586E-01
 352  7.59622520   0.710  -1.22030   3.56126   6.81133   1.45966   0.00000   4.177E-02   0.000E+00   9.582E-01
 353  7.59754720   0.710  -1.22090   3.56128   6.81170   1.46145   0.00000   4.217E-02   0.000E+00   9.578E-01
 354  7.59886519   0.710  -1.22145   3.56131   6.81206   1.46318   0.00000   4.260E-02   0.000E+00   9.574E-01
 355  7.60017920   0.710  -1.22201   3.56133   6.81242   1.46491   0.00000   4.303E-02   0.000E+00   9.570E-01
 356  7.60148924   0.710  -1.22257   3.56136   6.81278   1.46665   0.00000   4.345E-02   0.000E+00   9.565E-01
 357  7.60279534   0.710  -1.22312   3.56138   6.81315   1.46838   0.00000   4.388E-02   0.000E+00   9.561E-01
 358  7.60409753   0.710  -1.22368   3.56141   6.81351   1.47011   0.00000   4.431E-02   0.000E+00   9.557E-01
 359  7.60539582   0.710  -1.22423   3.56143   6.81387   1.47184   0.00000   4.473E-02   0.000E+00   9.553E-01
 360  7.60669025   0.710  -1.22479   3.56146   6.81423   1.47358   0.00000   4.516E-02   0.000E+00   9.548E-01
 361  7.60798082   0.710  -1.22535   3.56148   6.81459   1.47531   0.00000   4.559E-02   0.000E+00   9.544E-01
 362  7.60926758   0.710  -1.22590   3.56151   6.81496   1.47704   0.00000   4.601E-02   0.000E+00   9.540E-01
 363  7.61055053   0.710  -1.22646   3.56153   6.81532   1.47878   0.00000   4.644E-02   0.000E+00   9.536E-01
 364  7.61182970   0.710  -1.22701   3.56156   6.81568   1.48051   0.00000   4.687E-02   0.000E+00   9.531E-01
 365  7.61310512   0.710  -1.22757   3.56158   6.81604   1.48224   0.00000   4.729E-02   0.000E+00   9.527E-01
 366  7.61437680   0.710  -1.22813   3.56161   6.81640   1.48398   0.00000   4.772E-02   0.000E+00   9.523E-01
 367  7.61564477   0.710  -1.22868   3.56163   6.81677   1.48571   0.00000   4.815E-02   0.000E+00   9.519E-01
 368  7.61690905   0.710  -1.22924   3.56166   6.81713   1.48744   0.00000   4.857E-02   0.000E+00   9.514E-01
 369  7.61816965   0.710  -1.22980   3.56168   6.81749   1.48917   0.00000   4.900E-02   0.000E+00   9.510E-01
 370  7.61942661   0.710  -1.23035   3.56171   6.81785   1.49091   0.00000   4.943E-02   0.000E+00   9.506E-01
 371  7.62067995   0.710  -1.23091   3.56173   6.81821   1.49264   0.00000   4.985E-02   0.000E+00   9.501E-01
 372  7.62192967   0.710  -1.23142   3.56176   6.81857   1.49432   0.00000   5.033E-02   0.000E+00   9.497E-01
 373  7.62317581   0.710  -1.23191   3.56179   6.81892   1.49597   0.00000   5.084E-02   0.000E+00   9.492E-01
 374  7.62441838   0.710  -1.23240   3.56181   6.81927   1.49761   0.00000   5.135E-02   0.000E+00   9.486E-01
 375  7.62565741   0.710  -1.23289   3.56184   6.81962   1.49926   0.00000   5.186E-02   0.000E+00   9.481E-01
 376  7.62689292   0.710  -1.23339   3.56187   6.81997   1.50091   0.00000   5.237E-02   0.000E+00   9.476E-01
 377  7.62812492   0.710  -1.23388   3.56190   6.82032   1.50256   0.00000   5.288E-02   0.000E+00   9.471E-01
 378  7.62935343   0.710  -1.23437   3.56192   6.82067   1.50421   0.00000   5.339E-02   0.000E+00   9.466E-01
 379  7.63057848   0.710  -1.23486   3.56195   6.82102   1.50585   0.00000   5.389E-02   0.000E+00   9.461E-01
 380  7.63180008   0.710  -1.23535   3.56198   6.82136   1.50750   0.00000   5.440E-02   0.000E+00   9.456E-01
 381  7.63301826   0.710  -1.23584   3.56201   6.82171   1.50915   0.00000   5.491E-02   0.000E+00   9.451E-01
 382  7.63423303   0.710  -1.23633   3.56203   6.82206   1.51080   0.00000   5.542E-02   0.000E+00   9.446E-01
 383  7.63544441   0.710  -1.23682   3.56206   6.82241   1.51245   0.00000   5.593E-02   0.000E+00   9.441E-01
 384  7.63665242   0.710  -1.23731   3.56209   6.82276   1.51409   0.00000   5.644E-02   0.000E+00   9.436E-01
 385  7.63785708   0.710  -1.23780   3.56212   6.82311   1.51574   0.00000   5.695E-02   0.000E+00   9.431E-01
 386  7.63905841   0.710  -1.23830   3.56214   6.82346   1.51739   0.00000   5.746E-02   0.000E+00   9.425E-01
 387  7.64025642   0.710  -1.23879   3.56217   6.82381   1.51904   0.00000   5.796E-02   0.000E+00   9.420E-01
 388  7.64145114   0.710  -1.23928   3.56220   6.82416   1.52069   0.00000   5.847E-02   0.000E+00   9.415E-01
 389  7.64264258   0.710  -1.23977   3.56223   6.82451   1.52233   0.00000   5.898E-02   0.000E+00   9.410E-01
 390  7.64383077   0.710  -1.24026   3.56225   6.82486   1.52398   0.00000   5.949E-02   0.000E+00   9.405E-01
 391  7.64501571   0.710  -1.24075   3.56228   6.82521   1.52563   0.00000   6.000E-02   0.000E+00   9.400E-01
 392  7.65645679   0.710  -1.24495   3.56257   6.82852   1.54096   0.00000   6.571E-02   0.000E+00   9.343E-01
 393  7.66760419   0.710  -1.24916   3.56286   6.83184   1.55630   0.00000   7.141E-02   0.000E+00   9.286E-01
 394  7.67847260   0.710  -1.25284   3.56317   6.83507   1.57092   0.00000   7.769E-02   0.000E+00   9.223E-01
 395  7.68907565   0.710  -1.25646   3.56349   6.83829   1.58547   0.00000   8.404E-02   0.000E+00   9.160E-01
 396  7.69942599   0.710  -1.25969   3.56383   6.84145   1.59946   0.00000   9.077E-02   0.000E+00   9.092E-01
 397  7.70953539   0.710  -1.26276   3.56417   6.84458   1.61320   0.00000   9.767E-02   0.000E+00   9.023E-01
 398  7.71941481   0.710  -1.26562   3.56452   6.84767   1.62663   0.00000   1.049E-01   0.000E+00   8.951E-01
 399  7.72907448   0.710  -1.26816   3.56489   6.85072   1.63954   0.00000   1.127E-01   0.000E+00   8.873E-01
 400  7.73852396   0.710  -1.27069   3.56525   6.85376   1.65244   0.00000   1.205E-01   0.000E+00   8.795E-01
 401  7.74777221   0.710  -1.27276   3.56563   6.85672   1.66459   0.00000   1.293E-01   0.000E+00   8.707E-01
 402  7.75682762   0.710  -1.27479   3.56602   6.85967   1.67668   0.00000   1.383E-01   0.000E+00   8.617E-01
 403  7.76569807   0.710  -1.27665   3.56641   6.86260   1.68848   0.00000   1.474E-01   0.000E+00   8.526E-01
 404  7.77439095   0.710  -1.27820   3.56682   6.86547   1.69975   0.00000   1.569E-01   0.000E+00   8.431E-01
 405  7.78291325   0.710  -1.27975   3.56722   6.86834   1.71102   0.00000   1.665E-01   0.000E+00   8.335E-01
 406  7.79127153   0.710  -1.28103   3.56764   6.87115   1.72175   0.00000   1.766E-01   0.000E+00   8.234E-01
 407  7.79947198   0.710  -1.28214   3.56806   6.87393   1.73217   0.00000   1.870E-01   0.000E+00   8.130E-01
 408  7.80752045   0.710  -1.28325   3.56848   6.87671   1.74258   0.00000   1.974E-01   0.000E+00   8.026E-01
 409  7.81542247   0.710  -1.28405   3.56892   6.87942   1.75233   0.00000   2.088E-01   0.000E+00   7.912E-01
 410  7.82318329   0.710  -1.28475   3.56936   6.88212   1.76186   0.00000   2.205E-01   0.000E+00   7.795E-01
 411  7.83080785   0.710  -1.28545   3.56980   6.88481   1.77139   0.00000   2.321E-01   0.000E+00   7.679E-01
 412  7.83830085   0.710  -1.28588   3.57025   6.88743   1.78026   0.00000   2.441E-01   0.000E+00   7.559E-01
 413  7.84566677   0.710  -1.28624   3.57069   6.89003   1.78890   0.00000   2.563E-01   0.000E+00   7.437E-01
 414  7.85290984   0.710  -1.28659   3.57114   6.89262   1.79754   0.00000   2.684E-01   0.000E+00   7.316E-01
 415  7.86003408   0.710  -1.28675   3.57159   6.89516   1.80562   0.00000   2.811E-01   0.000E+00   7.189E-01
 416  7.86704335   0.710  -1.28680   3.57204   6.89766   1.81335   0.00000   2.940E-01   0.000E+00   7.060E-01
 417  7.87394128   0.710  -1.28685   3.57250   6.90016   1.82108   0.00000   3.070E-01   0.000E+00   6.930E-01
 418  7.88073136   0.710  -1.28684   3.57295   6.90263   1.82851   0.00000   3.202E-01   0.000E+00   6.798E-01
 419  7.88741692   0.710  -1.28667   3.57340   6.90503   1.83526   0.00000   3.339E-01   0.000E+00   6.661E-01
 420  7.89400111   0.710  -1.28651   3.57384   6.90742   1.84202   0.00000   3.476E-01   0.000E+00   6.524E-01
 421  7.90048697   0.710  -1.28634   3.57429   6.90982   1.84878   0.00000   3.613E-01   0.000E+00   6.387E-01
 422  7.90687740   0.710  -1.28607   3.57473   6.91212   1.85474   0.00000   3.753E-01   0.000E+00   6.247E-01
 423  7.91317515   0.710  -1.28576   3.57516   6.91440   1.86051   0.00000   3.893E-01   0.000E+00   6.107E-01
 424  7.91938289   0.710  -1.28545   3.57559   6.91668   1.86627   0.00000   4.034E-01   0.000E+00   5.966E-01
 425  7.92550314   0.710  -1.28515   3.57602   6.91896   1.87200   0.00000   4.175E-01   0.000E+00   5.825E-01
 426  7.93153834   0.710  -1.28480   3.57643   6.92111   1.87674   0.00000   4.319E-01   0.000E+00   5.681E-01
 427  7.93749082   0.710  -1.28446   3.57683   6.92326   1.88148   0.00000   4.463E-01   0.000E+00   5.537E-01
 428  7.94336281   0.710  -1.28412   3.57723   6.92541   1.88622   0.00000   4.607E-01   0.000E+00   5.393E-01
 429  7.94915647   0.710  -1.28377   3.57763   6.92756   1.89096   0.00000   4.751E-01   0.000E+00   5.249E-01
 430  7.95487386   0.710  -1.28348   3.57800   6.92956   1.89460   0.00000   4.898E-01   0.000E+00   5.102E-01
 431  7.96051695   0.710  -1.28319   3.57835   6.93156   1.89817   0.00000   5.046E-01   0.000E+00   4.954E-01
 432  7.96608766   0.710  -1.28290   3.57871   6.93355   1.90173   0.00000   5.193E-01   0.000E+00   4.807E-01
 433  7.97158782   0.710  -1.28261   3.57907   6.93554   1.90529   0.00000   5.341E-01   0.000E+00   4.659E-01
 434  7.97701919   0.710  -1.28240   3.57940   6.93750   1.90838   0.00000   5.488E-01   0.000E+00   4.512E-01
 435  7.98238348   0.710  -1.28230   3.57969   6.93942   1.91073   0.00000   5.637E-01   0.000E+00   4.363E-01
 436  7.98768231   0.710  -1.28221   3.57998   6.94133   1.91308   0.00000   5.785E-01   0.000E+00   4.215E-01
 437  7.99291727   0.710  -1.28211   3.58027   6.94325   1.91543   0.00000   5.934E-01   0.000E+00   4.066E-01
 438  7.99808988   0.710  -1.28201   3.58055   6.94516   1.91778   0.00000   6.082E-01   0.000E+00   3.918E-01
 439  8.00320161   0.709  -1.28196   3.58083   6.94704   1.91994   0.00011   6.231E-01   0.000E+00   3.769E-01
 440  8.00825387   0.709  -1.28219   3.58101   6.94872   1.92089   0.00091   6.380E-01   0.000E+00   3.620E-01
 441  8.01324803   0.709  -1.28242   3.58120   6.95040   1.92184   0.00171   6.530E-01   0.000E+00   3.470E-01
 442  8.01818541   0.709  -1.28264   3.58139   6.95207   1.92279   0.00250   6.680E-01   0.000E+00   3.320E-01
 443  8.02306729   0.709  -1.28287   3.58158   6.95375   1.92374   0.00330   6.830E-01   0.000E+00   3.170E-01
 444  8.02789490   0.709  -1.28310   3.58176   6.95543   1.92469   0.00410   6.980E-01   0.000E+00   3.020E-01
 445  8.03266944   0.709  -1.28332   3.58195   6.95711   1.92564   0.00490   7.129E-01   0.000E+00   2.871E-01
 446  8.03739206   0.709  -1.28389   3.58204   6.95833   1.92570   0.00630   7.276E-01   0.000E+00   2.723E-01
 447  8.04206388   0.709  -1.28455   3.58210   6.95943   1.92553   0.00786   7.422E-01   0.000E+00   2.576E-01
 448  8.04668597   0.709  -1.28521   3.58217   6.96054   1.92536   0.00942   7.568E-01   0.000E+00   2.428E-01
 449  8.05125939   0.709  -1.28587   3.58223   6.96164   1.92519   0.01098   7.714E-01   0.000E+00   2.281E-01
 450  8.05578515   0.709  -1.28653   3.58230   6.96274   1.92502   0.01255   7.860E-01   0.000E+00   2.134E-01
 451  8.06026424   0.709  -1.28719   3.58236   6.96385   1.92486   0.01411   8.006E-01   0.000E+00   1.987E-01
 452  8.06469760   0.709  -1.28785   3.58242   6.96495   1.92469   0.01567   8.152E-01   0.000E+00   1.839E-01
 453  8.06908616   0.709  -1.28854   3.58248   6.96605   1.92424   0.01761   8.332E-01   4.007E-05   1.658E-01
 454  8.07343082   0.709  -1.28941   3.58244   6.96711   1.92177   0.02231   8.757E-01   3.699E-04   1.233E-01
 455  8.07773244   0.709  -1.29028   3.58241   6.96818   1.91929   0.02702   9.183E-01   6.997E-04   8.080E-02
 456  8.08199188   0.709  -1.29117   3.58237   6.96921   1.91673   0.03168   9.606E-01   1.000E-03   3.848E-02
 457  8.08620994   0.709  -1.29231   3.58226   6.96992   1.91329   0.03587   1.001E+00   1.000E-03  -1.826E-03
 458  8.09038743   0.709  -1.29344   3.58215   6.97063   1.90984   0.04007   1.042E+00   1.000E-03  -4.214E-02
 459  8.09452512   0.709  -1.29477   3.58200   6.97111   1.90624   0.04409   1.071E+00   1.000E-03  -7.133E-02
 460  8.09862376   0.709  -1.29615   3.58183   6.97153   1.90259   0.04802   1.097E+00   1.000E-03  -9.741E-02
 461  8.10268408   0.709  -1.29774   3.58163   6.97177   1.89890   0.05004   1.117E+00   1.000E-03  -1.175E-01
 462  8.10670679   0.709  -1.29942   3.58140   6.97193   1.89537   0.05223   1.128E+00   1.000E-03  -1.287E-01
 463  8.11069258   0.709  -1.30122   3.58116   6.97200   1.89197   0.05382   1.134E+00   1.000E-03  -1.350E-01
 464  8.11464213   0.709  -1.30311   3.58089   6.97200   1.88865   0.05382   1.143E+00   1.000E-03  -1.425E-01
 465  8.11855608   0.709  -1.30512   3.58061   6.97193   1.88562   0.05382   1.140E+00   1.000E-03  -1.397E-01
 466  8.12243507   0.709  -1.30720   3.58032   6.97179   1.88282   0.05382   1.136E+00   1.000E-03  -1.365E-01
 467  8.12627972   0.709  -1.30935   3.58001   6.97161   1.88025   0.05382   1.131E+00   1.000E-03  -1.324E-01
 468  8.13009064   0.709  -1.31153   3.57970   6.97140   1.87789   0.05382   1.127E+00   1.000E-03  -1.281E-01
 469  8.13386840   0.709  -1.31373   3.57939   6.97117   1.87574   0.05382   1.123E+00   1.000E-03  -1.237E-01
 470  8.13761359   0.709  -1.31591   3.57908   6.97090   1.87377   0.05258   1.118E+00   1.000E-03  -1.193E-01
 471  8.14132675   0.709  -1.31805   3.57878   6.97063   1.87198   0.05089   1.114E+00   1.000E-03  -1.144E-01
 472  8.14500844   0.709  -1.32014   3.57847   6.97034   1.87036   0.05089   1.109E+00   1.000E-03  -1.097E-01
 473  8.14865918   0.709  -1.32218   3.57818   6.97006   1.86890   0.04907   1.105E+00   1.000E-03  -1.049E-01
 474  8.15227949   0.709  -1.32415   3.57789   6.96976   1.86758   0.04797   1.100E+00   1.000E-03  -1.000E-01
 475  8.15586986   0.709  -1.32602   3.57761   6.96946   1.86640   0.04797   1.095E+00   1.000E-03  -9.540E-02
 476  8.15943080   0.709  -1.32777   3.57736   6.96915   1.86536   0.04666   1.090E+00   1.000E-03  -9.080E-02
 477  8.16296278   0.709  -1.32941   3.57712   6.96886   1.86443   0.04563   1.086E+00   1.000E-03  -8.629E-02
 478  8.16646626   0.709  -1.33096   3.57688   6.96857   1.86360   0.04498   1.081E+00   1.000E-03  -8.190E-02
 479  8.16994171   0.709  -1.33241   3.57666   6.96829   1.86287   0.04329   1.077E+00   1.000E-03  -7.762E-02
 480  8.17338956   0.709  -1.33370   3.57646   6.96802   1.86225   0.04329   1.073E+00   1.000E-03  -7.339E-02
 481  8.17681026   0.709  -1.33486   3.57628   6.96775   1.86171   0.04221   1.069E+00   1.000E-03  -6.933E-02
 482  8.18020423   0.709  -1.33593   3.57611   6.96749   1.86123   0.04095   1.064E+00   1.000E-03  -6.535E-02
 483  8.18357188   0.709  -1.33685   3.57596   6.96725   1.86084   0.04095   1.060E+00   1.000E-03  -6.147E-02
 484  8.18691361   0.709  -1.33770   3.57582   6.96702   1.86050   0.04063   1.057E+00   8.323E-04  -5.774E-02
 485  8.19022983   0.709  -1.33842   3.57570   6.96680   1.86023   0.03975   1.054E+00   3.705E-04  -5.428E-02
 486  8.19352092   0.709  -1.33908   3.57558   6.96658   1.85999   0.03895   1.050E+00   0.000E+00  -5.089E-02
 487  8.19678725   0.709  -1.33955   3.57549   6.96639   1.85983   0.03842   1.047E+00   0.000E+00  -4.783E-02
 488  8.20002920   0.709  -1.34002   3.57540   6.96620   1.85967   0.03790   1.044E+00   0.000E+00  -4.476E-02
 489  8.20324713   0.709  -1.34040   3.57533   6.96603   1.85955   0.03758   1.041E+00   0.000E+00  -4.191E-02
 490  8.20644140   0.709  -1.34062   3.57528   6.96588   1.85949   0.03758   1.039E+00   0.000E+00  -3.942E-02
 491  8.20961234   0.709  -1.34085   3.57522   6.96574   1.85943   0.03758   1.036E+00   0.000E+00  -3.692E-02
 492  8.21276029   0.709  -1.34107   3.57517   6.96559   1.85938   0.03758   1.034E+00   0.000E+00  -3.442E-02
 493  8.21588559   0.709  -1.34125   3.57513   6.96545   1.85933   0.03752   1.032E+00   0.000E+00  -3.209E-02
 494  8.21898856   0.709  -1.34126   3.57511   6.96535   1.85933   0.03722   1.030E+00   0.000E+00  -3.046E-02
 495  8.22206952   0.709  -1.34127   3.57509   6.96525   1.85934   0.03692   1.029E+00   0.000E+00  -2.882E-02
 496  8.22512878   0.709  -1.34128   3.57507   6.96516   1.85934   0.03662   1.027E+00   0.000E+00  -2.719E-02
 497  8.22816664   0.709  -1.34128   3.57506   6.96506   1.85934   0.03632   1.025E+00   0.000E+00  -2.556E-02
 498  8.23118339   0.709  -1.34129   3.57504   6.96496   1.85935   0.03602   1.024E+00   0.000E+00  -2.392E-02
 499  8.23417933   0.709  -1.34130   3.57502   6.96486   1.85935   0.03572   1.022E+00   0.000E+00  -2.229E-02
 500  8.23715475   0.709  -1.34121   3.57502   6.96480   1.85937   0.03552   1.021E+00   0.000E+00  -2.127E-02
 501  8.24010992   0.709  -1.34110   3.57502   6.96475   1.85939   0.03533   1.020E+00   0.000E+00  -2.033E-02
 502  8.24304512   0.709  -1.34100   3.57502   6.96469   1.85941   0.03515   1.019E+00   0.000E+00  -1.939E-02
 503  8.24596061   0.709  -1.34089   3.57502   6.96464   1.85943   0.03496   1.018E+00   0.000E+00  -1.845E-02
 504  8.24885667   0.709  -1.34078   3.57503   6.96459   1.85945   0.03478   1.017E+00   0.000E+00  -1.751E-02
 505  8.25173353   0.709  -1.34068   3.57503   6.96453   1.85947   0.03459   1.016E+00   0.000E+00  -1.657E-02
 506  8.25459147   0.709  -1.34057   3.57503   6.96448   1.85949   0.03441   1.015E+00   0.000E+00  -1.562E-02
 507  8.25743072   0.709  -1.34047   3.57503   6.96443   1.85951   0.03422   1.015E+00   0.000E+00  -1.468E-02
 508  8.26025153   0.709  -1.34036   3.57503   6.96437   1.85953   0.03404   1.014E+00   0.000E+00  -1.374E-02
 509  8.26305414   0.709  -1.34026   3.57503   6.96433   1.85954   0.03390   1.013E+00   0.000E+00  -1.306E-02
 510  8.26583878   0.709  -1.34015   3.57504   6.96430   1.85953   0.03381   1.012E+00   0.000E+00  -1.271E-02
 511  8.26860567   0.709  -1.34005   3.57505   6.96428   1.85953   0.03373   1.012E+00   0.000E+00  -1.237E-02
 512  8.27135505   0.709  -1.33994   3.57505   6.96425   1.85952   0.03365   1.012E+00   0.000E+00  -1.203E-02
 513  8.27408714   0.709  -1.33984   3.57506   6.96422   1.85952   0.03357   1.011E+00   0.000E+00  -1.169E-02
 514  8.27680214   0.709  -1.33973   3.57506   6.96420   1.85951   0.03348   1.011E+00   0.000E+00  -1.135E-02
 515  8.27950028   0.709  -1.33963   3.57507   6.96417   1.85951   0.03340   1.011E+00   0.000E+00  -1.100E-02
 516  8.28218176   0.709  -1.33953   3.57508   6.96415   1.85950   0.03332   1.010E+00   0.000E+00  -1.066E-02
 517  8.28484678   0.709  -1.33942   3.57508   6.96412   1.85950   0.03324   1.010E+00   0.000E+00  -1.032E-02
 518  8.28749555   0.709  -1.33932   3.57509   6.96409   1.85949   0.03315   1.010E+00   0.000E+00  -9.980E-03
 519  8.29012826   0.709  -1.33921   3.57510   6.96407   1.85949   0.03307   1.009E+00   0.000E+00  -9.638E-03
 520  8.29274511   0.709  -1.33911   3.57510   6.96404   1.85948   0.03299   1.009E+00   0.000E+00  -9.296E-03
 521  8.29534628   0.709  -1.33900   3.57511   6.96402   1.85948   0.03291   1.009E+00   0.000E+00  -8.954E-03
 522  8.29793197   0.709  -1.33890   3.57512   6.96399   1.85947   0.03282   1.008E+00   0.000E+00  -8.613E-03
 523  8.30050235   0.709  -1.33881   3.57512   6.96397   1.85946   0.03274   1.008E+00   0.000E+00  -8.329E-03
 524  8.30305761   0.709  -1.33875   3.57512   6.96395   1.85943   0.03267   1.008E+00   0.000E+00  -8.238E-03
 525  8.30559793   0.709  -1.33869   3.57513   6.96393   1.85941   0.03259   1.008E+00   0.000E+00  -8.146E-03
 526  8.30812347   0.709  -1.33864   3.57513   6.96392   1.85938   0.03251   1.008E+00   0.000E+00  -8.055E-03
 527  8.31063441   0.709  -1.33858   3.57513   6.96390   1.85935   0.03244   1.008E+00   0.000E+00  -7.964E-03
 528  8.31313092   0.709  -1.33852   3.57513   6.96389   1.85932   0.03236   1.007E+00   0.000E+00  -7.873E-03
 529  8.31561315   0.709  -1.33847   3.57514   6.96387   1.85929   0.03229   1.007E+00   0.000E+00  -7.781E-03
 530  8.31808128   0.709  -1.33841   3.57514   6.96385   1.85926   0.03221   1.007E+00   0.000E+00  -7.690E-03
 531  8.32053546   0.709  -1.33835   3.57514   6.96384   1.85923   0.03213   1.007E+00   0.000E+00  -7.599E-03
 532  8.32297586   0.709  -1.33830   3.57514   6.96382   1.85921   0.03206   1.007E+00   0.000E+00  -7.508E-03
 533  8.32540261   0.709  -1.33824   3.57515   6.96380   1.85918   0.03198   1.007E+00   0.000E+00  -7.416E-03
 534  8.32781588   0.709  -1.33818   3.57515   6.96379   1.85915   0.03190   1.007E+00   0.000E+00  -7.325E-03
 535  8.33021582   0.709  -1.33812   3.57515   6.96377   1.85912   0.03183   1.007E+00   0.000E+00  -7.234E-03
 536  8.33260256   0.709  -1.33807   3.57515   6.96376   1.85909   0.03175   1.007E+00   0.000E+00  -7.143E-03
 537  8.33497626   0.708  -1.33801   3.57516   6.96374   1.85906   0.03168   1.007E+00   0.000E+00  -7.051E-03
 538  8.33733706   0.708  -1.33795   3.57516   6.96372   1.85903   0.03160   1.006E+00   0.000E+00  -6.960E-03
 539  8.33968509   0.708  -1.33790   3.57516   6.96371   1.85900   0.03152   1.006E+00   0.000E+00  -6.869E-03
 540  8.34202050   0.708  -1.33784   3.57516   6.96369   1.85898   0.03145   1.006E+00   0.000E+00  -6.778E-03
 541  8.34434342   0.708  -1.33778   3.57517   6.96368   1.85895   0.03137   1.006E+00   0.000E+00  -6.686E-03
 542  8.34665397   0.708  -1.33773   3.57517   6.96366   1.85892   0.03130   1.006E+00   0.000E+00  -6.598E-03
 543  8.34895230   0.708  -1.33771   3.57517   6.96364   1.85889   0.03124   1.006E+00   0.000E+00  -6.554E-03
 544  8.35123853   0.708  -1.33768   3.57517   6.96363   1.85886   0.03117   1.006E+00   0.000E+00  -6.509E-03
 545  8.35351279   0.708  -1.33766   3.57517   6.96362   1.85883   0.03111   1.006E+00   0.000E+00  -6.465E-03
 546  8.35577520   0.708  -1.33764   3.57517   6.96360   1.85881   0.03105   1.006E+00   0.000E+00  -6.421E-03
 547  8.35802588   0.708  -1.33762   3.57517   6.96359   1.85878   0.03099   1.006E+00   0.000E+00  -6.377E-03
 548  8.36026497   0.708  -1.33760   3.57517   6.96357   1.85875   0.03093   1.006E+00   0.000E+00  -6.333E-03
 549  8.36249256   0.708  -1.33757   3.57517   6.96356   1.85872   0.03087   1.006E+00   0.000E+00  -6.289E-03
 550  8.36470879   0.708  -1.33755   3.57516   6.96354   1.85869   0.03081   1.006E+00   0.000E+00  -6.245E-03
 551  8.36691377   0.708  -1.33753   3.57516   6.96353   1.85867   0.03075   1.006E+00   0.000E+00  -6.200E-03
 552  8.36910761   0.708  -1.33751   3.57516   6.96351   1.85864   0.03068   1.006E+00   0.000E+00  -6.156E-03
 553  8.37129042   0.708  -1.33748   3.57516   6.96350   1.85861   0.03062   1.006E+00   0.000E+00  -6.112E-03
 554  8.37346232   0.708  -1.33746   3.57516   6.96348   1.85858   0.03056   1.006E+00   0.000E+00  -6.068E-03
 555  8.37562340   0.708  -1.33744   3.57516   6.96347   1.85855   0.03050   1.006E+00   0.000E+00  -6.024E-03
 556  8.37777379   0.708  -1.33742   3.57516   6.96345   1.85852   0.03044   1.006E+00   0.000E+00  -5.980E-03
 557  8.37991359   0.708  -1.33740   3.57516   6.96344   1.85850   0.03038   1.005E+00   0.000E+00  -5.935E-03
 558  8.38204289   0.708  -1.33737   3.57516   6.96343   1.85847   0.03032   1.005E+00   0.000E+00  -5.891E-03
 559  8.38416180   0.708  -1.33735   3.57516   6.96341   1.85844   0.03026   1.005E+00   0.000E+00  -5.847E-03
 560  8.38627042   0.708  -1.33733   3.57516   6.96340   1.85841   0.03020   1.005E+00   0.000E+00  -5.803E-03
 561  8.38836886   0.708  -1.33731   3.57516   6.96338   1.85838   0.03013   1.005E+00   0.000E+00  -5.759E-03
 562  8.39045721   0.708  -1.33728   3.57516   6.96337   1.85836   0.03007   1.005E+00   0.000E+00  -5.715E-03
 563  8.39253556   0.708  -1.33726   3.57516   6.96335   1.85833   0.03001   1.005E+00   0.000E+00  -5.671E-03
 564  8.39460401   0.708  -1.33724   3.57515   6.96334   1.85830   0.02995   1.005E+00   0.000E+00  -5.626E-03
 565  8.39666266   0.708  -1.33722   3.57515   6.96332   1.85827   0.02989   1.005E+00   0.000E+00  -5.582E-03
 566  8.39871159   0.708  -1.33719   3.57515   6.96331   1.85824   0.02983   1.005E+00   0.000E+00  -5.538E-03
 567  8.40075091   0.708  -1.33717   3.57515   6.96329   1.85821   0.02977   1.005E+00   0.000E+00  -5.494E-03
 568  8.40278069   0.708  -1.33715   3.57515   6.96328   1.85819   0.02971   1.005E+00   0.000E+00  -5.450E-03
 569  8.40480103   0.708  -1.33713   3.57515   6.96327   1.85816   0.02964   1.005E+00   0.000E+00  -5.406E-03
 570  8.40681202   0.708  -1.33711   3.57515   6.96325   1.85813   0.02958   1.005E+00   0.000E+00  -5.362E-03
 571  8.40881373   0.708  -1.33709   3.57515   6.96324   1.85810   0.02952   1.005E+00   0.000E+00  -5.328E-03
 572  8.41080627   0.708  -1.33708   3.57515   6.96322   1.85808   0.02945   1.005E+00   0.000E+00  -5.320E-03
 573  8.41278970   0.708  -1.33707   3.57515   6.96321   1.85805   0.02938   1.005E+00   0.000E+00  -5.312E-03
 574  8.41476411   0.708  -1.33706   3.57514   6.96319   1.85802   0.02931   1.005E+00   0.000E+00  -5.304E-03
 575  8.41672959   0.708  -1.33705   3.57514   6.96318   1.85800   0.02924   1.005E+00   0.000E+00  -5.296E-03
 576  8.41868622   0.708  -1.33704   3.57514   6.96316   1.85797   0.02916   1.005E+00   0.000E+00  -5.288E-03
 577  8.42063407   0.708  -1.33703   3.57514   6.96315   1.85795   0.02909   1.005E+00   0.000E+00  -5.280E-03
 578  8.42257322   0.708  -1.33702   3.57514   6.96313   1.85792   0.02902   1.005E+00   0.000E+00  -5.273E-03
 579  8.42450375   0.708  -1.33702   3.57513   6.96312   1.85789   0.02895   1.005E+00   0.000E+00  -5.265E-03
 580  8.42642574   0.708  -1.33701   3.57513   6.96310   1.85787   0.02888   1.005E+00   0.000E+00  -5.257E-03
 581  8.42833926   0.708  -1.33700   3.57513   6.96309   1.85784   0.02881   1.005E+00   0.000E+00  -5.249E-03
 582  8.43024439   0.708  -1.33699   3.57513   6.96307   1.85782   0.02874   1.005E+00   0.000E+00  -5.241E-03
 583  8.43214119   0.708  -1.33698   3.57513   6.96306   1.85779   0.02867   1.005E+00   0.000E+00  -5.233E-03
 584  8.43402975   0.708  -1.33697   3.57513   6.96304   1.85777   0.02859   1.005E+00   0.000E+00  -5.225E-03
 585  8.43591013   0.708  -1.33696   3.57512   6.96303   1.85774   0.02852   1.005E+00   0.000E+00  -5.217E-03
 586  8.43778240   0.708  -1.33695   3.57512   6.96301   1.85771   0.02845   1.005E+00   0.000E+00  -5.210E-03
 587  8.43964664   0.708  -1.33694   3.57512   6.96300   1.85769   0.02838   1.005E+00   0.000E+00  -5.202E-03
 588  8.44150291   0.708  -1.33693   3.57512   6.96298   1.85766   0.02831   1.005E+00   0.000E+00  -5.194E-03
 589  8.44335127   0.708  -1.33692   3.57512   6.96297   1.85764   0.02824   1.005E+00   0.000E+00  -5.186E-03
 590  8.44519181   0.708  -1.33692   3.57511   6.96295   1.85761   0.02817   1.005E+00   0.000E+00  -5.178E-03
 591  8.44702458   0.708  -1.33691   3.57511   6.96294   1.85758   0.02810   1.005E+00   0.000E+00  -5.170E-03
 592  8.44884964   0.708  -1.33690   3.57511   6.96292   1.85756   0.02803   1.005E+00   0.000E+00  -5.162E-03
 593  8.45066707   0.708  -1.33689   3.57511   6.96291   1.85753   0.02795   1.005E+00   0.000E+00  -5.154E-03
 594  8.45247692   0.708  -1.33688   3.57511   6.96289   1.85751   0.02788   1.005E+00   0.000E+00  -5.147E-03
 595  8.45427927   0.708  -1.33687   3.57510   6.96288   1.85748   0.02781   1.005E+00   0.000E+00  -5.139E-03
 596  8.45607416   0.708  -1.33686   3.57510   6.96287   1.85745   0.02774   1.005E+00   0.000E+00  -5.131E-03
 597  8.45786167   0.708  -1.33685   3.57510   6.96285   1.85743   0.02767   1.005E+00   0.000E+00  -5.123E-03
 598  8.45964185   0.708  -1.33684   3.57510   6.96284   1.85740   0.02760   1.005E+00   0.000E+00  -5.115E-03
 599  8.46141476   0.708  -1.33683   3.57510   6.96282   1.85738   0.02753   1.005E+00   0.000E+00  -5.107E-03
 600  8.46318046   0.708  -1.33683   3.57510   6.96281   1.85735   0.02746   1.005E+00   0.000E+00  -5.099E-03
 601  8.46493902   0.708  -1.33682   3.57509   6.96279   1.85732   0.02739   1.005E+00   0.000E+00  -5.091E-03
 602  8.46669048   0.708  -1.33681   3.57509   6.96278   1.85730   0.02731   1.005E+00   0.000E+00  -5.084E-03
 603  8.46843491   0.708  -1.33680   3.57509   6.96276   1.85727   0.02724   1.005E+00   0.000E+00  -5.076E-03
 604  8.47017235   0.708  -1.33679   3.57509   6.96275   1.85725   0.02717   1.005E+00   0.000E+00  -5.068E-03
 605  8.47190288   0.708  -1.33678   3.57509   6.96273   1.85722   0.02710   1.005E+00   0.000E+00  -5.060E-03
 606  8.47362654   0.708  -1.33677   3.57508   6.96272   1.85719   0.02703   1.005E+00   0.000E+00  -5.052E-03
 607  8.47534338   0.708  -1.33676   3.57508   6.96270   1.85717   0.02696   1.005E+00   0.000E+00  -5.044E-03
 608  8.47705346   0.708  -1.33675   3.57508   6.96269   1.85714   0.02689   1.005E+00   0.000E+00  -5.036E-03
 609  8.47875684   0.708  -1.33674   3.57508   6.96267   1.85712   0.02682   1.005E+00   0.000E+00  -5.028E-03
 610  8.48045356   0.708  -1.33673   3.57508   6.96266   1.85709   0.02675   1.005E+00   0.000E+00  -5.020E-03
 611  8.48214368   0.708  -1.33673   3.57508   6.96264   1.85706   0.02667   1.005E+00   0.000E+00  -5.013E-03
 612  8.48382724   0.708  -1.33672   3.57507   6.96263   1.85704   0.02660   1.005E+00   0.000E+00  -5.005E-03
 613  8.48550431   0.708  -1.33671   3.57507   6.96261   1.85701   0.02653   1.005E+00   0.000E+00  -4.997E-03
 614  8.48717492   0.708  -1.33670   3.57507   6.96260   1.85699   0.02646   1.005E+00   0.000E+00  -4.990E-03
 615  8.48883913   0.708  -1.33669   3.57507   6.96258   1.85696   0.02639   1.005E+00   0.000E+00  -4.987E-03
 616  8.49049699   0.708  -1.33669   3.57507   6.96257   1.85694   0.02633   1.005E+00   0.000E+00  -4.984E-03
 617  8.49214854   0.708  -1.33668   3.57506   6.96255   1.85692   0.02626   1.005E+00   0.000E+00  -4.982E-03
 618  8.49379384   0.708  -1.33667   3.57506   6.96253   1.85690   0.02619   1.005E+00   0.000E+00  -4.979E-03
 619  8.49543293   0.708  -1.33667   3.57506   6.96252   1.85687   0.02612   1.005E+00   0.000E+00  -4.977E-03
 620  8.49706585   0.708  -1.33666   3.57506   6.96250   1.85685   0.02605   1.005E+00   0.000E+00  -4.974E-03
 621  8.49869266   0.708  -1.33665   3.57506   6.96249   1.85683   0.02599   1.005E+00   0.000E+00  -4.971E-03
 622  8.50031340   0.708  -1.33664   3.57505   6.96247   1.85681   0.02592   1.005E+00   0.000E+00  -4.969E-03
 623  8.50192811   0.708  -1.33664   3.57505   6.96246   1.85678   0.02585   1.005E+00   0.000E+00  -4.966E-03
 624  8.50353684   0.708  -1.33663   3.57505   6.96244   1.85676   0.02578   1.005E+00   0.000E+00  -4.963E-03
 625  8.50513963   0.707  -1.33662   3.57505   6.96242   1.85674   0.02572   1.005E+00   0.000E+00  -4.961E-03
 626  8.50673653   0.707  -1.33662   3.57505   6.96241   1.85672   0.02565   1.005E+00   0.000E+00  -4.958E-03
 627  8.50832758   0.707  -1.33661   3.57504   6.96239   1.85669   0.02558   1.005E+00   0.000E+00  -4.956E-03
 628  8.50991282   0.707  -1.33660   3.57504   6.96238   1.85667   0.02551   1.005E+00   0.000E+00  -4.953E-03
 629  8.51149230   0.707  -1.33660   3.57504   6.96236   1.85665   0.02544   1.005E+00   0.000E+00  -4.950E-03
 630  8.51306605   0.707  -1.33659   3.57504   6.96235   1.85663   0.02538   1.005E+00   0.000E+00  -4.948E-03
 631  8.51463412   0.707  -1.33658   3.57504   6.96233   1.85660   0.02531   1.005E+00   0.000E+00  -4.945E-03
 632  8.51619655   0.707  -1.33658   3.57503   6.96231   1.85658   0.02524   1.005E+00   0.000E+00  -4.942E-03
 633  8.51775338   0.707  -1.33657   3.57503   6.96230   1.85656   0.02517   1.005E+00   0.000E+00  -4.940E-03
 634  8.51930464   0.707  -1.33656   3.57503   6.96228   1.85654   0.02510   1.005E+00   0.000E+00  -4.937E-03
 635  8.52085039   0.707  -1.33656   3.57503   6.96227   1.85651   0.02504   1.005E+00   0.000E+00  -4.935E-03
 636  8.52239065   0.707  -1.33655   3.57503   6.96225   1.85649   0.02497   1.005E+00   0.000E+00  -4.932E-03
 637  8.52392547   0.707  -1.33654   3.57502   6.96224   1.85647   0.02490   1.005E+00   0.000E+00  -4.929E-03
 638  8.52545489   0.707  -1.33654   3.57502   6.96222   1.85645   0.02483   1.005E+00   0.000E+00  -4.927E-03
 639  8.52697894   0.707  -1.33653   3.57502   6.96220   1.85642   0.02477   1.005E+00   0.000E+00  -4.924E-03
 640  8.52849766   0.707  -1.33652   3.57502   6.96219   1.85640   0.02470   1.005E+00   0.000E+00  -4.921E-03
 641  8.53001108   0.707  -1.33652   3.57502   6.96217   1.85638   0.02463   1.005E+00   0.000E+00  -4.919E-03
 642  8.53151925   0.707  -1.33651   3.57501   6.96216   1.85636   0.02456   1.005E+00   0.000E+00  -4.916E-03
 643  8.53302220   0.707  -1.33650   3.57501   6.96214   1.85633   0.02449   1.005E+00   0.000E+00  -4.913E-03
 644  8.53451997   0.707  -1.33650   3.57501   6.96213   1.85631   0.02443   1.005E+00   0.000E+00  -4.911E-03
 645  8.53601259   0.707  -1.33649   3.57501   6.96211   1.85629   0.02436   1.005E+00   0.000E+00  -4.908E-03
 646  8.53750010   0.707  -1.33648   3.57501   6.96209   1.85627   0.02429   1.005E+00   0.000E+00  -4.906E-03
 647  8.53898253   0.707  -1.33647   3.57500   6.96208   1.85624   0.02422   1.004E+00   0.000E+00  -4.903E-03
 648  8.54045992   0.707  -1.33647   3.57500   6.96206   1.85622   0.02416   1.004E+00   0.000E+00  -4.900E-03
 649  8.54193230   0.707  -1.33646   3.57500   6.96205   1.85620   0.02409   1.004E+00   0.000E+00  -4.898E-03
 650  8.54339970   0.707  -1.33645   3.57500   6.96203   1.85618   0.02402   1.004E+00   0.000E+00  -4.895E-03
 651  8.54486216   0.707  -1.33645   3.57500   6.96201   1.85615   0.02395   1.004E+00   0.000E+00  -4.892E-03
 652  8.54631972   0.707  -1.33644   3.57499   6.96200   1.85613   0.02388   1.004E+00   0.000E+00  -4.890E-03
 653  8.54777240   0.707  -1.33643   3.57499   6.96198   1.85611   0.02382   1.004E+00   0.000E+00  -4.887E-03
 654  8.54922023   0.707  -1.33643   3.57499   6.96197   1.85608   0.02375   1.004E+00   0.000E+00  -4.885E-03
 655  8.55066326   0.707  -1.33642   3.57499   6.96195   1.85606   0.02368   1.004E+00   0.000E+00  -4.882E-03
 656  8.55210150   0.707  -1.33641   3.57499   6.96194   1.85604   0.02361   1.004E+00   0.000E+00  -4.879E-03
 657  8.55353500   0.707  -1.33641   3.57498   6.96192   1.85602   0.02354   1.004E+00   0.000E+00  -4.877E-03
 658  8.55496379   0.707  -1.33640   3.57498   6.96190   1.85599   0.02348   1.004E+00   0.000E+00  -4.874E-03
 659  8.55638788   0.707  -1.33639   3.57498   6.96189   1.85597   0.02341   1.004E+00   0.000E+00  -4.871E-03
 660  8.55780733   0.707  -1.33639   3.57498   6.96187   1.85595   0.02334   1.004E+00   0.000E+00  -4.869E-03
 661  8.55922215   0.707  -1.33638   3.57498   6.96186   1.85593   0.02327   1.004E+00   0.000E+00  -4.866E-03
 662  8.56063237   0.707  -1.33637   3.57497   6.96184   1.85590   0.02321   1.004E+00   0.000E+00  -4.864E-03
 663  8.56203803   0.707  -1.33637   3.57497   6.96183   1.85588   0.02314   1.004E+00   0.000E+00  -4.861E-03
 664  8.56343916   0.707  -1.33636   3.57497   6.96181   1.85586   0.02307   1.004E+00   0.000E+00  -4.858E-03
 665  8.56483578   0.707  -1.33635   3.57497   6.96179   1.85584   0.02300   1.004E+00   0.000E+00  -4.856E-03
 666  8.56622792   0.707  -1.33635   3.57497   6.96178   1.85581   0.02293   1.004E+00   0.000E+00  -4.853E-03
 667  8.56761561   0.707  -1.33634   3.57496   6.96176   1.85579   0.02287   1.004E+00   0.000E+00  -4.850E-03
 668  8.56899889   0.707  -1.33633   3.57496   6.96175   1.85577   0.02280   1.004E+00   0.000E+00  -4.848E-03
 669  8.57037777   0.707  -1.33633   3.57496   6.96173   1.85575   0.02273   1.004E+00   0.000E+00  -4.845E-03
 670  8.57175229   0.707  -1.33632   3.57496   6.96172   1.85572   0.02266   1.004E+00   0.000E+00  -4.843E-03
 671  8.57312247   0.707  -1.33631   3.57496   6.96170   1.85570   0.02260   1.004E+00   0.000E+00  -4.840E-03
 672  8.57448834   0.707  -1.33630   3.57495   6.96168   1.85568   0.02253   1.004E+00   0.000E+00  -4.837E-03
 673  8.57584993   0.707  -1.33630   3.57495   6.96167   1.85566   0.02246   1.004E+00   0.000E+00  -4.835E-03
 674  8.57720727   0.707  -1.33629   3.57495   6.96165   1.85563   0.02239   1.004E+00   0.000E+00  -4.832E-03
 675  8.57856038   0.707  -1.33628   3.57495   6.96164   1.85561   0.02232   1.004E+00   0.000E+00  -4.829E-03
 676  8.57990928   0.707  -1.33628   3.57495   6.96162   1.85559   0.02226   1.004E+00   0.000E+00  -4.827E-03
 677  8.58125401   0.707  -1.33627   3.57494   6.96161   1.85557   0.02219   1.004E+00   0.000E+00  -4.824E-03
 678  8.58259458   0.707  -1.33626   3.57494   6.96159   1.85554   0.02212   1.004E+00   0.000E+00  -4.822E-03
 679  8.58393103   0.707  -1.33626   3.57494   6.96157   1.85552   0.02206   1.004E+00   0.000E+00  -4.819E-03
 680  8.58526338   0.707  -1.33625   3.57494   6.96156   1.85551   0.02200   1.004E+00   0.000E+00  -4.815E-03
 681  8.58659166   0.707  -1.33624   3.57494   6.96154   1.85549   0.02194   1.004E+00   0.000E+00  -4.812E-03
 682  8.58791588   0.707  -1.33624   3.57493   6.96153   1.85547   0.02189   1.004E+00   0.000E+00  -4.808E-03
 683  8.58923608   0.707  -1.33623   3.57493   6.96151   1.85545   0.02183   1.004E+00   0.000E+00  -4.805E-03
 684  8.59055228   0.707  -1.33622   3.57493   6.96149   1.85543   0.02177   1.004E+00   0.000E+00  -4.802E-03
 685  8.59186450   0.707  -1.33621   3.57493   6.96148   1.85542   0.02172   1.004E+00   0.000E+00  -4.798E-03
 686  8.59317277   0.707  -1.33621   3.57493   6.96146   1.85540   0.02166   1.004E+00   0.000E+00  -4.795E-03
 687  8.59447711   0.707  -1.33620   3.57492   6.96145   1.85538   0.02160   1.004E+00   0.000E+00  -4.791E-03
 688  8.59577755   0.707  -1.33619   3.57492   6.96143   1.85536   0.02155   1.004E+00   0.000E+00  -4.788E-03
 689  8.59707410   0.707  -1.33619   3.57492   6.96142   1.85534   0.02149   1.004E+00   0.000E+00  -4.785E-03
 690  8.59836679   0.707  -1.33618   3.57492   6.96140   1.85533   0.02143   1.004E+00   0.000E+00  -4.781E-03
 691  8.59965565   0.707  -1.33617   3.57492   6.96138   1.85531   0.02137   1.004E+00   0.000E+00  -4.778E-03
 692  8.60094069   0.707  -1.33616   3.57492   6.96137   1.85529   0.02132   1.004E+00   0.000E+00  -4.774E-03
 693  8.60222194   0.707  -1.33616   3.57491   6.96135   1.85527   0.02126   1.004E+00   0.000E+00  -4.771E-03
 694  8.60349942   0.707  -1.33615   3.57491   6.96134   1.85526   0.02120   1.004E+00   0.000E+00  -4.768E-03
 695  8.60477316   0.707  -1.33614   3.57491   6.96132   1.85524   0.02115   1.004E+00   0.000E+00  -4.764E-03
 696  8.60604317   0.707  -1.33614   3.57491   6.96130   1.85522   0.02109   1.004E+00   0.000E+00  -4.761E-03
 697  8.60730948   0.707  -1.33613   3.57491   6.96129   1.85520   0.02103   1.004E+00   0.000E+00  -4.757E-03
 698  8.60857211   0.707  -1.33612   3.57490   6.96127   1.85518   0.02098   1.004E+00   0.000E+00  -4.754E-03
 699  8.60983107   0.707  -1.33612   3.57490   6.96126   1.85517   0.02092   1.004E+00   0.000E+00  -4.751E-03
 700  8.61108640   0.707  -1.33611   3.57490   6.96124   1.85515   0.02086   1.004E+00   0.000E+00  -4.747E-03
 701  8.61233811   0.707  -1.33610   3.57490   6.96122   1.85513   0.02081   1.004E+00   0.000E+00  -4.744E-03
 702  8.61358622   0.707  -1.33609   3.57490   6.96121   1.85511   0.02075   1.004E+00   0.000E+00  -4.740E-03
 703  8.61483075   0.707  -1.33609   3.57489   6.96119   1.85510   0.02069   1.004E+00   0.000E+00  -4.737E-03
 704  8.61607173   0.707  -1.33608   3.57489   6.96118   1.85508   0.02064   1.004E+00   0.000E+00  -4.734E-03
 705  8.61730918   0.707  -1.33607   3.57489   6.96116   1.85506   0.02058   1.004E+00   0.000E+00  -4.730E-03
 706  8.61854310   0.707  -1.33607   3.57489   6.96115   1.85504   0.02052   1.004E+00   0.000E+00  -4.727E-03
 707  8.61977354   0.707  -1.33606   3.57489   6.96113   1.85502   0.02047   1.004E+00   0.000E+00  -4.723E-03
 708  8.62100049   0.707  -1.33605   3.57489   6.96111   1.85501   0.02041   1.004E+00   0.000E+00  -4.720E-03
 709  8.62222399   0.707  -1.33604   3.57488   6.96110   1.85499   0.02035   1.004E+00   0.000E+00  -4.717E-03
 710  8.62344405   0.707  -1.33604   3.57488   6.96108   1.85497   0.02029   1.004E+00   0.000E+00  -4.713E-03
 711  8.62466069   0.706  -1.33603   3.57488   6.96107   1.85495   0.02024   1.004E+00   0.000E+00  -4.710E-03
 712  8.62587394   0.706  -1.33602   3.57488   6.96105   1.85493   0.02018   1.004E+00   0.000E+00  -4.706E-03
 713  8.62708380   0.706  -1.33602   3.57488   6.96103   1.85492   0.02012   1.004E+00   0.000E+00  -4.703E-03
 714  8.62829031   0.706  -1.33601   3.57487   6.96102   1.85490   0.02007   1.004E+00   0.000E+00  -4.700E-03
 715  8.62949347   0.706  -1.33600   3.57487   6.96100   1.85488   0.02001   1.004E+00   0.000E+00  -4.696E-03
 716  8.63069331   0.706  -1.33599   3.57487   6.96099   1.85486   0.01995   1.004E+00   0.000E+00  -4.693E-03
 717  8.63188984   0.706  -1.33599   3.57487   6.96097   1.85485   0.01990   1.004E+00   0.000E+00  -4.689E-03
 718  8.63308308   0.706  -1.33598   3.57487   6.96096   1.85483   0.01984   1.004E+00   0.000E+00  -4.686E-03
 719  8.63427306   0.706  -1.33597   3.57487   6.96094   1.85481   0.01978   1.004E+00   0.000E+00  -4.683E-03
 720  8.63545978   0.706  -1.33597   3.57486   6.96092   1.85479   0.01973   1.004E+00   0.000E+00  -4.679E-03
 721  8.63664327   0.706  -1.33596   3.57486   6.96091   1.85477   0.01967   1.004E+00   0.000E+00  -4.676E-03
 722  8.63782354   0.706  -1.33595   3.57486   6.96089   1.85476   0.01961   1.004E+00   0.000E+00  -4.672E-03
 723  8.63900061   0.706  -1.33594   3.57486   6.96088   1.85474   0.01956   1.004E+00   0.000E+00  -4.669E-03
 724  8.64017450   0.706  -1.33594   3.57486   6.96086   1.85472   0.01950   1.004E+00   0.000E+00  -4.666E-03
 725  8.64134523   0.706  -1.33593   3.57485   6.96084   1.85470   0.01944   1.004E+00   0.000E+00  -4.662E-03
 726  8.64251281   0.706  -1.33592   3.57485   6.96083   1.85469   0.01939   1.004E+00   0.000E+00  -4.659E-03
 727  8.64367726   0.706  -1.33592   3.57485   6.96081   1.85467   0.01933   1.004E+00   0.000E+00  -4.655E-03
 728  8.64483860   0.706  -1.33591   3.57485   6.96080   1.85465   0.01927   1.004E+00   0.000E+00  -4.652E-03
 729  8.64599684   0.706  -1.33590   3.57485   6.96078   1.85463   0.01921   1.004E+00   0.000E+00  -4.649E-03
 730  8.64715199   0.706  -1.33589   3.57484   6.96076   1.85461   0.01916   1.004E+00   0.000E+00  -4.645E-03
 731  8.64830409   0.706  -1.33589   3.57484   6.96075   1.85460   0.01910   1.004E+00   0.000E+00  -4.642E-03
 732  8.64945313   0.706  -1.33588   3.57484   6.96073   1.85458   0.01904   1.004E+00   0.000E+00  -4.638E-03
 733  8.65059915   0.706  -1.33587   3.57484   6.96072   1.85456   0.01899   1.004E+00   0.000E+00  -4.635E-03
 734  8.65174214   0.706  -1.33587   3.57484   6.96070   1.85454   0.01893   1.004E+00   0.000E+00  -4.632E-03
 735  8.65288214   0.706  -1.33586   3.57484   6.96069   1.85453   0.01887   1.004E+00   0.000E+00  -4.628E-03
 736  8.65401915   0.706  -1.33585   3.57483   6.96067   1.85451   0.01882   1.004E+00   0.000E+00  -4.625E-03
 737  8.65515319   0.706  -1.33584   3.57483   6.96065   1.85449   0.01876   1.004E+00   0.000E+00  -4.622E-03
 738  8.65628428   0.706  -1.33584   3.57483   6.96064   1.85447   0.01870   1.004E+00   0.000E+00  -4.618E-03
 739  8.65741244   0.706  -1.33583   3.57483   6.96062   1.85445   0.01865   1.004E+00   0.000E+00  -4.615E-03
 740  8.65853766   0.706  -1.33582   3.57483   6.96061   1.85444   0.01859   1.004E+00   0.000E+00  -4.611E-03
 741  8.65965998   0.706  -1.33582   3.57482   6.96059   1.85442   0.01853   1.004E+00   0.000E+00  -4.608E-03
 742  8.66077941   0.706  -1.33581   3.57482   6.96057   1.85440   0.01848   1.004E+00   0.000E+00  -4.605E-03
 743  8.66189596   0.706  -1.33580   3.57482   6.96056   1.85438   0.01842   1.004E+00   0.000E+00  -4.601E-03
 744  8.66300965   0.706  -1.33580   3.57482   6.96054   1.85436   0.01836   1.004E+00   0.000E+00  -4.598E-03
 745  8.66412049   0.706  -1.33579   3.57482   6.96053   1.85435   0.01830   1.004E+00   0.000E+00  -4.594E-03
 746  8.66522849   0.706  -1.33578   3.57482   6.96051   1.85433   0.01825   1.004E+00   0.000E+00  -4.591E-03
 747  8.66633367   0.706  -1.33577   3.57481   6.96050   1.85431   0.01819   1.004E+00   0.000E+00  -4.588E-03
 748  8.66743605   0.706  -1.33577   3.57481   6.96048   1.85429   0.01813   1.004E+00   0.000E+00  -4.584E-03
 749  8.66853564   0.706  -1.33576   3.57481   6.96046   1.85428   0.01808   1.004E+00   0.000E+00  -4.581E-03
 750  8.66963245   0.706  -1.33575   3.57481   6.96045   1.85426   0.01802   1.004E+00   0.000E+00  -4.577E-03
 751  8.67072650   0.706  -1.33575   3.57481   6.96043   1.85424   0.01796   1.004E+00   0.000E+00  -4.574E-03
 752  8.67181780   0.706  -1.33574   3.57480   6.96042   1.85422   0.01791   1.004E+00   0.000E+00  -4.571E-03
 753  8.67290636   0.706  -1.33573   3.57480   6.96040   1.85420   0.01785   1.004E+00   0.000E+00  -4.567E-03
 754  8.67399220   0.706  -1.33572   3.57480   6.96038   1.85419   0.01779   1.004E+00   0.000E+00  -4.564E-03
 755  8.67507533   0.706  -1.33572   3.57480   6.96037   1.85417   0.01774   1.004E+00   0.000E+00  -4.560E-03
 756  8.67615577   0.706  -1.33571   3.57480   6.96035   1.85415   0.01768   1.004E+00   0.000E+00  -4.557E-03
 757  8.67723353   0.706  -1.33570   3.57479   6.96034   1.85413   0.01762   1.004E+00   0.000E+00  -4.554E-03
 758  8.67830862   0.706  -1.33570   3.57479   6.96032   1.85412   0.01757   1.004E+00   0.000E+00  -4.550E-03
 759  8.67938106   0.706  -1.33569   3.57479   6.96030   1.85410   0.01751   1.004E+00   0.000E+00  -4.547E-03
 760  8.68045085   0.706  -1.33568   3.57479   6.96029   1.85408   0.01745   1.004E+00   0.000E+00  -4.543E-03
 761  8.68151801   0.706  -1.33567   3.57479   6.96027   1.85406   0.01740   1.004E+00   0.000E+00  -4.540E-03
 762  8.68258256   0.706  -1.33567   3.57479   6.96026   1.85404   0.01734   1.004E+00   0.000E+00  -4.537E-03
 763  8.68364451   0.706  -1.33566   3.57478   6.96024   1.85403   0.01728   1.004E+00   0.000E+00  -4.533E-03
 764  8.68470386   0.706  -1.33565   3.57478   6.96023   1.85401   0.01722   1.004E+00   0.000E+00  -4.530E-03
 765  8.68576064   0.706  -1.33565   3.57478   6.96021   1.85399   0.01717   1.004E+00   0.000E+00  -4.526E-03
 766  8.68681485   0.706  -1.33564   3.57478   6.96019   1.85397   0.01711   1.004E+00   0.000E+00  -4.523E-03
 767  8.68786651   0.706  -1.33563   3.57478   6.96018   1.85395   0.01705   1.004E+00   0.000E+00  -4.520E-03
 768  8.68891563   0.706  -1.33562   3.57477   6.96016   1.85394   0.01700   1.004E+00   0.000E+00  -4.516E-03
 769  8.68996222   0.706  -1.33562   3.57477   6.96015   1.85392   0.01694   1.004E+00   0.000E+00  -4.513E-03
 770  8.69100629   0.706  -1.33561   3.57477   6.96013   1.85390   0.01688   1.004E+00   0.000E+00  -4.509E-03
 771  8.69204786   0.706  -1.33560   3.57477   6.96011   1.85388   0.01683   1.004E+00   0.000E+00  -4.506E-03
 772  8.69308694   0.706  -1.33560   3.57477   6.96010   1.85387   0.01677   1.004E+00   0.000E+00  -4.503E-03
 773  8.69412354   0.706  -1.33559   3.57476   6.96008   1.85385   0.01671   1.004E+00   0.000E+00  -4.499E-03
 774  8.69515767   0.706  -1.33558   3.57476   6.96007   1.85383   0.01666   1.004E+00   0.000E+00  -4.496E-03
 775  8.69618934   0.706  -1.33557   3.57476   6.96005   1.85381   0.01660   1.004E+00   0.000E+00  -4.492E-03
 776  8.69721857   0.706  -1.33557   3.57476   6.96004   1.85380   0.01655   1.004E+00   0.000E+00  -4.488E-03
 777  8.69824537   0.706  -1.33556   3.57476   6.96002   1.85378   0.01650   1.004E+00   0.000E+00  -4.483E-03
 778  8.69926974   0.706  -1.33555   3.57476   6.96001   1.85377   0.01646   1.004E+00   0.000E+00  -4.477E-03
 779  8.70029170   0.706  -1.33555   3.57476   6.95999   1.85376   0.01641   1.004E+00   0.000E+00  -4.472E-03
 780  8.70131127   0.706  -1.33554   3.57475   6.95998   1.85375   0.01637   1.004E+00   0.000E+00  -4.467E-03
 781  8.70232844   0.706  -1.33553   3.57475   6.95996   1.85374   0.01633   1.004E+00   0.000E+00  -4.461E-03
 782  8.70334324   0.706  -1.33552   3.57475   6.95995   1.85373   0.01628   1.004E+00   0.000E+00  -4.456E-03
 783  8.70435567   0.706  -1.33552   3.57475   6.95994   1.85372   0.01624   1.004E+00   0.000E+00  -4.450E-03
 784  8.70536575   0.706  -1.33551   3.57475   6.95992   1.85370   0.01619   1.004E+00   0.000E+00  -4.445E-03
 785  8.70637349   0.706  -1.33550   3.57475   6.95991   1.85369   0.01615   1.004E+00   0.000E+00  -4.440E-03
 786  8.70737889   0.706  -1.33549   3.57475   6.95989   1.85368   0.01611   1.004E+00   0.000E+00  -4.434E-03
 787  8.70838197   0.706  -1.33549   3.57474   6.95988   1.85367   0.01606   1.004E+00   0.000E+00  -4.429E-03
 788  8.70938274   0.706  -1.33548   3.57474   6.95987   1.85366   0.01602   1.004E+00   0.000E+00  -4.423E-03
 789  8.71038120   0.706  -1.33547   3.57474   6.95985   1.85365   0.01597   1.004E+00   0.000E+00  -4.418E-03
 790  8.71137738   0.706  -1.33546   3.57474   6.95984   1.85363   0.01593   1.004E+00   0.000E+00  -4.412E-03
 791  8.71237128   0.706  -1.33546   3.57474   6.95982   1.85362   0.01589   1.004E+00   0.000E+00  -4.407E-03
 792  8.71336290   0.706  -1.33545   3.57474   6.95981   1.85361   0.01584   1.004E+00   0.000E+00  -4.402E-03
 793  8.71435227   0.706  -1.33544   3.57474   6.95980   1.85360   0.01580   1.004E+00   0.000E+00  -4.396E-03
 794  8.71533939   0.706  -1.33543   3.57473   6.95978   1.85359   0.01575   1.004E+00   0.000E+00  -4.391E-03
 795  8.71632427   0.705  -1.33543   3.57473   6.95977   1.85358   0.01571   1.004E+00   0.000E+00  -4.385E-03
 796  8.71730693   0.705  -1.33542   3.57473   6.95975   1.85356   0.01567   1.004E+00   0.000E+00  -4.380E-03
 797  8.71828736   0.705  -1.33541   3.57473   6.95974   1.85355   0.01562   1.004E+00   0.000E+00  -4.374E-03
 798  8.71926559   0.705  -1.33540   3.57473   6.95972   1.85354   0.01558   1.004E+00   0.000E+00  -4.369E-03
 799  8.72024162   0.705  -1.33540   3.57473   6.95971   1.85353   0.01553   1.004E+00   0.000E+00  -4.364E-03
 800  8.72121545   0.705  -1.33539   3.57473   6.95970   1.85352   0.01549   1.004E+00   0.000E+00  -4.358E-03
 801  8.72218712   0.705  -1.33538   3.57473   6.95968   1.85351   0.01545   1.004E+00   0.000E+00  -4.353E-03
 802  8.72315661   0.705  -1.33537   3.57472   6.95967   1.85349   0.01540   1.004E+00   0.000E+00  -4.347E-03
 803  8.72412394   0.705  -1.33537   3.57472   6.95965   1.85348   0.01536   1.004E+00   0.000E+00  -4.342E-03
 804  8.72508912   0.705  -1.33536   3.57472   6.95964   1.85347   0.01531   1.004E+00   0.000E+00  -4.336E-03
 805  8.72605216   0.705  -1.33535   3.57472   6.95963   1.85346   0.01527   1.004E+00   0.000E+00  -4.331E-03
 806  8.72701307   0.705  -1.33535   3.57472   6.95961   1.85345   0.01523   1.004E+00   0.000E+00  -4.326E-03
 807  8.72797186   0.705  -1.33534   3.57472   6.95960   1.85344   0.01518   1.004E+00   0.000E+00  -4.320E-03
 808  8.72892854   0.705  -1.33533   3.57472   6.95958   1.85343   0.01514   1.004E+00   0.000E+00  -4.315E-03
 809  8.72988311   0.705  -1.33532   3.57471   6.95957   1.85341   0.01509   1.004E+00   0.000E+00  -4.309E-03
 810  8.73083560   0.705  -1.33532   3.57471   6.95955   1.85340   0.01505   1.004E+00   0.000E+00  -4.304E-03
 811  8.73178599   0.705  -1.33531   3.57471   6.95954   1.85339   0.01501   1.004E+00   0.000E+00  -4.298E-03
 812  8.73273431   0.705  -1.33530   3.57471   6.95953   1.85338   0.01496   1.004E+00   0.000E+00  -4.293E-03
 813  8.73368057   0.705  -1.33529   3.57471   6.95951   1.85337   0.01492   1.004E+00   0.000E+00  -4.288E-03
 814  8.73462477   0.705  -1.33529   3.57471   6.95950   1.85336   0.01487   1.004E+00   0.000E+00  -4.282E-03
 815  8.73556692   0.705  -1.33528   3.57471   6.95948   1.85334   0.01483   1.004E+00   0.000E+00  -4.277E-03
 816  8.73650703   0.705  -1.33527   3.57470   6.95947   1.85333   0.01479   1.004E+00   0.000E+00  -4.271E-03
 817  8.73744511   0.705  -1.33526   3.57470   6.95946   1.85332   0.01474   1.004E+00   0.000E+00  -4.266E-03
 818  8.73838116   0.705  -1.33526   3.57470   6.95944   1.85331   0.01470   1.004E+00   0.000E+00  -4.261E-03
 819  8.73931521   0.705  -1.33525   3.57470   6.95943   1.85330   0.01465   1.004E+00   0.000E+00  -4.255E-03
 820  8.74024725   0.705  -1.33524   3.57470   6.95941   1.85329   0.01461   1.004E+00   0.000E+00  -4.250E-03
 821  8.74117729   0.705  -1.33523   3.57470   6.95940   1.85327   0.01457   1.004E+00   0.000E+00  -4.244E-03
 822  8.74210535   0.705  -1.33523   3.57470   6.95938   1.85326   0.01452   1.004E+00   0.000E+00  -4.239E-03
 823  8.74303143   0.705  -1.33522   3.57470   6.95937   1.85325   0.01448   1.004E+00   0.000E+00  -4.233E-03
 824  8.74395553   0.705  -1.33521   3.57469   6.95936   1.85324   0.01443   1.004E+00   0.000E+00  -4.228E-03
 825  8.74487768   0.705  -1.33520   3.57469   6.95934   1.85323   0.01439   1.004E+00   0.000E+00  -4.223E-03
 826  8.74579787   0.705  -1.33520   3.57469   6.95933   1.85322   0.01435   1.004E+00   0.000E+00  -4.217E-03
 827  8.74671612   0.705  -1.33519   3.57469   6.95931   1.85320   0.01430   1.004E+00   0.000E+00  -4.212E-03
 828  8.74763242   0.705  -1.33518   3.57469   6.95930   1.85319   0.01426   1.004E+00   0.000E+00  -4.206E-03
 829  8.74854680   0.705  -1.33517   3.57469   6.95929   1.85318   0.01421   1.004E+00   0.000E+00  -4.201E-03
 830  8.74945926   0.705  -1.33517   3.57469   6.95927   1.85317   0.01417   1.004E+00   0.000E+00  -4.195E-03
 831  8.75036980   0.705  -1.33516   3.57468   6.95926   1.85316   0.01413   1.004E+00   0.000E+00  -4.190E-03
 832  8.75127844   0.705  -1.33515   3.57468   6.95924   1.85315   0.01408   1.004E+00   0.000E+00  -4.185E-03
 833  8.75218519   0.705  -1.33515   3.57468   6.95923   1.85314   0.01404   1.004E+00   0.000E+00  -4.179E-03
 834  8.75309004   0.705  -1.33514   3.57468   6.95922   1.85312   0.01399   1.004E+00   0.000E+00  -4.174E-03
 835  8.75399301   0.705  -1.33513   3.57468   6.95920   1.85311   0.01395   1.004E+00   0.000E+00  -4.168E-03
 836  8.75489411   0.705  -1.33512   3.57468   6.95919   1.85310   0.01391   1.004E+00   0.000E+00  -4.163E-03
 837  8.75579334   0.705  -1.33512   3.57468   6.95917   1.85309   0.01386   1.004E+00   0.000E+00  -4.157E-03
 838  8.75669072   0.705  -1.33511   3.57467   6.95916   1.85308   0.01382   1.004E+00   0.000E+00  -4.152E-03
 839  8.75758624   0.705  -1.33510   3.57467   6.95914   1.85307   0.01377   1.004E+00   0.000E+00  -4.147E-03
 840  8.75847992   0.705  -1.33509   3.57467   6.95913   1.85305   0.01373   1.004E+00   0.000E+00  -4.141E-03
 841  8.75937177   0.705  -1.33509   3.57467   6.95912   1.85304   0.01369   1.004E+00   0.000E+00  -4.136E-03
 842  8.76026179   0.705  -1.33508   3.57467   6.95910   1.85303   0.01364   1.004E+00   0.000E+00  -4.130E-03
 843  8.76114998   0.705  -1.33507   3.57467   6.95909   1.85302   0.01360   1.004E+00   0.000E+00  -4.125E-03
 844  8.76203637   0.705  -1.33506   3.57467   6.95907   1.85301   0.01355   1.004E+00   0.000E+00  -4.119E-03
 845  8.76292095   0.705  -1.33506   3.57466   6.95906   1.85300   0.01351   1.004E+00   0.000E+00  -4.114E-03
 846  8.76380373   0.705  -1.33505   3.57466   6.95905   1.85298   0.01347   1.004E+00   0.000E+00  -4.109E-03
 847  8.76468472   0.705  -1.33504   3.57466   6.95903   1.85297   0.01342   1.004E+00   0.000E+00  -4.103E-03
 848  8.76556393   0.705  -1.33503   3.57466   6.95902   1.85296   0.01338   1.004E+00   0.000E+00  -4.098E-03
 849  8.76644136   0.705  -1.33503   3.57466   6.95900   1.85295   0.01333   1.003E+00   0.000E+00  -4.092E-03
 850  8.76731702   0.705  -1.33502   3.57466   6.95899   1.85294   0.01329   1.003E+00   0.000E+00  -4.087E-03
 851  8.76819092   0.705  -1.33501   3.57466   6.95897   1.85293   0.01325   1.003E+00   0.000E+00  -4.082E-03
 852  8.76906307   0.705  -1.33500   3.57466   6.95896   1.85291   0.01320   1.003E+00   0.000E+00  -4.076E-03
 853  8.76993347   0.705  -1.33500   3.57465   6.95895   1.85290   0.01316   1.003E+00   0.000E+00  -4.071E-03
 854  8.77080212   0.705  -1.33499   3.57465   6.95893   1.85289   0.01311   1.003E+00   0.000E+00  -4.065E-03
 855  8.77166905   0.705  -1.33498   3.57465   6.95892   1.85288   0.01307   1.003E+00   0.000E+00  -4.060E-03
 856  8.77253424   0.705  -1.33497   3.57465   6.95890   1.85287   0.01303   1.003E+00   0.000E+00  -4.054E-03
 857  8.77339772   0.705  -1.33497   3.57465   6.95889   1.85286   0.01298   1.003E+00   0.000E+00  -4.049E-03
 858  8.77425948   0.705  -1.33496   3.57465   6.95888   1.85284   0.01294   1.003E+00   0.000E+00  -4.044E-03
 859  8.77511953   0.705  -1.33495   3.57465   6.95886   1.85283   0.01289   1.003E+00   0.000E+00  -4.038E-03
 860  8.77597789   0.705  -1.33494   3.57464   6.95885   1.85282   0.01285   1.003E+00   0.000E+00  -4.033E-03
 861  8.77683455   0.705  -1.33494   3.57464   6.95883   1.85281   0.01281   1.003E+00   0.000E+00  -4.027E-03
 862  8.77768953   0.705  -1.33493   3.57464   6.95882   1.85280   0.01276   1.003E+00   0.000E+00  -4.022E-03
 863  8.77854282   0.705  -1.33492   3.57464   6.95881   1.85279   0.01272   1.003E+00   0.000E+00  -4.016E-03
 864  8.77939444   0.705  -1.33492   3.57464   6.95879   1.85278   0.01267   1.003E+00   0.000E+00  -4.011E-03
 865  8.78024440   0.705  -1.33491   3.57464   6.95878   1.85276   0.01263   1.003E+00   0.000E+00  -4.006E-03
 866  8.78109269   0.705  -1.33490   3.57464   6.95876   1.85275   0.01259   1.003E+00   0.000E+00  -4.000E-03
 867  8.78193934   0.705  -1.33489   3.57463   6.95875   1.85274   0.01254   1.003E+00   0.000E+00  -3.995E-03
 868  8.78278433   0.705  -1.33489   3.57463   6.95873   1.85273   0.01250   1.003E+00   0.000E+00  -3.989E-03
 869  8.78362769   0.705  -1.33488   3.57463   6.95872   1.85272   0.01245   1.003E+00   0.000E+00  -3.984E-03
 870  8.78446940   0.705  -1.33487   3.57463   6.95871   1.85271   0.01241   1.003E+00   0.000E+00  -3.978E-03
 871  8.78530950   0.705  -1.33486   3.57463   6.95869   1.85269   0.01237   1.003E+00   0.000E+00  -3.973E-03
 872  8.78614796   0.705  -1.33486   3.57463   6.95868   1.85268   0.01232   1.003E+00   0.000E+00  -3.968E-03
 873  8.78698482   0.705  -1.33485   3.57463   6.95866   1.85267   0.01228   1.003E+00   0.000E+00  -3.962E-03
 874  8.78782006   0.705  -1.33484   3.57462   6.95865   1.85266   0.01223   1.003E+00   0.000E+00  -3.957E-03
 875  8.78865370   0.705  -1.33483   3.57462   6.95864   1.85265   0.01219   1.003E+00   0.000E+00  -3.951E-03
 876  8.78948575   0.705  -1.33483   3.57462   6.95862   1.85264   0.01215   1.003E+00   0.000E+00  -3.946E-03
 877  8.79031620   0.705  -1.33482   3.57462   6.95861   1.85262   0.01210   1.003E+00   0.000E+00  -3.940E-03
 878  8.79114507   0.705  -1.33481   3.57462   6.95859   1.85261   0.01206   1.003E+00   0.000E+00  -3.935E-03
 879  8.79197235   0.704  -1.33480   3.57462   6.95858   1.85260   0.01201   1.003E+00   0.000E+00  -3.930E-03
 880  8.79279807   0.704  -1.33480   3.57462   6.95856   1.85259   0.01197   1.003E+00   0.000E+00  -3.924E-03
 881  8.79362222   0.704  -1.33479   3.57462   6.95855   1.85258   0.01193   1.003E+00   0.000E+00  -3.919E-03
 882  8.79444481   0.704  -1.33478   3.57461   6.95854   1.85257   0.01188   1.003E+00   0.000E+00  -3.913E-03
 883  8.79526584   0.704  -1.33477   3.57461   6.95852   1.85255   0.01184   1.003E+00   0.000E+00  -3.908E-03
 884  8.79608532   0.704  -1.33477   3.57461   6.95851   1.85254   0.01179   1.003E+00   0.000E+00  -3.903E-03
 885  8.79690326   0.704  -1.33476   3.57461   6.95849   1.85253   0.01175   1.003E+00   0.000E+00  -3.897E-03
 886  8.79771967   0.704  -1.33475   3.57461   6.95848   1.85252   0.01171   1.003E+00   0.000E+00  -3.892E-03
 887  8.79853454   0.704  -1.33474   3.57461   6.95847   1.85251   0.01166   1.003E+00   0.000E+00  -3.886E-03
 888  8.79934788   0.704  -1.33474   3.57461   6.95845   1.85250   0.01162   1.003E+00   0.000E+00  -3.881E-03
 889  8.80015970   0.704  -1.33473   3.57460   6.95844   1.85249   0.01157   1.003E+00   0.000E+00  -3.875E-03
 890  8.80097001   0.704  -1.33472   3.57460   6.95842   1.85247   0.01153   1.003E+00   0.000E+00  -3.870E-03
 891  8.80177881   0.704  -1.33471   3.57460   6.95841   1.85246   0.01149   1.003E+00   0.000E+00  -3.865E-03
 892  8.80258611   0.704  -1.33471   3.57460   6.95839   1.85245   0.01144   1.003E+00   0.000E+00  -3.859E-03
 893  8.80339191   0.704  -1.33470   3.57460   6.95838   1.85244   0.01140   1.003E+00   0.000E+00  -3.854E-03
 894  8.80419622   0.704  -1.33469   3.57460   6.95837   1.85243   0.01135   1.003E+00   0.000E+00  -3.848E-03
 895  8.80499904   0.704  -1.33469   3.57460   6.95835   1.85242   0.01131   1.003E+00   0.000E+00  -3.843E-03
 896  8.80580038   0.704  -1.33468   3.57459   6.95834   1.85240   0.01126   1.003E+00   0.000E+00  -3.837E-03
 897  8.80660024   0.704  -1.33467   3.57459   6.95832   1.85239   0.01122   1.003E+00   0.000E+00  -3.832E-03
 898  8.80739863   0.704  -1.33466   3.57459   6.95831   1.85238   0.01118   1.003E+00   0.000E+00  -3.827E-03
 899  8.80819556   0.704  -1.33466   3.57459   6.95830   1.85237   0.01113   1.003E+00   0.000E+00  -3.821E-03
 900  8.80899103   0.704  -1.33465   3.57459   6.95828   1.85236   0.01109   1.003E+00   0.000E+00  -3.816E-03
 901  8.80978504   0.704  -1.33464   3.57459   6.95827   1.85235   0.01104   1.003E+00   0.000E+00  -3.810E-03
 902  8.81057760   0.704  -1.33463   3.57459   6.95825   1.85233   0.01100   1.003E+00   0.000E+00  -3.805E-03
 903  8.81136872   0.704  -1.33463   3.57459   6.95824   1.85232   0.01096   1.003E+00   0.000E+00  -3.799E-03
 904  8.81215841   0.704  -1.33462   3.57458   6.95823   1.85231   0.01091   1.003E+00   0.000E+00  -3.794E-03
 905  8.81294665   0.704  -1.33461   3.57458   6.95821   1.85230   0.01087   1.003E+00   0.000E+00  -3.789E-03
 906  8.81373347   0.704  -1.33460   3.57458   6.95820   1.85229   0.01082   1.003E+00   0.000E+00  -3.783E-03
 907  8.81451887   0.704  -1.33460   3.57458   6.95818   1.85228   0.01078   1.003E+00   0.000E+00  -3.778E-03
 908  8.81530285   0.704  -1.33459   3.57458   6.95817   1.85226   0.01074   1.003E+00   0.000E+00  -3.772E-03
 909  8.81608542   0.704  -1.33458   3.57458   6.95815   1.85225   0.01069   1.003E+00   0.000E+00  -3.767E-03
 910  8.81686658   0.704  -1.33457   3.57458   6.95814   1.85224   0.01065   1.003E+00   0.000E+00  -3.761E-03
 911  8.81764634   0.704  -1.33457   3.57457   6.95813   1.85223   0.01060   1.003E+00   0.000E+00  -3.756E-03
 912  8.81842470   0.704  -1.33456   3.57457   6.95811   1.85222   0.01056   1.003E+00   0.000E+00  -3.751E-03
 913  8.81920166   0.704  -1.33455   3.57457   6.95810   1.85221   0.01052   1.003E+00   0.000E+00  -3.745E-03
 914  8.81997724   0.704  -1.33454   3.57457   6.95808   1.85220   0.01047   1.003E+00   0.000E+00  -3.740E-03
 915  8.82075144   0.704  -1.33454   3.57457   6.95807   1.85218   0.01043   1.003E+00   0.000E+00  -3.734E-03
 916  8.82152426   0.704  -1.33453   3.57457   6.95806   1.85217   0.01038   1.003E+00   0.000E+00  -3.729E-03
 917  8.82229570   0.704  -1.33452   3.57457   6.95804   1.85216   0.01034   1.003E+00   0.000E+00  -3.724E-03
 918  8.82306578   0.704  -1.33451   3.57456   6.95803   1.85215   0.01030   1.003E+00   0.000E+00  -3.718E-03
 919  8.82383450   0.704  -1.33451   3.57456   6.95801   1.85214   0.01025   1.003E+00   0.000E+00  -3.713E-03
 920  8.82460186   0.704  -1.33450   3.57456   6.95800   1.85213   0.01021   1.003E+00   0.000E+00  -3.707E-03
 921  8.82536786   0.704  -1.33449   3.57456   6.95798   1.85211   0.01016   1.003E+00   0.000E+00  -3.702E-03
 922  8.82613252   0.704  -1.33449   3.57456   6.95797   1.85210   0.01013   1.003E+00   0.000E+00  -3.696E-03
 923  8.82689583   0.704  -1.33448   3.57456   6.95796   1.85210   0.01011   1.003E+00   0.000E+00  -3.691E-03
 924  8.82765780   0.704  -1.33447   3.57456   6.95795   1.85209   0.01008   1.003E+00   0.000E+00  -3.686E-03
 925  8.82841844   0.704  -1.33447   3.57456   6.95794   1.85208   0.01006   1.003E+00   0.000E+00  -3.681E-03
 926  8.82917774   0.704  -1.33446   3.57456   6.95793   1.85207   0.01003   1.003E+00   0.000E+00  -3.676E-03
 927  8.82993573   0.704  -1.33445   3.57455   6.95792   1.85207   0.01001   1.003E+00   0.000E+00  -3.670E-03
 928  8.83069239   0.704  -1.33445   3.57455   6.95791   1.85206   0.00998   1.003E+00   0.000E+00  -3.665E-03
 929  8.83144773   0.704  -1.33444   3.57455   6.95790   1.85205   0.00996   1.003E+00   0.000E+00  -3.660E-03
 930  8.83220177   0.704  -1.33443   3.57455   6.95789   1.85204   0.00993   1.003E+00   0.000E+00  -3.655E-03
 931  8.83295449   0.704  -1.33443   3.57455   6.95788   1.85204   0.00991   1.003E+00   0.000E+00  -3.649E-03
 932  8.83370592   0.704  -1.33442   3.57455   6.95787   1.85203   0.00988   1.003E+00   0.000E+00  -3.644E-03
 933  8.83445605   0.704  -1.33441   3.57455   6.95786   1.85202   0.00985   1.003E+00   0.000E+00  -3.639E-03
 934  8.83520488   0.704  -1.33441   3.57455   6.95785   1.85201   0.00983   1.003E+00   0.000E+00  -3.634E-03
 935  8.83595242   0.704  -1.33440   3.57455   6.95784   1.85200   0.00980   1.003E+00   0.000E+00  -3.628E-03
 936  8.83669868   0.704  -1.33439   3.57455   6.95783   1.85200   0.00978   1.003E+00   0.000E+00  -3.623E-03
 937  8.83744366   0.704  -1.33439   3.57454   6.95782   1.85199   0.00975   1.003E+00   0.000E+00  -3.618E-03
 938  8.83818737   0.704  -1.33438   3.57454   6.95781   1.85198   0.00973   1.003E+00   0.000E+00  -3.613E-03
 939  8.83892980   0.704  -1.33437   3.57454   6.95780   1.85197   0.00970   1.003E+00   0.000E+00  -3.607E-03
 940  8.83967097   0.704  -1.33437   3.57454   6.95779   1.85197   0.00968   1.003E+00   0.000E+00  -3.602E-03
 941  8.84041087   0.704  -1.33436   3.57454   6.95778   1.85196   0.00965   1.003E+00   0.000E+00  -3.597E-03
 942  8.84114952   0.704  -1.33435   3.57454   6.95777   1.85195   0.00963   1.003E+00   0.000E+00  -3.592E-03
 943  8.84188691   0.704  -1.33435   3.57454   6.95776   1.85194   0.00960   1.003E+00   0.000E+00  -3.586E-03
 944  8.84262305   0.704  -1.33434   3.57454   6.95775   1.85193   0.00958   1.003E+00   0.000E+00  -3.581E-03
 945  8.84335794   0.704  -1.33433   3.57454   6.95774   1.85193   0.00955   1.003E+00   0.000E+00  -3.576E-03
 946  8.84409159   0.704  -1.33433   3.57454   6.95773   1.85192   0.00953   1.003E+00   0.000E+00  -3.571E-03
 947  8.84482401   0.704  -1.33432   3.57453   6.95772   1.85191   0.00950   1.003E+00   0.000E+00  -3.565E-03
 948  8.84555519   0.704  -1.33431   3.57453   6.95771   1.85190   0.00948   1.003E+00   0.000E+00  -3.560E-03
 949  8.84628515   0.704  -1.33431   3.57453   6.95770   1.85190   0.00945   1.003E+00   0.000E+00  -3.555E-03
 950  8.84701388   0.704  -1.33430   3.57453   6.95769   1.85189   0.00943   1.003E+00   0.000E+00  -3.550E-03
 951  8.84774139   0.704  -1.33429   3.57453   6.95768   1.85188   0.00940   1.003E+00   0.000E+00  -3.544E-03
 952  8.84846768   0.704  -1.33429   3.57453   6.95767   1.85187   0.00937   1.003E+00   0.000E+00  -3.539E-03
 953  8.84919276   0.704  -1.33428   3.57453   6.95766   1.85187   0.00935   1.003E+00   0.000E+00  -3.534E-03
 954  8.84991663   0.704  -1.33427   3.57453   6.95765   1.85186   0.00932   1.003E+00   0.000E+00  -3.529E-03
 955  8.85063930   0.704  -1.33427   3.57453   6.95764   1.85185   0.00930   1.003E+00   0.000E+00  -3.523E-03
 956  8.85136076   0.704  -1.33426   3.57453   6.95763   1.85184   0.00927   1.003E+00   0.000E+00  -3.518E-03
 957  8.85208103   0.704  -1.33425   3.57452   6.95762   1.85183   0.00925   1.003E+00   0.000E+00  -3.513E-03
 958  8.85280011   0.704  -1.33425   3.57452   6.95761   1.85183   0.00922   1.003E+00   0.000E+00  -3.508E-03
 959  8.85351799   0.704  -1.33424   3.57452   6.95760   1.85182   0.00920   1.003E+00   0.000E+00  -3.502E-03
 960  8.85423470   0.703  -1.33423   3.57452   6.95759   1.85181   0.00917   1.003E+00   0.000E+00  -3.497E-03
 961  8.85495022   0.703  -1.33423   3.57452   6.95758   1.85180   0.00915   1.003E+00   0.000E+00  -3.492E-03
 962  8.85566457   0.703  -1.33422   3.57452   6.95757   1.85180   0.00912   1.003E+00   0.000E+00  -3.487E-03
 963  8.85637774   0.703  -1.33421   3.57452   6.95756   1.85179   0.00910   1.003E+00   0.000E+00  -3.481E-03
 964  8.85708974   0.703  -1.33421   3.57452   6.95756   1.85178   0.00907   1.003E+00   0.000E+00  -3.476E-03
 965  8.85780058   0.703  -1.33420   3.57452   6.95755   1.85177   0.00905   1.003E+00   0.000E+00  -3.471E-03
 966  8.85851026   0.703  -1.33419   3.57452   6.95754   1.85177   0.00902   1.003E+00   0.000E+00  -3.466E-03
 967  8.85921878   0.703  -1.33419   3.57451   6.95753   1.85176   0.00900   1.003E+00   0.000E+00  -3.460E-03
 968  8.85992614   0.703  -1.33418   3.57451   6.95752   1.85175   0.00897   1.003E+00   0.000E+00  -3.455E-03
 969  8.86063235   0.703  -1.33417   3.57451   6.95751   1.85174   0.00894   1.003E+00   0.000E+00  -3.450E-03
 970  8.86133742   0.703  -1.33417   3.57451   6.95750   1.85173   0.00892   1.003E+00   0.000E+00  -3.445E-03
 971  8.86204135   0.703  -1.33416   3.57451   6.95749   1.85173   0.00889   1.003E+00   0.000E+00  -3.439E-03
 972  8.86274413   0.703  -1.33415   3.57451   6.95748   1.85172   0.00887   1.003E+00   0.000E+00  -3.434E-03
 973  8.86344578   0.703  -1.33415   3.57451   6.95747   1.85171   0.00884   1.003E+00   0.000E+00  -3.429E-03
 974  8.86414630   0.703  -1.33414   3.57451   6.95746   1.85170   0.00882   1.003E+00   0.000E+00  -3.424E-03
 975  8.86484569   0.703  -1.33413   3.57451   6.95745   1.85170   0.00879   1.003E+00   0.000E+00  -3.418E-03
 976  8.86554396   0.703  -1.33413   3.57451   6.95744   1.85169   0.00877   1.003E+00   0.000E+00  -3.413E-03
 977  8.86624110   0.703  -1.33412   3.57450   6.95743   1.85168   0.00874   1.003E+00   0.000E+00  -3.408E-03
 978  8.86693713   0.703  -1.33411   3.57450   6.95742   1.85167   0.00872   1.003E+00   0.000E+00  -3.403E-03
 979  8.86763205   0.703  -1.33411   3.57450   6.95741   1.85166   0.00869   1.003E+00   0.000E+00  -3.398E-03
 980  8.86832585   0.703  -1.33410   3.57450   6.95740   1.85166   0.00867   1.003E+00   0.000E+00  -3.392E-03
 981  8.86901855   0.703  -1.33409   3.57450   6.95739   1.85165   0.00864   1.003E+00   0.000E+00  -3.387E-03
 982  8.86971014   0.703  -1.33409   3.57450   6.95738   1.85164   0.00862   1.003E+00   0.000E+00  -3.382E-03
 983  8.87040064   0.703  -1.33408   3.57450   6.95737   1.85163   0.00859   1.003E+00   0.000E+00  -3.377E-03
 984  8.87109004   0.703  -1.33407   3.57450   6.95736   1.85163   0.00857   1.003E+00   0.000E+00  -3.371E-03
 985  8.87177834   0.703  -1.33407   3.57450   6.95735   1.85162   0.00854   1.003E+00   0.000E+00  -3.366E-03
 986  8.87246556   0.703  -1.33406   3.57450   6.95734   1.85161   0.00851   1.003E+00   0.000E+00  -3.361E-03
 987  8.87315169   0.703  -1.33405   3.57449   6.95733   1.85160   0.00849   1.003E+00   0.000E+00  -3.356E-03
 988  8.87383674   0.703  -1.33405   3.57449   6.95732   1.85160   0.00846   1.003E+00   0.000E+00  -3.350E-03
 989  8.87452071   0.703  -1.33404   3.57449   6.95731   1.85159   0.00844   1.003E+00   0.000E+00  -3.345E-03
 990  8.87520360   0.703  -1.33403   3.57449   6.95730   1.85158   0.00841   1.003E+00   0.000E+00  -3.340E-03
 991  8.87588543   0.703  -1.33403   3.57449   6.95729   1.85157   0.00839   1.003E+00   0.000E+00  -3.335E-03
 992  8.87656618   0.703  -1.33402   3.57449   6.95728   1.85156   0.00836   1.003E+00   0.000E+00  -3.329E-03
 993  8.87724587   0.703  -1.33401   3.57449   6.95727   1.85156   0.00834   1.003E+00   0.000E+00  -3.324E-03
 994  8.87792449   0.703  -1.33401   3.57449   6.95726   1.85155   0.00831   1.003E+00   0.000E+00  -3.319E-03
 995  8.87860206   0.703  -1.33400   3.57449   6.95725   1.85154   0.00829   1.003E+00   0.000E+00  -3.314E-03
 996  8.87927857   0.703  -1.33399   3.57449   6.95724   1.85153   0.00826   1.003E+00   0.000E+00  -3.308E-03
 997  8.87995403   0.703  -1.33399   3.57448   6.95723   1.85153   0.00824   1.003E+00   0.000E+00  -3.303E-03
 998  8.88062844   0.703  -1.33398   3.57448   6.95722   1.85152   0.00821   1.003E+00   0.000E+00  -3.298E-03
 999  8.88130181   0.703  -1.33397   3.57448   6.95721   1.85151   0.00819   1.003E+00   0.000E+00  -3.293E-03
1000  8.88197413   0.703  -1.33397   3.57448   6.95720   1.85150   0.00816   1.003E+00   0.000E+00  -3.287E-03
1001  8.88264542   0.703  -1.33396   3.57448   6.95719   1.85149   0.00814   1.003E+00   0.000E+00  -3.282E-03
1002  8.88331566   0.703  -1.33395   3.57448   6.95718   1.85149   0.00811   1.003E+00   0.000E+00  -3.277E-03
1003  8.88398488   0.703  -1.33395   3.57448   6.95717   1.85148   0.00809   1.003E+00   0.000E+00  -3.272E-03
1004  8.88465306   0.703  -1.33394   3.57448   6.95716   1.85147   0.00806   1.003E+00   0.000E+00  -3.266E-03
1005  8.88532022   0.703  -1.33393   3.57448   6.95715   1.85146   0.00803   1.003E+00   0.000E+00  -3.261E-03
1006  8.88598636   0.703  -1.33393   3.57448   6.95714   1.85146   0.00801   1.003E+00   0.000E+00  -3.256E-03
1007  8.88665147   0.703  -1.33392   3.57447   6.95713   1.85145   0.00798   1.003E+00   0.000E+00  -3.251E-03
1008  8.88731557   0.703  -1.33391   3.57447   6.95712   1.85144   0.00796   1.003E+00   0.000E+00  -3.245E-03
1009  8.88797865   0.703  -1.33391   3.57447   6.95711   1.85143   0.00793   1.003E+00   0.000E+00  -3.240E-03
1010  8.88864073   0.703  -1.33390   3.57447   6.95710   1.85143   0.00791   1.003E+00   0.000E+00  -3.235E-03
1011  8.88930179   0.703  -1.33389   3.57447   6.95709   1.85142   0.00788   1.003E+00   0.000E+00  -3.230E-03
1012  8.88996185   0.703  -1.33389   3.57447   6.95708   1.85141   0.00786   1.003E+00   0.000E+00  -3.224E-03
1013  8.89062091   0.703  -1.33388   3.57447   6.95707   1.85140   0.00783   1.003E+00   0.000E+00  -3.219E-03
1014  8.89127897   0.703  -1.33387   3.57447   6.95706   1.85139   0.00781   1.003E+00   0.000E+00  -3.214E-03
1015  8.89193604   0.703  -1.33387   3.57447   6.95705   1.85139   0.00778   1.003E+00   0.000E+00  -3.209E-03
1016  8.89259211   0.703  -1.33386   3.57447   6.95704   1.85138   0.00776   1.003E+00   0.000E+00  -3.203E-03
1017  8.89324719   0.703  -1.33385   3.57446   6.95703   1.85137   0.00773   1.003E+00   0.000E+00  -3.198E-03
1018  8.89390129   0.703  -1.33385   3.57446   6.95702   1.85136   0.00771   1.003E+00   0.000E+00  -3.193E-03
1019  8.89455440   0.703  -1.33384   3.57446   6.95701   1.85136   0.00768   1.003E+00   0.000E+00  -3.188E-03
1020  8.89520653   0.703  -1.33383   3.57446   6.95700   1.85135   0.00766   1.003E+00   0.000E+00  -3.182E-03
1021  8.89585769   0.703  -1.33383   3.57446   6.95699   1.85134   0.00763   1.003E+00   0.000E+00  -3.177E-03
1022  8.89650787   0.703  -1.33382   3.57446   6.95698   1.85133   0.00760   1.003E+00   0.000E+00  -3.172E-03
1023  8.89715707   0.703  -1.33381   3.57446   6.95697   1.85133   0.00758   1.003E+00   0.000E+00  -3.167E-03
1024  8.89780531   0.703  -1.33381   3.57446   6.95696   1.85132   0.00755   1.003E+00   0.000E+00  -3.161E-03
1025  8.89845258   0.703  -1.33380   3.57446   6.95695   1.85131   0.00753   1.003E+00   0.000E+00  -3.156E-03
1026  8.89909889   0.703  -1.33379   3.57446   6.95694   1.85130   0.00750   1.003E+00   0.000E+00  -3.151E-03
1027  8.89974424   0.703  -1.33379   3.57445   6.95693   1.85129   0.00748   1.003E+00   0.000E+00  -3.146E-03
1028  8.90038863   0.703  -1.33378   3.57445   6.95692   1.85129   0.00745   1.003E+00   0.000E+00  -3.140E-03
1029  8.90103207   0.703  -1.33377   3.57445   6.95691   1.85128   0.00743   1.003E+00   0.000E+00  -3.135E-03
1030  8.90167455   0.703  -1.33377   3.57445   6.95690   1.85127   0.00740   1.003E+00   0.000E+00  -3.130E-03
1031  8.90231609   0.703  -1.33376   3.57445   6.95689   1.85126   0.00738   1.003E+00   0.000E+00  -3.125E-03
1032  8.90295668   0.703  -1.33375   3.57445   6.95688   1.85126   0.00735   1.003E+00   0.000E+00  -3.119E-03
1033  8.90359632   0.703  -1.33375   3.57445   6.95687   1.85125   0.00733   1.003E+00   0.000E+00  -3.114E-03
1034  8.90423503   0.703  -1.33374   3.57445   6.95686   1.85124   0.00730   1.003E+00   0.000E+00  -3.109E-03
1035  8.90487279   0.703  -1.33373   3.57445   6.95685   1.85123   0.00728   1.003E+00   0.000E+00  -3.104E-03
1036  8.90550963   0.703  -1.33373   3.57445   6.95684   1.85122   0.00725   1.003E+00   0.000E+00  -3.099E-03
1037  8.90614552   0.703  -1.33372   3.57444   6.95683   1.85122   0.00723   1.003E+00   0.000E+00  -3.093E-03
1038  8.90678049   0.702  -1.33371   3.57444   6.95682   1.85121   0.00720   1.003E+00   0.000E+00  -3.088E-03
1039  8.90741454   0.702  -1.33371   3.57444   6.95681   1.85120   0.00717   1.003E+00   0.000E+00  -3.083E-03
1040  8.90804765   0.702  -1.33370   3.57444   6.95680   1.85119   0.00715   1.003E+00   0.000E+00  -3.078E-03
1041  8.90867985   0.702  -1.33369   3.57444   6.95679   1.85119   0.00712   1.003E+00   0.000E+00  -3.072E-03
1042  8.90931113   0.702  -1.33369   3.57444   6.95678   1.85118   0.00710   1.003E+00   0.000E+00  -3.067E-03
1043  8.90994149   0.702  -1.33368   3.57444   6.95677   1.85117   0.00707   1.003E+00   0.000E+00  -3.062E-03
1044  8.91057094   0.702  -1.33367   3.57444   6.95676   1.85116   0.00705   1.003E+00   0.000E+00  -3.057E-03
1045  8.91119947   0.702  -1.33367   3.57444   6.95675   1.85116   0.00702   1.003E+00   0.000E+00  -3.051E-03
1046  8.91182710   0.702  -1.33366   3.57444   6.95674   1.85115   0.00700   1.003E+00   0.000E+00  -3.046E-03
1047  8.91245382   0.702  -1.33365   3.57443   6.95673   1.85114   0.00697   1.003E+00   0.000E+00  -3.041E-03
1048  8.91307964   0.702  -1.33365   3.57443   6.95672   1.85113   0.00695   1.003E+00   0.000E+00  -3.036E-03
1049  8.91370456   0.702  -1.33364   3.57443   6.95671   1.85112   0.00692   1.003E+00   0.000E+00  -3.030E-03
1050  8.91432858   0.702  -1.33363   3.57443   6.95670   1.85112   0.00690   1.003E+00   0.000E+00  -3.025E-03
1051  8.91495171   0.702  -1.33363   3.57443   6.95669   1.85111   0.00687   1.003E+00   0.000E+00  -3.020E-03
1052  8.91557394   0.702  -1.33362   3.57443   6.95668   1.85110   0.00685   1.003E+00   0.000E+00  -3.015E-03
1053  8.91619529   0.702  -1.33361   3.57443   6.95667   1.85109   0.00682   1.003E+00   0.000E+00  -3.009E-03
1054  8.91681574   0.702  -1.33361   3.57443   6.95666   1.85109   0.00680   1.003E+00   0.000E+00  -3.004E-03
1055  8.91743531   0.702  -1.33360   3.57443   6.95665   1.85108   0.00677   1.003E+00   0.000E+00  -2.999E-03
1056  8.91805400   0.702  -1.33359   3.57443   6.95664   1.85107   0.00674   1.003E+00   0.000E+00  -2.994E-03
1057  8.91867180   0.702  -1.33359   3.57442   6.95663   1.85106   0.00672   1.003E+00   0.000E+00  -2.988E-03
1058  8.91928873   0.702  -1.33358   3.57442   6.95662   1.85105   0.00669   1.003E+00   0.000E+00  -2.983E-03
1059  8.91990479   0.702  -1.33357   3.57442   6.95661   1.85105   0.00667   1.003E+00   0.000E+00  -2.978E-03
1060  8.92051997   0.702  -1.33357   3.57442   6.95660   1.85104   0.00664   1.003E+00   0.000E+00  -2.973E-03
1061  8.92113428   0.702  -1.33356   3.57442   6.95659   1.85103   0.00662   1.003E+00   0.000E+00  -2.967E-03
1062  8.92174773   0.702  -1.33355   3.57442   6.95658   1.85102   0.00659   1.003E+00   0.000E+00  -2.962E-03
1063  8.92236030   0.702  -1.33355   3.57442   6.95657   1.85102   0.00657   1.003E+00   0.000E+00  -2.957E-03
1064  8.92297202   0.702  -1.33354   3.57442   6.95656   1.85101   0.00654   1.003E+00   0.000E+00  -2.952E-03
1065  8.92358288   0.702  -1.33353   3.57442   6.95655   1.85100   0.00652   1.003E+00   0.000E+00  -2.946E-03
1066  8.92419287   0.702  -1.33353   3.57442   6.95654   1.85099   0.00649   1.003E+00   0.000E+00  -2.941E-03
1067  8.92480201   0.702  -1.33352   3.57441   6.95653   1.85099   0.00647   1.003E+00   0.000E+00  -2.936E-03
1068  8.92541030   0.702  -1.33351   3.57441   6.95652   1.85098   0.00644   1.003E+00   0.000E+00  -2.931E-03
1069  8.92601774   0.702  -1.33351   3.57441   6.95651   1.85097   0.00642   1.003E+00   0.000E+00  -2.925E-03
1070  8.92662433   0.702  -1.33350   3.57441   6.95650   1.85096   0.00639   1.003E+00   0.000E+00  -2.920E-03
1071  8.92723007   0.702  -1.33349   3.57441   6.95649   1.85095   0.00637   1.003E+00   0.000E+00  -2.915E-03
1072  8.92783497   0.702  -1.33349   3.57441   6.95648   1.85095   0.00634   1.003E+00   0.000E+00  -2.910E-03
1073  8.92843903   0.702  -1.33348   3.57441   6.95647   1.85094   0.00632   1.003E+00   0.000E+00  -2.904E-03
1074  8.92904225   0.702  -1.33347   3.57441   6.95646   1.85093   0.00629   1.003E+00   0.000E+00  -2.899E-03
1075  8.92964463   0.702  -1.33347   3.57441   6.95645   1.85092   0.00626   1.003E+00   0.000E+00  -2.894E-03
1076  8.93024618   0.702  -1.33346   3.57441   6.95644   1.85092   0.00624   1.003E+00   0.000E+00  -2.889E-03
1077  8.93084690   0.702  -1.33345   3.57440   6.95643   1.85091   0.00621   1.003E+00   0.000E+00  -2.883E-03
1078  8.93144678   0.702  -1.33345   3.57440   6.95642   1.85090   0.00619   1.003E+00   0.000E+00  -2.878E-03
1079  8.93204584   0.702  -1.33344   3.57440   6.95641   1.85089   0.00616   1.003E+00   0.000E+00  -2.873E-03
1080  8.93264408   0.702  -1.33343   3.57440   6.95640   1.85088   0.00614   1.003E+00   0.000E+00  -2.868E-03
1081  8.93324149   0.702  -1.33343   3.57440   6.95639   1.85088   0.00611   1.003E+00   0.000E+00  -2.862E-03
1082  8.93383808   0.702  -1.33342   3.57440   6.95638   1.85087   0.00609   1.003E+00   0.000E+00  -2.857E-03
1083  8.93443385   0.702  -1.33341   3.57440   6.95637   1.85086   0.00606   1.003E+00   0.000E+00  -2.852E-03
1084  8.93502880   0.702  -1.33341   3.57440   6.95636   1.85085   0.00604   1.003E+00   0.000E+00  -2.847E-03
1085  8.93562295   0.702  -1.33340   3.57440   6.95635   1.85085   0.00601   1.003E+00   0.000E+00  -2.841E-03
1086  8.93621627   0.702  -1.33339   3.57440   6.95634   1.85084   0.00599   1.003E+00   0.000E+00  -2.836E-03
1087  8.93680880   0.702  -1.33339   3.57439   6.95633   1.85083   0.00596   1.003E+00   0.000E+00  -2.831E-03
1088  8.93740051   0.702  -1.33338   3.57439   6.95632   1.85082   0.00594   1.003E+00   0.000E+00  -2.826E-03
1089  8.93799142   0.702  -1.33337   3.57439   6.95631   1.85082   0.00591   1.003E+00   0.000E+00  -2.820E-03
1090  8.93858152   0.702  -1.33337   3.57439   6.95630   1.85081   0.00589   1.003E+00   0.000E+00  -2.815E-03
1091  8.93917083   0.702  -1.33336   3.57439   6.95629   1.85080   0.00586   1.003E+00   0.000E+00  -2.810E-03
