 # M = 0.65 Mo, Y = 0.2700, Z = 2.00000E-02, alpha = 1.68, X_D = 4.0E-05
 # Solar Mixture: Asplund et al. (2005)         
 # ------------------------------------------------------------------------------------------------------------
 # NMD   LOG AGE    Xc      LOG L     LOG TE    LOG Tc   LOG RHOc    M-CC       L-PP       L-CNO       L-GRA
 #        (yr)              (Lo)        (K)       (K)   (gr/cm^3)    (Mo)        (L)         (L)         (L)
 # ------------------------------------------------------------------------------------------------------------
   1  4.95387681   0.710   0.66812   3.60800   6.07579  -1.13683   0.00000   9.360E-01   0.000E+00   6.380E-02
   2  5.11696927   0.710   0.65978   3.60810   6.08000  -1.12419   0.00000   9.323E-01   0.000E+00   6.799E-02
   3  5.23525973   0.710   0.65230   3.60819   6.08378  -1.11283   0.00000   9.354E-01   0.000E+00   6.486E-02
   4  5.32813138   0.710   0.64527   3.60827   6.08733  -1.10217   0.00000   9.390E-01   0.000E+00   6.119E-02
   5  5.40459937   0.710   0.63907   3.60833   6.09044  -1.09282   0.00000   9.423E-01   0.000E+00   5.764E-02
   6  5.46959768   0.710   0.63287   3.60839   6.09355  -1.08347   0.00000   9.456E-01   0.000E+00   5.408E-02
   7  5.52612251   0.710   0.62737   3.60845   6.09631  -1.07518   0.00000   9.474E-01   0.000E+00   5.243E-02
   8  5.57613051   0.710   0.62196   3.60850   6.09902  -1.06702   0.00000   9.489E-01   0.000E+00   5.100E-02
   9  5.62097021   0.710   0.61655   3.60855   6.10174  -1.05886   0.00000   9.505E-01   0.000E+00   4.957E-02
  10  5.66161052   0.710   0.61123   3.60860   6.10440  -1.05087   0.00000   9.508E-01   0.000E+00   4.932E-02
  11  5.69877111   0.710   0.60597   3.60865   6.10703  -1.04296   0.00000   9.505E-01   0.000E+00   4.964E-02
  12  5.73300115   0.710   0.60071   3.60869   6.10966  -1.03506   0.00000   9.503E-01   0.000E+00   4.997E-02
  13  5.76472925   0.710   0.59545   3.60874   6.11230  -1.02715   0.00000   9.500E-01   0.000E+00   5.029E-02
  14  5.79429638   0.710   0.58987   3.60878   6.11507  -1.01881   0.00000   9.482E-01   0.000E+00   5.194E-02
  15  5.82197823   0.710   0.58429   3.60883   6.11785  -1.01046   0.00000   9.464E-01   0.000E+00   5.362E-02
  16  5.84800087   0.710   0.57871   3.60887   6.12063  -1.00211   0.00000   9.445E-01   0.000E+00   5.530E-02
  17  5.87255200   0.710   0.57300   3.60892   6.12348  -0.99358   0.00000   9.424E-01   0.000E+00   5.728E-02
  18  5.89578919   0.710   0.56664   3.60895   6.12662  -0.98412   0.00000   9.391E-01   0.000E+00   6.069E-02
  19  5.91784594   0.710   0.56029   3.60899   6.12977  -0.97466   0.00000   9.357E-01   0.000E+00   6.409E-02
  20  5.93883643   0.710   0.55393   3.60903   6.13292  -0.96520   0.00000   9.324E-01   0.000E+00   6.750E-02
  21  5.95885899   0.710   0.54685   3.60907   6.13642  -0.95466   0.00000   9.273E-01   0.000E+00   7.262E-02
  22  5.97799898   0.710   0.53926   3.60911   6.14018  -0.94337   0.00000   9.209E-01   0.000E+00   7.894E-02
  23  5.99633093   0.710   0.53167   3.60916   6.14395  -0.93207   0.00000   9.146E-01   0.000E+00   8.526E-02
  24  6.01392032   0.710   0.52326   3.60920   6.14810  -0.91961   0.00000   9.060E-01   0.000E+00   9.385E-02
  25  6.03082495   0.710   0.51381   3.60923   6.15274  -0.90566   0.00000   8.946E-01   0.000E+00   1.053E-01
  26  6.04709616   0.710   0.50436   3.60926   6.15738  -0.89171   0.00000   8.832E-01   0.000E+00   1.168E-01
  27  6.06277971   0.710   0.49283   3.60928   6.16300  -0.87484   0.00000   8.642E-01   0.000E+00   1.358E-01
  28  6.07791657   0.710   0.48080   3.60929   6.16885  -0.85727   0.00000   8.434E-01   0.000E+00   1.566E-01
  29  6.09254357   0.710   0.46656   3.60929   6.17577  -0.83649   0.00000   8.113E-01   0.000E+00   1.887E-01
  30  6.10669395   0.710   0.45123   3.60930   6.18322  -0.81412   0.00000   7.734E-01   0.000E+00   2.266E-01
  31  6.12039778   0.710   0.43221   3.60927   6.19241  -0.78650   0.00000   7.124E-01   0.000E+00   2.876E-01
  32  6.13368239   0.710   0.41028   3.60919   6.20291  -0.75496   0.00000   6.305E-01   0.000E+00   3.695E-01
  33  6.14657267   0.710   0.38470   3.60905   6.21507  -0.71841   0.00000   5.205E-01   0.000E+00   4.795E-01
  34  6.15909136   0.710   0.35515   3.60881   6.22905  -0.67649   0.00000   3.846E-01   0.000E+00   6.154E-01
  35  6.17125928   0.710   0.32218   3.60847   6.24444  -0.63030   0.00000   2.446E-01   0.000E+00   7.554E-01
  36  6.18309555   0.710   0.28792   3.60801   6.26032  -0.58271   0.00000   1.326E-01   0.000E+00   8.674E-01
  37  6.19461778   0.710   0.25421   3.60747   6.27577  -0.53639   0.00000   6.153E-02   0.000E+00   9.385E-01
  38  6.20584220   0.710   0.22249   3.60685   6.29001  -0.49357   0.00000   3.095E-02   0.000E+00   9.690E-01
  39  6.21678381   0.710   0.19298   3.60621   6.30317  -0.45407   0.00000   1.470E-02   0.000E+00   9.853E-01
  40  6.22745653   0.710   0.16566   3.60555   6.31520  -0.41788   0.00000   7.376E-03   0.000E+00   9.926E-01
  41  6.23787323   0.710   0.14021   3.60489   6.32634  -0.38440   0.00000   3.000E-03   0.000E+00   9.970E-01
  42  6.26331892   0.710   0.08313   3.60321   6.35096  -0.31042   0.00000   0.000E+00   0.000E+00   1.000E+00
  43  6.28735588   0.710   0.03473   3.60166   6.37159  -0.24839   0.00000   0.000E+00   0.000E+00   1.000E+00
  44  6.31013195   0.710  -0.00744   3.60024   6.38944  -0.19475   0.00000   0.000E+00   0.000E+00   1.000E+00
  45  6.33177284   0.710  -0.04454   3.59895   6.40507  -0.14774   0.00000   0.000E+00   0.000E+00   1.000E+00
  46  6.35238636   0.710  -0.07763   3.59778   6.41899  -0.10590   0.00000   0.000E+00   0.000E+00   1.000E+00
  47  6.37206564   0.710  -0.10757   3.59672   6.43160  -0.06802   0.00000   0.000E+00   0.000E+00   1.000E+00
  48  6.39089172   0.710  -0.13476   3.59575   6.44301  -0.03368   0.00000   0.000E+00   0.000E+00   1.000E+00
  49  6.40893550   0.710  -0.15985   3.59486   6.45356  -0.00194   0.00000   0.000E+00   0.000E+00   1.000E+00
  50  6.42625942   0.710  -0.18290   3.59405   6.46326   0.02723   0.00000   0.000E+00   0.000E+00   1.000E+00
  51  6.44291872   0.710  -0.20431   3.59329   6.47227   0.05432   0.00000   0.000E+00   0.000E+00   1.000E+00
  52  6.45896251   0.710  -0.22432   3.59258   6.48070   0.07968   0.00000   0.000E+00   0.000E+00   1.000E+00
  53  6.47443467   0.710  -0.24311   3.59192   6.48861   0.10349   0.00000   0.000E+00   0.000E+00   1.000E+00
  54  6.48937453   0.710  -0.26079   3.59129   6.49607   0.12595   0.00000   0.000E+00   0.000E+00   1.000E+00
  55  6.50381749   0.710  -0.27751   3.59071   6.50314   0.14720   0.00000   0.000E+00   0.000E+00   1.000E+00
  56  6.51779556   0.710  -0.29341   3.59016   6.50985   0.16741   0.00000   0.000E+00   0.000E+00   1.000E+00
  57  6.53133773   0.710  -0.30835   3.58964   6.51617   0.18644   0.00000   0.000E+00   0.000E+00   1.000E+00
  58  6.54447037   0.710  -0.32261   3.58915   6.52220   0.20458   0.00000   0.000E+00   0.000E+00   1.000E+00
  59  6.55721751   0.710  -0.33628   3.58868   6.52799   0.22200   0.00000   0.000E+00   0.000E+00   1.000E+00
  60  6.56960115   0.710  -0.34944   3.58823   6.53357   0.23879   0.00000   0.000E+00   0.000E+00   1.000E+00
  61  6.58164145   0.710  -0.36184   3.58780   6.53882   0.25461   0.00000   0.000E+00   0.000E+00   1.000E+00
  62  6.59335693   0.710  -0.37384   3.58740   6.54392   0.26995   0.00000   0.000E+00   0.000E+00   1.000E+00
  63  6.60476466   0.710  -0.38544   3.58701   6.54887   0.28482   0.00000   0.000E+00   0.000E+00   1.000E+00
  64  6.61588039   0.710  -0.39644   3.58664   6.55354   0.29891   0.00000   0.000E+00   0.000E+00   1.000E+00
  65  6.62671870   0.710  -0.40726   3.58628   6.55814   0.31275   0.00000   0.000E+00   0.000E+00   1.000E+00
  66  6.63729310   0.710  -0.41748   3.58595   6.56251   0.32591   0.00000   0.000E+00   0.000E+00   1.000E+00
  67  6.64761614   0.710  -0.42751   3.58562   6.56679   0.33879   0.00000   0.000E+00   0.000E+00   1.000E+00
  68  6.65769949   0.710  -0.43714   3.58530   6.57089   0.35116   0.00000   0.000E+00   0.000E+00   1.000E+00
  69  6.66755403   0.710  -0.44653   3.58499   6.57490   0.36324   0.00000   0.000E+00   0.000E+00   1.000E+00
  70  6.67718992   0.710  -0.45554   3.58470   6.57876   0.37486   0.00000   0.000E+00   0.000E+00   1.000E+00
  71  6.68661664   0.710  -0.46438   3.58442   6.58255   0.38627   0.00000   0.000E+00   0.000E+00   1.000E+00
  72  6.69584308   0.710  -0.47283   3.58415   6.58618   0.39720   0.00000   0.000E+00   0.000E+00   1.000E+00
  73  6.70487759   0.710  -0.48124   3.58389   6.58979   0.40807   0.00000   0.000E+00   0.000E+00   1.000E+00
  74  6.71372797   0.710  -0.48917   3.58364   6.59320   0.41835   0.00000   0.000E+00   0.000E+00   1.000E+00
  75  6.72240159   0.710  -0.49709   3.58340   6.59661   0.42862   0.00000   0.000E+00   0.000E+00   1.000E+00
  76  6.73090537   0.710  -0.50467   3.58316   6.59987   0.43845   0.00000   0.000E+00   0.000E+00   1.000E+00
  77  6.73924583   0.710  -0.51211   3.58293   6.60308   0.44810   0.00000   0.000E+00   0.000E+00   1.000E+00
  78  6.74742914   0.710  -0.51945   3.58271   6.60624   0.45764   0.00000   0.000E+00   0.000E+00   1.000E+00
  79  6.75546109   0.710  -0.52642   3.58250   6.60926   0.46673   0.00000   0.000E+00   0.000E+00   1.000E+00
  80  6.76334719   0.710  -0.53340   3.58228   6.61227   0.47581   0.00000   0.000E+00   0.000E+00   1.000E+00
  81  6.77109264   0.710  -0.54015   3.58208   6.61517   0.48465   0.00000   0.000E+00   0.000E+00   1.000E+00
  82  6.77870237   0.710  -0.54670   3.58189   6.61794   0.49325   0.00000   0.000E+00   0.000E+00   1.000E+00
  83  6.78618106   0.710  -0.55324   3.58169   6.62071   0.50186   0.00000   0.000E+00   0.000E+00   1.000E+00
  84  6.79353314   0.710  -0.55952   3.58150   6.62333   0.51018   0.00000   0.000E+00   0.000E+00   1.000E+00
  85  6.80076282   0.710  -0.56566   3.58132   6.62586   0.51835   0.00000   0.000E+00   0.000E+00   1.000E+00
  86  6.80787413   0.710  -0.57179   3.58114   6.62839   0.52652   0.00000   0.000E+00   0.000E+00   1.000E+00
  87  6.81487086   0.710  -0.57770   3.58097   6.63080   0.53445   0.00000   0.000E+00   0.000E+00   1.000E+00
  88  6.82175665   0.710  -0.58345   3.58081   6.63313   0.54221   0.00000   0.000E+00   0.000E+00   1.000E+00
  89  6.82853498   0.710  -0.58919   3.58064   6.63545   0.54997   0.00000   0.000E+00   0.000E+00   1.000E+00
  90  6.83520913   0.710  -0.59482   3.58048   6.63771   0.55761   0.00000   0.000E+00   0.000E+00   1.000E+00
  91  6.84178226   0.710  -0.60021   3.58033   6.63984   0.56499   0.00000   0.000E+00   0.000E+00   1.000E+00
  92  6.84825740   0.710  -0.60559   3.58018   6.64197   0.57237   0.00000   0.000E+00   0.000E+00   1.000E+00
  93  6.85463740   0.710  -0.61098   3.58002   6.64410   0.57975   0.00000   0.000E+00   0.000E+00   1.000E+00
  94  6.86092504   0.710  -0.61607   3.57988   6.64609   0.58682   0.00000   0.000E+00   0.000E+00   1.000E+00
  95  6.86712294   0.710  -0.62111   3.57974   6.64804   0.59384   0.00000   0.000E+00   0.000E+00   1.000E+00
  96  6.87323364   0.710  -0.62615   3.57960   6.65000   0.60085   0.00000   0.000E+00   0.000E+00   1.000E+00
  97  6.87925954   0.710  -0.63115   3.57946   6.65194   0.60782   0.00000   0.000E+00   0.000E+00   1.000E+00
  98  6.88520298   0.710  -0.63586   3.57933   6.65374   0.61449   0.00000   0.000E+00   0.000E+00   1.000E+00
  99  6.89106618   0.710  -0.64058   3.57921   6.65555   0.62116   0.00000   0.000E+00   0.000E+00   1.000E+00
 100  6.89685127   0.710  -0.64530   3.57908   6.65735   0.62783   0.00000   0.000E+00   0.000E+00   1.000E+00
 101  6.90256032   0.710  -0.64996   3.57895   6.65913   0.63444   0.00000   0.000E+00   0.000E+00   1.000E+00
 102  6.90819529   0.710  -0.65437   3.57884   6.66079   0.64079   0.00000   0.000E+00   0.000E+00   1.000E+00
 103  6.91375808   0.710  -0.65878   3.57872   6.66245   0.64713   0.00000   0.000E+00   0.000E+00   1.000E+00
 104  6.91925052   0.710  -0.66318   3.57860   6.66411   0.65348   0.00000   0.000E+00   0.000E+00   1.000E+00
 105  6.92467436   0.710  -0.66759   3.57849   6.66577   0.65982   0.00000   0.000E+00   0.000E+00   1.000E+00
 106  6.93003130   0.710  -0.67173   3.57838   6.66732   0.66588   0.00000   0.000E+00   0.000E+00   1.000E+00
 107  6.93532297   0.710  -0.67584   3.57828   6.66885   0.67191   0.00000   0.000E+00   0.000E+00   1.000E+00
 108  6.94055094   0.710  -0.67996   3.57817   6.67038   0.67794   0.00000   0.000E+00   0.000E+00   1.000E+00
 109  6.94571672   0.710  -0.68408   3.57807   6.67192   0.68397   0.00000   0.000E+00   0.000E+00   1.000E+00
 110  6.95082178   0.710  -0.68809   3.57796   6.67341   0.68989   0.00000   0.000E+00   0.000E+00   1.000E+00
 111  6.95586753   0.710  -0.69193   3.57787   6.67482   0.69563   0.00000   0.000E+00   0.000E+00   1.000E+00
 112  6.96085532   0.710  -0.69578   3.57777   6.67624   0.70136   0.00000   0.000E+00   0.000E+00   1.000E+00
 113  6.96578648   0.710  -0.69962   3.57767   6.67765   0.70710   0.00000   0.000E+00   0.000E+00   1.000E+00
 114  6.97066228   0.710  -0.70346   3.57758   6.67907   0.71284   0.00000   0.000E+00   0.000E+00   1.000E+00
 115  6.97548395   0.710  -0.70717   3.57748   6.68043   0.71843   0.00000   0.000E+00   0.000E+00   1.000E+00
 116  6.98025267   0.710  -0.71074   3.57740   6.68174   0.72389   0.00000   0.000E+00   0.000E+00   1.000E+00
 117  6.98496960   0.710  -0.71432   3.57731   6.68304   0.72935   0.00000   0.000E+00   0.000E+00   1.000E+00
 118  6.98963584   0.710  -0.71790   3.57723   6.68435   0.73480   0.00000   0.000E+00   0.000E+00   1.000E+00
 119  6.99425248   0.710  -0.72148   3.57714   6.68565   0.74026   0.00000   0.000E+00   0.000E+00   1.000E+00
 120  6.99882057   0.710  -0.72497   3.57706   6.68693   0.74564   0.00000   5.769E-05   0.000E+00   9.999E-01
 121  7.00334110   0.710  -0.72830   3.57698   6.68814   0.75083   0.00000   2.365E-04   0.000E+00   9.998E-01
 122  7.00781506   0.710  -0.73163   3.57690   6.68935   0.75602   0.00000   4.154E-04   0.000E+00   9.996E-01
 123  7.01224341   0.710  -0.73496   3.57682   6.69056   0.76122   0.00000   5.943E-04   0.000E+00   9.994E-01
 124  7.01662705   0.710  -0.73830   3.57675   6.69177   0.76641   0.00000   7.731E-04   0.000E+00   9.992E-01
 125  7.02096689   0.710  -0.74163   3.57667   6.69298   0.77160   0.00000   9.520E-04   0.000E+00   9.990E-01
 126  7.02526379   0.710  -0.74478   3.57660   6.69413   0.77661   0.00000   1.000E-03   0.000E+00   9.990E-01
 127  7.02951859   0.710  -0.74788   3.57653   6.69526   0.78155   0.00000   1.000E-03   0.000E+00   9.990E-01
 128  7.03373212   0.710  -0.75097   3.57646   6.69638   0.78650   0.00000   1.000E-03   0.000E+00   9.990E-01
 129  7.03790515   0.710  -0.75407   3.57640   6.69750   0.79144   0.00000   1.000E-03   0.000E+00   9.990E-01
 130  7.04203847   0.710  -0.75716   3.57633   6.69863   0.79638   0.00000   1.000E-03   0.000E+00   9.990E-01
 131  7.04613283   0.710  -0.76025   3.57626   6.69975   0.80132   0.00000   1.000E-03   0.000E+00   9.990E-01
 132  7.05018894   0.710  -0.76318   3.57620   6.70082   0.80609   0.00000   1.000E-03   0.000E+00   9.990E-01
 133  7.05420752   0.710  -0.76605   3.57614   6.70186   0.81079   0.00000   1.000E-03   0.000E+00   9.990E-01
 134  7.05818925   0.710  -0.76892   3.57608   6.70291   0.81549   0.00000   1.000E-03   0.000E+00   9.990E-01
 135  7.06213482   0.710  -0.77179   3.57602   6.70395   0.82019   0.00000   1.000E-03   0.000E+00   9.990E-01
 136  7.06604486   0.710  -0.77466   3.57595   6.70500   0.82490   0.00000   1.000E-03   0.000E+00   9.990E-01
 137  7.06992001   0.710  -0.77753   3.57589   6.70604   0.82960   0.00000   1.000E-03   0.000E+00   9.990E-01
 138  7.07376089   0.710  -0.78034   3.57584   6.70707   0.83424   0.00000   1.000E-03   0.000E+00   9.990E-01
 139  7.07756809   0.710  -0.78300   3.57579   6.70804   0.83871   0.00000   1.000E-03   0.000E+00   9.990E-01
 140  7.08134221   0.710  -0.78565   3.57574   6.70901   0.84318   0.00000   1.000E-03   0.000E+00   9.990E-01
 141  7.08508382   0.710  -0.78831   3.57569   6.70999   0.84765   0.00000   1.000E-03   0.000E+00   9.990E-01
 142  7.08879347   0.710  -0.79096   3.57564   6.71096   0.85212   0.00000   1.000E-03   0.000E+00   9.990E-01
 143  7.09247169   0.710  -0.79362   3.57559   6.71194   0.85659   0.00000   1.000E-03   0.000E+00   9.990E-01
 144  7.09611903   0.710  -0.79627   3.57554   6.71291   0.86106   0.00000   1.000E-03   0.000E+00   9.990E-01
 145  7.09973599   0.710  -0.79887   3.57549   6.71387   0.86546   0.00000   1.000E-03   0.000E+00   9.990E-01
 146  7.10332308   0.710  -0.80132   3.57544   6.71478   0.86972   0.00000   1.000E-03   0.000E+00   9.990E-01
 147  7.10688078   0.710  -0.80377   3.57540   6.71568   0.87397   0.00000   1.000E-03   0.000E+00   9.990E-01
 148  7.11040957   0.710  -0.80623   3.57536   6.71659   0.87822   0.00000   1.000E-03   0.000E+00   9.990E-01
 149  7.11390992   0.710  -0.80868   3.57531   6.71750   0.88247   0.00000   1.000E-03   0.000E+00   9.990E-01
 150  7.11738228   0.710  -0.81113   3.57527   6.71841   0.88672   0.00000   1.000E-03   0.000E+00   9.990E-01
 151  7.12082710   0.710  -0.81359   3.57522   6.71932   0.89097   0.00000   1.000E-03   0.000E+00   9.990E-01
 152  7.12424481   0.710  -0.81604   3.57518   6.72023   0.89522   0.00000   1.000E-03   0.000E+00   9.990E-01
 153  7.12763584   0.710  -0.81834   3.57514   6.72109   0.89931   0.00000   1.094E-03   0.000E+00   9.989E-01
 154  7.13100059   0.710  -0.82060   3.57511   6.72194   0.90335   0.00000   1.219E-03   0.000E+00   9.988E-01
 155  7.13433947   0.710  -0.82286   3.57507   6.72279   0.90739   0.00000   1.343E-03   0.000E+00   9.987E-01
 156  7.13765288   0.710  -0.82511   3.57504   6.72364   0.91143   0.00000   1.468E-03   0.000E+00   9.985E-01
 157  7.14094121   0.710  -0.82737   3.57500   6.72448   0.91546   0.00000   1.592E-03   0.000E+00   9.984E-01
 158  7.14420482   0.710  -0.82963   3.57497   6.72533   0.91950   0.00000   1.717E-03   0.000E+00   9.983E-01
 159  7.14744409   0.710  -0.83188   3.57493   6.72618   0.92354   0.00000   1.841E-03   0.000E+00   9.982E-01
 160  7.15065937   0.710  -0.83414   3.57490   6.72703   0.92758   0.00000   1.966E-03   0.000E+00   9.980E-01
 161  7.15385103   0.710  -0.83626   3.57487   6.72783   0.93147   0.00000   2.000E-03   0.000E+00   9.980E-01
 162  7.15701940   0.710  -0.83834   3.57484   6.72863   0.93531   0.00000   2.000E-03   0.000E+00   9.980E-01
 163  7.16016483   0.710  -0.84042   3.57481   6.72942   0.93915   0.00000   2.000E-03   0.000E+00   9.980E-01
 164  7.16328764   0.710  -0.84249   3.57478   6.73021   0.94298   0.00000   2.000E-03   0.000E+00   9.980E-01
 165  7.16638815   0.710  -0.84457   3.57475   6.73101   0.94682   0.00000   2.000E-03   0.000E+00   9.980E-01
 166  7.16946669   0.710  -0.84665   3.57472   6.73180   0.95066   0.00000   2.000E-03   0.000E+00   9.980E-01
 167  7.17252355   0.710  -0.84872   3.57469   6.73259   0.95449   0.00000   2.000E-03   0.000E+00   9.980E-01
 168  7.17555905   0.710  -0.85080   3.57466   6.73338   0.95833   0.00000   2.000E-03   0.000E+00   9.980E-01
 169  7.17857348   0.710  -0.85283   3.57463   6.73416   0.96212   0.00000   2.028E-03   0.000E+00   9.980E-01
 170  7.18156713   0.710  -0.85473   3.57461   6.73491   0.96578   0.00000   2.139E-03   0.000E+00   9.979E-01
 171  7.18454029   0.710  -0.85663   3.57459   6.73565   0.96943   0.00000   2.251E-03   0.000E+00   9.977E-01
 172  7.18749323   0.710  -0.85853   3.57457   6.73639   0.97308   0.00000   2.363E-03   0.000E+00   9.976E-01
 173  7.19042623   0.710  -0.86043   3.57455   6.73713   0.97673   0.00000   2.475E-03   0.000E+00   9.975E-01
 174  7.19333956   0.710  -0.86233   3.57453   6.73787   0.98038   0.00000   2.587E-03   0.000E+00   9.974E-01
 175  7.19623347   0.710  -0.86423   3.57451   6.73862   0.98404   0.00000   2.698E-03   0.000E+00   9.973E-01
 176  7.19910822   0.710  -0.86613   3.57449   6.73936   0.98769   0.00000   2.810E-03   0.000E+00   9.972E-01
 177  7.20196407   0.710  -0.86803   3.57446   6.74010   0.99134   0.00000   2.922E-03   0.000E+00   9.971E-01
 178  7.20480127   0.710  -0.86989   3.57445   6.74083   0.99494   0.00000   3.000E-03   0.000E+00   9.970E-01
 179  7.20762004   0.710  -0.87163   3.57443   6.74153   0.99842   0.00000   3.000E-03   0.000E+00   9.970E-01
 180  7.21042065   0.710  -0.87337   3.57442   6.74223   1.00189   0.00000   3.000E-03   0.000E+00   9.970E-01
 181  7.21320330   0.710  -0.87511   3.57441   6.74293   1.00537   0.00000   3.000E-03   0.000E+00   9.970E-01
 182  7.21596824   0.710  -0.87685   3.57440   6.74363   1.00885   0.00000   3.000E-03   0.000E+00   9.970E-01
 183  7.21871569   0.710  -0.87859   3.57438   6.74433   1.01233   0.00000   3.000E-03   0.000E+00   9.970E-01
 184  7.22144587   0.710  -0.88033   3.57437   6.74503   1.01580   0.00000   3.000E-03   0.000E+00   9.970E-01
 185  7.22415899   0.710  -0.88207   3.57436   6.74573   1.01928   0.00000   3.000E-03   0.000E+00   9.970E-01
 186  7.22685527   0.710  -0.88381   3.57434   6.74643   1.02276   0.00000   3.000E-03   0.000E+00   9.970E-01
 187  7.22953491   0.710  -0.88555   3.57433   6.74713   1.02624   0.00000   3.000E-03   0.000E+00   9.970E-01
 188  7.23219812   0.710  -0.88716   3.57432   6.74779   1.02957   0.00000   3.089E-03   0.000E+00   9.969E-01
 189  7.23484510   0.710  -0.88875   3.57431   6.74845   1.03289   0.00000   3.190E-03   0.000E+00   9.968E-01
 190  7.23747604   0.710  -0.89034   3.57431   6.74911   1.03620   0.00000   3.290E-03   0.000E+00   9.967E-01
 191  7.24009114   0.710  -0.89194   3.57430   6.74977   1.03952   0.00000   3.391E-03   0.000E+00   9.966E-01
 192  7.24269059   0.710  -0.89353   3.57429   6.75043   1.04283   0.00000   3.492E-03   0.000E+00   9.965E-01
 193  7.24527457   0.710  -0.89512   3.57428   6.75109   1.04615   0.00000   3.593E-03   0.000E+00   9.964E-01
 194  7.24784326   0.710  -0.89671   3.57427   6.75175   1.04947   0.00000   3.694E-03   0.000E+00   9.963E-01
 195  7.25039686   0.710  -0.89830   3.57427   6.75241   1.05278   0.00000   3.795E-03   0.000E+00   9.962E-01
 196  7.25293552   0.710  -0.89990   3.57426   6.75307   1.05610   0.00000   3.896E-03   0.000E+00   9.961E-01
 197  7.25545944   0.710  -0.90149   3.57425   6.75373   1.05941   0.00000   3.997E-03   0.000E+00   9.960E-01
 198  7.25796877   0.710  -0.90294   3.57425   6.75435   1.06258   0.00000   4.093E-03   0.000E+00   9.959E-01
 199  7.26046368   0.710  -0.90439   3.57425   6.75498   1.06575   0.00000   4.189E-03   0.000E+00   9.958E-01
 200  7.26294434   0.710  -0.90584   3.57425   6.75561   1.06891   0.00000   4.285E-03   0.000E+00   9.957E-01
 201  7.26541092   0.710  -0.90729   3.57425   6.75623   1.07207   0.00000   4.381E-03   0.000E+00   9.956E-01
 202  7.26786356   0.710  -0.90874   3.57425   6.75686   1.07524   0.00000   4.477E-03   0.000E+00   9.955E-01
 203  7.27030243   0.710  -0.91019   3.57425   6.75748   1.07840   0.00000   4.573E-03   0.000E+00   9.954E-01
 204  7.27272769   0.710  -0.91164   3.57425   6.75811   1.08157   0.00000   4.669E-03   0.000E+00   9.953E-01
 205  7.27513947   0.710  -0.91309   3.57425   6.75873   1.08473   0.00000   4.765E-03   0.000E+00   9.952E-01
 206  7.27753793   0.710  -0.91454   3.57425   6.75936   1.08790   0.00000   4.861E-03   0.000E+00   9.951E-01
 207  7.27992322   0.710  -0.91599   3.57425   6.75998   1.09106   0.00000   4.958E-03   0.000E+00   9.950E-01
 208  7.28229548   0.710  -0.91737   3.57425   6.76059   1.09415   0.00000   5.051E-03   0.000E+00   9.949E-01
 209  7.28465486   0.710  -0.91869   3.57426   6.76119   1.09717   0.00000   5.143E-03   0.000E+00   9.949E-01
 210  7.28700148   0.710  -0.92001   3.57426   6.76178   1.10020   0.00000   5.234E-03   0.000E+00   9.948E-01
 211  7.28933550   0.710  -0.92132   3.57427   6.76238   1.10322   0.00000   5.326E-03   0.000E+00   9.947E-01
 212  7.29165703   0.710  -0.92264   3.57427   6.76297   1.10625   0.00000   5.418E-03   0.000E+00   9.946E-01
 213  7.29396623   0.710  -0.92396   3.57428   6.76357   1.10927   0.00000   5.509E-03   0.000E+00   9.945E-01
 214  7.29626321   0.710  -0.92528   3.57428   6.76417   1.11230   0.00000   5.601E-03   0.000E+00   9.944E-01
 215  7.29854810   0.710  -0.92660   3.57428   6.76476   1.11532   0.00000   5.693E-03   0.000E+00   9.943E-01
 216  7.30082104   0.710  -0.92792   3.57429   6.76536   1.11834   0.00000   5.784E-03   0.000E+00   9.942E-01
 217  7.30308214   0.710  -0.92924   3.57429   6.76595   1.12137   0.00000   5.876E-03   0.000E+00   9.941E-01
 218  7.30533154   0.710  -0.93056   3.57430   6.76655   1.12439   0.00000   5.967E-03   0.000E+00   9.940E-01
 219  7.30756934   0.710  -0.93180   3.57431   6.76713   1.12733   0.00000   6.113E-03   0.000E+00   9.939E-01
 220  7.30979567   0.710  -0.93300   3.57432   6.76769   1.13022   0.00000   6.288E-03   0.000E+00   9.937E-01
 221  7.31201064   0.710  -0.93419   3.57433   6.76826   1.13311   0.00000   6.463E-03   0.000E+00   9.935E-01
 222  7.31421438   0.710  -0.93539   3.57434   6.76883   1.13601   0.00000   6.638E-03   0.000E+00   9.934E-01
 223  7.31640699   0.710  -0.93659   3.57436   6.76940   1.13890   0.00000   6.813E-03   0.000E+00   9.932E-01
 224  7.31858858   0.710  -0.93778   3.57437   6.76997   1.14179   0.00000   6.988E-03   0.000E+00   9.930E-01
 225  7.32075927   0.710  -0.93898   3.57438   6.77053   1.14468   0.00000   7.163E-03   0.000E+00   9.928E-01
 226  7.32291917   0.710  -0.94017   3.57439   6.77110   1.14757   0.00000   7.338E-03   0.000E+00   9.927E-01
 227  7.32506838   0.710  -0.94137   3.57441   6.77167   1.15046   0.00000   7.513E-03   0.000E+00   9.925E-01
 228  7.32720700   0.710  -0.94257   3.57442   6.77224   1.15335   0.00000   7.688E-03   0.000E+00   9.923E-01
 229  7.32933514   0.710  -0.94376   3.57443   6.77281   1.15625   0.00000   7.863E-03   0.000E+00   9.921E-01
 230  7.33145291   0.710  -0.94493   3.57444   6.77337   1.15911   0.00000   8.018E-03   0.000E+00   9.920E-01
 231  7.33356040   0.710  -0.94602   3.57446   6.77391   1.16188   0.00000   8.102E-03   0.000E+00   9.919E-01
 232  7.33565771   0.710  -0.94710   3.57448   6.77446   1.16465   0.00000   8.186E-03   0.000E+00   9.918E-01
 233  7.33774494   0.710  -0.94818   3.57449   6.77500   1.16742   0.00000   8.269E-03   0.000E+00   9.917E-01
 234  7.33982219   0.710  -0.94926   3.57451   6.77555   1.17019   0.00000   8.353E-03   0.000E+00   9.916E-01
 235  7.34188955   0.710  -0.95034   3.57453   6.77609   1.17296   0.00000   8.437E-03   0.000E+00   9.916E-01
 236  7.34394712   0.710  -0.95142   3.57454   6.77664   1.17572   0.00000   8.520E-03   0.000E+00   9.915E-01
 237  7.34599498   0.710  -0.95250   3.57456   6.77718   1.17849   0.00000   8.604E-03   0.000E+00   9.914E-01
 238  7.34803323   0.710  -0.95358   3.57458   6.77773   1.18126   0.00000   8.688E-03   0.000E+00   9.913E-01
 239  7.35006196   0.710  -0.95466   3.57459   6.77827   1.18403   0.00000   8.771E-03   0.000E+00   9.912E-01
 240  7.35208126   0.710  -0.95574   3.57461   6.77882   1.18680   0.00000   8.855E-03   0.000E+00   9.911E-01
 241  7.35409121   0.710  -0.95682   3.57463   6.77936   1.18957   0.00000   8.939E-03   0.000E+00   9.911E-01
 242  7.35609191   0.710  -0.95787   3.57465   6.77990   1.19231   0.00000   9.043E-03   0.000E+00   9.910E-01
 243  7.35808342   0.710  -0.95884   3.57467   6.78042   1.19496   0.00000   9.204E-03   0.000E+00   9.908E-01
 244  7.36006585   0.710  -0.95982   3.57469   6.78095   1.19761   0.00000   9.364E-03   0.000E+00   9.906E-01
 245  7.36203927   0.710  -0.96079   3.57472   6.78147   1.20026   0.00000   9.524E-03   0.000E+00   9.905E-01
 246  7.36400377   0.710  -0.96176   3.57474   6.78200   1.20291   0.00000   9.685E-03   0.000E+00   9.903E-01
 247  7.36595941   0.710  -0.96273   3.57476   6.78252   1.20556   0.00000   9.845E-03   0.000E+00   9.902E-01
 248  7.36790629   0.710  -0.96370   3.57479   6.78304   1.20822   0.00000   1.001E-02   0.000E+00   9.900E-01
 249  7.36984448   0.710  -0.96467   3.57481   6.78357   1.21087   0.00000   1.017E-02   0.000E+00   9.898E-01
 250  7.37177406   0.710  -0.96564   3.57483   6.78409   1.21352   0.00000   1.033E-02   0.000E+00   9.897E-01
 251  7.37369511   0.710  -0.96662   3.57486   6.78461   1.21617   0.00000   1.049E-02   0.000E+00   9.895E-01
 252  7.37560769   0.710  -0.96759   3.57488   6.78514   1.21882   0.00000   1.065E-02   0.000E+00   9.894E-01
 253  7.37751189   0.710  -0.96856   3.57490   6.78566   1.22148   0.00000   1.081E-02   0.000E+00   9.892E-01
 254  7.37940778   0.710  -0.96953   3.57493   6.78618   1.22413   0.00000   1.097E-02   0.000E+00   9.890E-01
 255  7.38129542   0.710  -0.97042   3.57495   6.78669   1.22669   0.00000   1.118E-02   0.000E+00   9.888E-01
 256  7.38317490   0.710  -0.97129   3.57498   6.78720   1.22924   0.00000   1.141E-02   0.000E+00   9.886E-01
 257  7.38504628   0.710  -0.97216   3.57501   6.78770   1.23178   0.00000   1.164E-02   0.000E+00   9.884E-01
 258  7.38690963   0.710  -0.97303   3.57504   6.78820   1.23433   0.00000   1.188E-02   0.000E+00   9.881E-01
 259  7.38876502   0.710  -0.97390   3.57507   6.78871   1.23687   0.00000   1.211E-02   0.000E+00   9.879E-01
 260  7.39061251   0.710  -0.97476   3.57509   6.78921   1.23942   0.00000   1.234E-02   0.000E+00   9.877E-01
 261  7.39245218   0.710  -0.97563   3.57512   6.78972   1.24196   0.00000   1.257E-02   0.000E+00   9.874E-01
 262  7.39428409   0.710  -0.97650   3.57515   6.79022   1.24451   0.00000   1.280E-02   0.000E+00   9.872E-01
 263  7.39610830   0.710  -0.97737   3.57518   6.79073   1.24705   0.00000   1.303E-02   0.000E+00   9.870E-01
 264  7.39792489   0.710  -0.97824   3.57521   6.79123   1.24960   0.00000   1.326E-02   0.000E+00   9.867E-01
 265  7.39973391   0.710  -0.97911   3.57524   6.79173   1.25214   0.00000   1.349E-02   0.000E+00   9.865E-01
 266  7.40153542   0.710  -0.97998   3.57527   6.79224   1.25469   0.00000   1.372E-02   0.000E+00   9.863E-01
 267  7.40332949   0.710  -0.98085   3.57529   6.79274   1.25723   0.00000   1.395E-02   0.000E+00   9.860E-01
 268  7.40511618   0.710  -0.98164   3.57533   6.79323   1.25970   0.00000   1.417E-02   0.000E+00   9.858E-01
 269  7.40689555   0.710  -0.98241   3.57536   6.79372   1.26214   0.00000   1.440E-02   0.000E+00   9.856E-01
 270  7.40866766   0.710  -0.98318   3.57539   6.79421   1.26458   0.00000   1.462E-02   0.000E+00   9.854E-01
 271  7.41043257   0.710  -0.98395   3.57543   6.79470   1.26702   0.00000   1.484E-02   0.000E+00   9.852E-01
 272  7.41219033   0.710  -0.98472   3.57546   6.79518   1.26947   0.00000   1.506E-02   0.000E+00   9.849E-01
 273  7.41394101   0.710  -0.98550   3.57550   6.79567   1.27191   0.00000   1.528E-02   0.000E+00   9.847E-01
 274  7.41568466   0.710  -0.98627   3.57553   6.79616   1.27435   0.00000   1.550E-02   0.000E+00   9.845E-01
 275  7.41742134   0.710  -0.98704   3.57556   6.79664   1.27680   0.00000   1.572E-02   0.000E+00   9.843E-01
 276  7.41915110   0.710  -0.98781   3.57560   6.79713   1.27924   0.00000   1.595E-02   0.000E+00   9.841E-01
 277  7.42087400   0.710  -0.98858   3.57563   6.79762   1.28168   0.00000   1.617E-02   0.000E+00   9.838E-01
 278  7.42259009   0.710  -0.98935   3.57567   6.79811   1.28412   0.00000   1.639E-02   0.000E+00   9.836E-01
 279  7.42429942   0.710  -0.99012   3.57570   6.79859   1.28657   0.00000   1.661E-02   0.000E+00   9.834E-01
 280  7.42600206   0.710  -0.99090   3.57573   6.79908   1.28901   0.00000   1.683E-02   0.000E+00   9.832E-01
 281  7.42769804   0.710  -0.99164   3.57577   6.79956   1.29143   0.00000   1.705E-02   0.000E+00   9.829E-01
 282  7.42938743   0.710  -0.99232   3.57581   6.80004   1.29378   0.00000   1.726E-02   0.000E+00   9.827E-01
 283  7.43107027   0.710  -0.99300   3.57585   6.80051   1.29613   0.00000   1.748E-02   0.000E+00   9.825E-01
 284  7.43274662   0.710  -0.99368   3.57589   6.80098   1.29847   0.00000   1.769E-02   0.000E+00   9.823E-01
 285  7.43441652   0.710  -0.99435   3.57593   6.80145   1.30082   0.00000   1.790E-02   0.000E+00   9.821E-01
 286  7.43608002   0.710  -0.99503   3.57597   6.80193   1.30317   0.00000   1.812E-02   0.000E+00   9.819E-01
 287  7.43773718   0.710  -0.99571   3.57601   6.80240   1.30552   0.00000   1.833E-02   0.000E+00   9.817E-01
 288  7.43938804   0.710  -0.99639   3.57605   6.80287   1.30786   0.00000   1.854E-02   0.000E+00   9.815E-01
 289  7.44103264   0.710  -0.99706   3.57609   6.80334   1.31021   0.00000   1.876E-02   0.000E+00   9.812E-01
 290  7.44267105   0.710  -0.99774   3.57613   6.80381   1.31256   0.00000   1.897E-02   0.000E+00   9.810E-01
 291  7.44430329   0.710  -0.99842   3.57617   6.80429   1.31491   0.00000   1.918E-02   0.000E+00   9.808E-01
 292  7.44592942   0.710  -0.99909   3.57621   6.80476   1.31725   0.00000   1.939E-02   0.000E+00   9.806E-01
 293  7.44754949   0.710  -0.99977   3.57625   6.80523   1.31960   0.00000   1.961E-02   0.000E+00   9.804E-01
 294  7.44916353   0.710  -1.00045   3.57629   6.80570   1.32195   0.00000   1.982E-02   0.000E+00   9.802E-01
 295  7.45077160   0.710  -1.00111   3.57633   6.80617   1.32428   0.00000   2.004E-02   0.000E+00   9.800E-01
 296  7.45237374   0.710  -1.00170   3.57637   6.80663   1.32654   0.00000   2.032E-02   0.000E+00   9.797E-01
 297  7.45396999   0.710  -1.00229   3.57642   6.80709   1.32880   0.00000   2.059E-02   0.000E+00   9.794E-01
 298  7.45556039   0.710  -1.00288   3.57646   6.80755   1.33105   0.00000   2.086E-02   0.000E+00   9.791E-01
 299  7.45714499   0.710  -1.00346   3.57651   6.80801   1.33331   0.00000   2.114E-02   0.000E+00   9.789E-01
 300  7.45872383   0.710  -1.00405   3.57655   6.80847   1.33557   0.00000   2.141E-02   0.000E+00   9.786E-01
 301  7.46029695   0.710  -1.00464   3.57660   6.80893   1.33783   0.00000   2.168E-02   0.000E+00   9.783E-01
 302  7.46186439   0.710  -1.00523   3.57664   6.80939   1.34008   0.00000   2.196E-02   0.000E+00   9.780E-01
 303  7.46342619   0.710  -1.00581   3.57669   6.80985   1.34234   0.00000   2.223E-02   0.000E+00   9.778E-01
 304  7.46498240   0.710  -1.00640   3.57673   6.81031   1.34460   0.00000   2.250E-02   0.000E+00   9.775E-01
 305  7.46653306   0.710  -1.00699   3.57678   6.81077   1.34686   0.00000   2.278E-02   0.000E+00   9.772E-01
 306  7.46807819   0.710  -1.00758   3.57682   6.81123   1.34911   0.00000   2.305E-02   0.000E+00   9.770E-01
 307  7.46961785   0.710  -1.00816   3.57687   6.81169   1.35137   0.00000   2.332E-02   0.000E+00   9.767E-01
 308  7.47115207   0.710  -1.00875   3.57691   6.81215   1.35363   0.00000   2.360E-02   0.000E+00   9.764E-01
 309  7.47268089   0.710  -1.00934   3.57696   6.81261   1.35589   0.00000   2.387E-02   0.000E+00   9.761E-01
 310  7.47420434   0.710  -1.00988   3.57701   6.81306   1.35810   0.00000   2.417E-02   0.000E+00   9.758E-01
 311  7.47572247   0.710  -1.01039   3.57706   6.81351   1.36027   0.00000   2.450E-02   0.000E+00   9.755E-01
 312  7.47723531   0.710  -1.01089   3.57711   6.81396   1.36244   0.00000   2.483E-02   0.000E+00   9.752E-01
 313  7.47874290   0.710  -1.01139   3.57716   6.81441   1.36461   0.00000   2.516E-02   0.000E+00   9.748E-01
 314  7.48024527   0.710  -1.01189   3.57721   6.81486   1.36678   0.00000   2.549E-02   0.000E+00   9.745E-01
 315  7.48174247   0.710  -1.01240   3.57726   6.81530   1.36896   0.00000   2.582E-02   0.000E+00   9.742E-01
 316  7.48323452   0.710  -1.01290   3.57732   6.81575   1.37113   0.00000   2.615E-02   0.000E+00   9.739E-01
 317  7.48472146   0.710  -1.01340   3.57737   6.81620   1.37330   0.00000   2.648E-02   0.000E+00   9.735E-01
 318  7.48620333   0.710  -1.01390   3.57742   6.81665   1.37547   0.00000   2.681E-02   0.000E+00   9.732E-01
 319  7.48768016   0.710  -1.01441   3.57747   6.81710   1.37764   0.00000   2.714E-02   0.000E+00   9.729E-01
 320  7.48915199   0.710  -1.01491   3.57752   6.81754   1.37982   0.00000   2.747E-02   0.000E+00   9.725E-01
 321  7.49061884   0.710  -1.01541   3.57757   6.81799   1.38199   0.00000   2.780E-02   0.000E+00   9.722E-01
 322  7.49208076   0.710  -1.01591   3.57762   6.81844   1.38416   0.00000   2.812E-02   0.000E+00   9.719E-01
 323  7.49353777   0.710  -1.01642   3.57767   6.81889   1.38633   0.00000   2.845E-02   0.000E+00   9.715E-01
 324  7.49498991   0.710  -1.01692   3.57773   6.81934   1.38850   0.00000   2.878E-02   0.000E+00   9.712E-01
 325  7.49643721   0.710  -1.01739   3.57778   6.81978   1.39065   0.00000   2.911E-02   0.000E+00   9.709E-01
 326  7.49787970   0.710  -1.01781   3.57784   6.82022   1.39274   0.00000   2.943E-02   0.000E+00   9.706E-01
 327  7.49931742   0.710  -1.01823   3.57789   6.82066   1.39483   0.00000   2.974E-02   0.000E+00   9.703E-01
 328  7.50075039   0.710  -1.01865   3.57795   6.82110   1.39692   0.00000   3.006E-02   0.000E+00   9.699E-01
 329  7.50217866   0.710  -1.01907   3.57801   6.82154   1.39901   0.00000   3.038E-02   0.000E+00   9.696E-01
 330  7.50360224   0.710  -1.01949   3.57807   6.82198   1.40110   0.00000   3.070E-02   0.000E+00   9.693E-01
 331  7.50502116   0.710  -1.01991   3.57812   6.82242   1.40319   0.00000   3.102E-02   0.000E+00   9.690E-01
 332  7.50643547   0.710  -1.02033   3.57818   6.82285   1.40528   0.00000   3.133E-02   0.000E+00   9.687E-01
 333  7.50784519   0.710  -1.02075   3.57824   6.82329   1.40737   0.00000   3.165E-02   0.000E+00   9.683E-01
 334  7.50925034   0.710  -1.02117   3.57829   6.82373   1.40946   0.00000   3.197E-02   0.000E+00   9.680E-01
 335  7.51065097   0.710  -1.02159   3.57835   6.82417   1.41155   0.00000   3.229E-02   0.000E+00   9.677E-01
 336  7.51204709   0.710  -1.02201   3.57841   6.82461   1.41364   0.00000   3.260E-02   0.000E+00   9.674E-01
 337  7.51343874   0.710  -1.02243   3.57847   6.82505   1.41573   0.00000   3.292E-02   0.000E+00   9.671E-01
 338  7.51482594   0.710  -1.02285   3.57852   6.82549   1.41783   0.00000   3.324E-02   0.000E+00   9.668E-01
 339  7.51620873   0.710  -1.02327   3.57858   6.82593   1.41992   0.00000   3.356E-02   0.000E+00   9.664E-01
 340  7.51758712   0.710  -1.02369   3.57864   6.82637   1.42201   0.00000   3.387E-02   0.000E+00   9.661E-01
 341  7.51896116   0.710  -1.02407   3.57870   6.82680   1.42405   0.00000   3.422E-02   0.000E+00   9.658E-01
 342  7.52033086   0.710  -1.02441   3.57876   6.82723   1.42606   0.00000   3.459E-02   0.000E+00   9.654E-01
 343  7.52169626   0.710  -1.02475   3.57882   6.82766   1.42808   0.00000   3.496E-02   0.000E+00   9.650E-01
 344  7.52305737   0.710  -1.02509   3.57889   6.82809   1.43009   0.00000   3.533E-02   0.000E+00   9.647E-01
 345  7.52441424   0.710  -1.02543   3.57895   6.82852   1.43210   0.00000   3.570E-02   0.000E+00   9.643E-01
 346  7.52576688   0.710  -1.02577   3.57901   6.82895   1.43412   0.00000   3.606E-02   0.000E+00   9.639E-01
 347  7.52711532   0.710  -1.02611   3.57908   6.82938   1.43613   0.00000   3.643E-02   0.000E+00   9.636E-01
 348  7.52845958   0.710  -1.02645   3.57914   6.82981   1.43814   0.00000   3.680E-02   0.000E+00   9.632E-01
 349  7.52979970   0.710  -1.02679   3.57920   6.83024   1.44016   0.00000   3.717E-02   0.000E+00   9.628E-01
 350  7.53113569   0.710  -1.02713   3.57927   6.83067   1.44217   0.00000   3.754E-02   0.000E+00   9.625E-01
 351  7.53246759   0.710  -1.02747   3.57933   6.83110   1.44418   0.00000   3.790E-02   0.000E+00   9.621E-01
 352  7.53379541   0.710  -1.02781   3.57939   6.83153   1.44620   0.00000   3.827E-02   0.000E+00   9.617E-01
 353  7.53511919   0.710  -1.02815   3.57946   6.83196   1.44821   0.00000   3.864E-02   0.000E+00   9.614E-01
 354  7.53643895   0.710  -1.02849   3.57952   6.83239   1.45022   0.00000   3.901E-02   0.000E+00   9.610E-01
 355  7.53775470   0.710  -1.02883   3.57958   6.83282   1.45224   0.00000   3.938E-02   0.000E+00   9.606E-01
 356  7.53906648   0.710  -1.02917   3.57965   6.83325   1.45425   0.00000   3.975E-02   0.000E+00   9.603E-01
 357  7.54037432   0.710  -1.02948   3.57971   6.83368   1.45624   0.00000   4.015E-02   0.000E+00   9.599E-01
 358  7.54167822   0.710  -1.02975   3.57978   6.83410   1.45818   0.00000   4.062E-02   0.000E+00   9.594E-01
 359  7.54297822   0.710  -1.03001   3.57985   6.83453   1.46012   0.00000   4.110E-02   0.000E+00   9.589E-01
 360  7.54427435   0.710  -1.03028   3.57992   6.83495   1.46206   0.00000   4.157E-02   0.000E+00   9.584E-01
 361  7.54556661   0.710  -1.03054   3.57999   6.83537   1.46400   0.00000   4.204E-02   0.000E+00   9.580E-01
 362  7.54685504   0.710  -1.03080   3.58006   6.83579   1.46594   0.00000   4.252E-02   0.000E+00   9.575E-01
 363  7.54813966   0.710  -1.03107   3.58012   6.83622   1.46788   0.00000   4.299E-02   0.000E+00   9.570E-01
 364  7.54942050   0.710  -1.03133   3.58019   6.83664   1.46982   0.00000   4.347E-02   0.000E+00   9.565E-01
 365  7.55069756   0.710  -1.03160   3.58026   6.83706   1.47176   0.00000   4.394E-02   0.000E+00   9.561E-01
 366  7.55197088   0.710  -1.03186   3.58033   6.83749   1.47370   0.00000   4.442E-02   0.000E+00   9.556E-01
 367  7.55324048   0.710  -1.03213   3.58040   6.83791   1.47564   0.00000   4.489E-02   0.000E+00   9.551E-01
 368  7.55450638   0.710  -1.03239   3.58047   6.83833   1.47758   0.00000   4.536E-02   0.000E+00   9.546E-01
 369  7.55576860   0.710  -1.03266   3.58054   6.83875   1.47952   0.00000   4.584E-02   0.000E+00   9.542E-01
 370  7.55702716   0.710  -1.03292   3.58061   6.83918   1.48146   0.00000   4.631E-02   0.000E+00   9.537E-01
 371  7.55828209   0.710  -1.03318   3.58067   6.83960   1.48340   0.00000   4.679E-02   0.000E+00   9.532E-01
 372  7.55953339   0.710  -1.03345   3.58074   6.84002   1.48534   0.00000   4.726E-02   0.000E+00   9.527E-01
 373  7.56078111   0.710  -1.03371   3.58081   6.84044   1.48728   0.00000   4.774E-02   0.000E+00   9.523E-01
 374  7.56202525   0.710  -1.03394   3.58088   6.84086   1.48919   0.00000   4.820E-02   0.000E+00   9.518E-01
 375  7.56326583   0.710  -1.03413   3.58096   6.84128   1.49106   0.00000   4.866E-02   0.000E+00   9.513E-01
 376  7.56450289   0.710  -1.03432   3.58104   6.84170   1.49292   0.00000   4.912E-02   0.000E+00   9.509E-01
 377  7.56573642   0.710  -1.03451   3.58111   6.84211   1.49479   0.00000   4.958E-02   0.000E+00   9.504E-01
 378  7.56696647   0.710  -1.03469   3.58119   6.84253   1.49666   0.00000   5.004E-02   0.000E+00   9.500E-01
 379  7.56819304   0.710  -1.03488   3.58127   6.84295   1.49852   0.00000   5.050E-02   0.000E+00   9.495E-01
 380  7.56941616   0.710  -1.03507   3.58134   6.84336   1.50039   0.00000   5.096E-02   0.000E+00   9.490E-01
 381  7.57063584   0.710  -1.03526   3.58142   6.84378   1.50226   0.00000   5.141E-02   0.000E+00   9.486E-01
 382  7.57185210   0.710  -1.03544   3.58149   6.84419   1.50413   0.00000   5.187E-02   0.000E+00   9.481E-01
 383  7.57306497   0.710  -1.03563   3.58157   6.84461   1.50599   0.00000   5.233E-02   0.000E+00   9.477E-01
 384  7.57427446   0.710  -1.03582   3.58165   6.84503   1.50786   0.00000   5.279E-02   0.000E+00   9.472E-01
 385  7.57548059   0.710  -1.03601   3.58172   6.84544   1.50973   0.00000   5.325E-02   0.000E+00   9.468E-01
 386  7.57668338   0.710  -1.03619   3.58180   6.84586   1.51159   0.00000   5.371E-02   0.000E+00   9.463E-01
 387  7.57788285   0.710  -1.03638   3.58188   6.84628   1.51346   0.00000   5.417E-02   0.000E+00   9.458E-01
 388  7.57907902   0.710  -1.03657   3.58195   6.84669   1.51533   0.00000   5.462E-02   0.000E+00   9.454E-01
 389  7.58027190   0.710  -1.03676   3.58203   6.84711   1.51720   0.00000   5.508E-02   0.000E+00   9.449E-01
 390  7.58146151   0.710  -1.03694   3.58210   6.84752   1.51906   0.00000   5.554E-02   0.000E+00   9.445E-01
 391  7.58264788   0.710  -1.03713   3.58218   6.84794   1.52093   0.00000   5.600E-02   0.000E+00   9.440E-01
 392  7.59105792   0.710  -1.03796   3.58277   6.85089   1.53378   0.00000   5.997E-02   0.000E+00   9.400E-01
 393  7.59930820   0.710  -1.03880   3.58336   6.85384   1.54664   0.00000   6.395E-02   0.000E+00   9.361E-01
 394  7.60740466   0.710  -1.03940   3.58397   6.85677   1.55925   0.00000   6.823E-02   0.000E+00   9.318E-01
 395  7.61535294   0.710  -1.03975   3.58460   6.85969   1.57161   0.00000   7.284E-02   0.000E+00   9.272E-01
 396  7.62315836   0.710  -1.04011   3.58523   6.86262   1.58396   0.00000   7.746E-02   0.000E+00   9.225E-01
 397  7.63082597   0.710  -1.04005   3.58589   6.86551   1.59587   0.00000   8.265E-02   0.000E+00   9.174E-01
 398  7.63836055   0.710  -1.03994   3.58656   6.86839   1.60771   0.00000   8.791E-02   0.000E+00   9.121E-01
 399  7.64576664   0.710  -1.03974   3.58724   6.87127   1.61944   0.00000   9.325E-02   0.000E+00   9.068E-01
 400  7.65304855   0.710  -1.03922   3.58794   6.87413   1.63078   0.00000   9.882E-02   0.000E+00   9.012E-01
 401  7.66021038   0.710  -1.03870   3.58865   6.87699   1.64211   0.00000   1.044E-01   0.000E+00   8.956E-01
 402  7.66725601   0.710  -1.03799   3.58937   6.87984   1.65318   0.00000   1.103E-01   0.000E+00   8.897E-01
 403  7.67418916   0.710  -1.03710   3.59010   6.88267   1.66400   0.00000   1.165E-01   0.000E+00   8.835E-01
 404  7.68101337   0.710  -1.03621   3.59083   6.88550   1.67483   0.00000   1.227E-01   0.000E+00   8.773E-01
 405  7.68773200   0.710  -1.03506   3.59158   6.88831   1.68525   0.00000   1.294E-01   0.000E+00   8.706E-01
 406  7.69434828   0.710  -1.03384   3.59234   6.89112   1.69556   0.00000   1.362E-01   0.000E+00   8.638E-01
 407  7.70086527   0.710  -1.03262   3.59309   6.89393   1.70586   0.00000   1.430E-01   0.000E+00   8.570E-01
 408  7.70728591   0.710  -1.03111   3.59387   6.89671   1.71565   0.00000   1.505E-01   0.000E+00   8.495E-01
 409  7.71361301   0.710  -1.02960   3.59465   6.89949   1.72544   0.00000   1.579E-01   0.000E+00   8.421E-01
 410  7.71984925   0.710  -1.02804   3.59543   6.90227   1.73513   0.00000   1.655E-01   0.000E+00   8.345E-01
 411  7.72599721   0.710  -1.02624   3.59624   6.90503   1.74435   0.00000   1.738E-01   0.000E+00   8.262E-01
 412  7.73205935   0.710  -1.02443   3.59704   6.90779   1.75357   0.00000   1.821E-01   0.000E+00   8.179E-01
 413  7.73803804   0.710  -1.02254   3.59785   6.91052   1.76260   0.00000   1.904E-01   0.000E+00   8.096E-01
 414  7.74393554   0.710  -1.02041   3.59866   6.91315   1.77112   0.00000   1.986E-01   0.000E+00   8.014E-01
 415  7.74975402   0.710  -1.01818   3.59950   6.91577   1.77944   0.00000   2.071E-01   0.000E+00   7.929E-01
 416  7.75549558   0.710  -1.01589   3.60033   6.91838   1.78758   0.00000   2.157E-01   0.000E+00   7.843E-01
 417  7.76116223   0.710  -1.01350   3.60118   6.92098   1.79554   0.00000   2.243E-01   0.000E+00   7.757E-01
 418  7.76675588   0.710  -1.01105   3.60205   6.92358   1.80330   0.00000   2.338E-01   0.000E+00   7.662E-01
 419  7.77227841   0.710  -1.00856   3.60291   6.92617   1.81088   0.00000   2.427E-01   0.000E+00   7.573E-01
 420  7.77773159   0.710  -1.00600   3.60380   6.92875   1.81827   0.00000   2.525E-01   0.000E+00   7.475E-01
 421  7.78311715   0.710  -1.00340   3.60469   6.93133   1.82547   0.00000   2.620E-01   0.000E+00   7.380E-01
 422  7.78843674   0.710  -1.00080   3.60558   6.93390   1.83249   0.00000   2.724E-01   0.000E+00   7.276E-01
 423  7.79369196   0.710  -0.99816   3.60648   6.93646   1.83930   0.00000   2.827E-01   0.000E+00   7.172E-01
 424  7.79888435   0.710  -0.99557   3.60736   6.93902   1.84590   0.00000   2.928E-01   0.000E+00   7.066E-01
 425  7.80401539   0.710  -0.99297   3.60825   6.94157   1.85231   0.00000   3.037E-01   0.000E+00   6.963E-01
 426  7.80908652   0.710  -0.99037   3.60914   6.94413   1.85853   0.00000   3.142E-01   0.000E+00   6.858E-01
 427  7.81409912   0.710  -0.98787   3.61001   6.94668   1.86452   0.00000   3.257E-01   0.000E+00   6.743E-01
 428  7.81905452   0.710  -0.98545   3.61087   6.94920   1.87026   0.00000   3.374E-01   0.000E+00   6.626E-01
 429  7.82395401   0.710  -0.98305   3.61172   6.95174   1.87578   0.00000   3.495E-01   0.000E+00   6.505E-01
 430  7.82879885   0.710  -0.98076   3.61255   6.95429   1.88110   0.00000   3.615E-01   0.000E+00   6.385E-01
 431  7.83359024   0.710  -0.97852   3.61337   6.95685   1.88613   0.00000   3.740E-01   0.000E+00   6.260E-01
 432  7.83832934   0.710  -0.97641   3.61416   6.95941   1.89090   0.00000   3.874E-01   0.000E+00   6.124E-01
 433  7.84301728   0.710  -0.97439   3.61493   6.96199   1.89540   0.00000   4.005E-01   0.000E+00   5.988E-01
 434  7.84765516   0.710  -0.97248   3.61568   6.96459   1.89963   0.00000   4.146E-01   0.000E+00   5.851E-01
 435  7.85224404   0.710  -0.97069   3.61640   6.96720   1.90355   0.00000   4.287E-01   0.000E+00   5.705E-01
 436  7.85678494   0.710  -0.96900   3.61711   6.96984   1.90716   0.00000   4.440E-01   0.000E+00   5.560E-01
 437  7.86127884   0.710  -0.96749   3.61778   6.97251   1.91045   0.00000   4.595E-01   0.000E+00   5.405E-01
 438  7.86572672   0.710  -0.96611   3.61841   6.97521   1.91330   0.00000   4.754E-01   0.000E+00   5.239E-01
 439  7.87012951   0.710  -0.96482   3.61903   6.97796   1.91581   0.00023   4.921E-01   4.427E-04   5.069E-01
 440  7.87448812   0.710  -0.96364   3.61962   6.98069   1.91805   0.00087   5.095E-01   1.000E-03   4.896E-01
 441  7.87880341   0.710  -0.96272   3.62017   6.98330   1.91988   0.00268   5.281E-01   1.000E-03   4.717E-01
 442  7.88307625   0.710  -0.96197   3.62067   6.98582   1.92142   0.00478   5.471E-01   1.000E-03   4.527E-01
 443  7.88730746   0.709  -0.96133   3.62115   6.98827   1.92274   0.00709   5.664E-01   1.000E-03   4.329E-01
 444  7.89149784   0.709  -0.96093   3.62158   6.99057   1.92374   0.00957   5.865E-01   1.000E-03   4.125E-01
 445  7.89564817   0.709  -0.96088   3.62193   6.99265   1.92423   0.01231   6.078E-01   1.000E-03   3.912E-01
 446  7.89975922   0.709  -0.96083   3.62229   6.99473   1.92472   0.01506   6.291E-01   1.000E-03   3.699E-01
 447  7.90383172   0.709  -0.96099   3.62259   6.99669   1.92497   0.01771   6.505E-01   1.054E-03   3.485E-01
 448  7.90786638   0.709  -0.96180   3.62275   6.99826   1.92449   0.02009   6.721E-01   1.265E-03   3.267E-01
 449  7.91186391   0.709  -0.96260   3.62291   6.99983   1.92401   0.02247   6.937E-01   1.477E-03   3.048E-01
 450  7.91582497   0.709  -0.96340   3.62307   7.00140   1.92353   0.02485   7.153E-01   1.689E-03   2.830E-01
 451  7.91975024   0.709  -0.96420   3.62323   7.00297   1.92304   0.02723   7.369E-01   1.901E-03   2.612E-01
 452  7.92364034   0.709  -0.96526   3.62332   7.00441   1.92179   0.03086   7.680E-01   2.000E-03   2.300E-01
 453  7.92749591   0.709  -0.96654   3.62335   7.00573   1.91984   0.03559   8.074E-01   2.000E-03   1.906E-01
 454  7.93131755   0.709  -0.96784   3.62338   7.00705   1.91788   0.04030   8.465E-01   2.000E-03   1.515E-01
 455  7.93510585   0.709  -0.96949   3.62331   7.00808   1.91545   0.04472   8.791E-01   2.000E-03   1.189E-01
 456  7.93886140   0.709  -0.97129   3.62322   7.00903   1.91297   0.04921   9.083E-01   2.000E-03   8.952E-02
 457  7.94258475   0.709  -0.97331   3.62308   7.00987   1.91042   0.05328   9.337E-01   2.000E-03   6.402E-02
 458  7.94627644   0.709  -0.97556   3.62290   7.01056   1.90779   0.05606   9.561E-01   2.000E-03   4.188E-02
 459  7.94993702   0.709  -0.97802   3.62266   7.01112   1.90516   0.05807   9.723E-01   2.000E-03   2.564E-02
 460  7.95356701   0.709  -0.98066   3.62238   7.01159   1.90262   0.05807   9.858E-01   2.000E-03   1.154E-02
 461  7.95716690   0.709  -0.98348   3.62207   7.01198   1.90017   0.06081   9.969E-01   2.000E-03   5.254E-04
 462  7.96073720   0.709  -0.98645   3.62173   7.01227   1.89786   0.06084   1.005E+00   2.000E-03  -6.753E-03
 463  7.96427839   0.709  -0.98954   3.62136   7.01249   1.89563   0.06084   1.014E+00   2.000E-03  -1.570E-02
 464  7.96779093   0.709  -0.99274   3.62096   7.01265   1.89351   0.06084   1.021E+00   3.000E-03  -2.329E-02
 465  7.97127530   0.709  -0.99602   3.62054   7.01274   1.89147   0.06084   1.027E+00   3.000E-03  -3.012E-02
 466  7.97473193   0.709  -0.99936   3.62009   7.01280   1.88955   0.06084   1.033E+00   3.000E-03  -3.593E-02
 467  7.97816127   0.709  -1.00273   3.61964   7.01281   1.88773   0.06084   1.038E+00   3.000E-03  -4.105E-02
 468  7.98156374   0.709  -1.00612   3.61918   7.01277   1.88602   0.06084   1.043E+00   3.000E-03  -4.541E-02
 469  7.98493976   0.709  -1.00950   3.61871   7.01271   1.88440   0.06084   1.047E+00   3.000E-03  -4.922E-02
 470  7.98828974   0.709  -1.01284   3.61823   7.01260   1.88290   0.05943   1.050E+00   3.000E-03  -5.242E-02
 471  7.99161407   0.709  -1.01614   3.61775   7.01248   1.88150   0.05807   1.052E+00   3.000E-03  -5.491E-02
 472  7.99491316   0.709  -1.01937   3.61729   7.01234   1.88020   0.05807   1.054E+00   3.000E-03  -5.687E-02
 473  7.99818737   0.709  -1.02250   3.61681   7.01217   1.87900   0.05807   1.055E+00   3.000E-03  -5.847E-02
 474  8.00143708   0.709  -1.02554   3.61636   7.01198   1.87790   0.05541   1.057E+00   3.000E-03  -5.967E-02
 475  8.00466265   0.709  -1.02846   3.61591   7.01179   1.87689   0.05530   1.058E+00   3.000E-03  -6.024E-02
 476  8.00786445   0.709  -1.03126   3.61548   7.01158   1.87598   0.05530   1.058E+00   3.000E-03  -6.058E-02
 477  8.01104281   0.709  -1.03390   3.61506   7.01138   1.87515   0.05254   1.058E+00   3.000E-03  -6.062E-02
 478  8.01419808   0.709  -1.03641   3.61467   7.01116   1.87441   0.05254   1.057E+00   2.418E-03  -6.017E-02
 479  8.01733059   0.709  -1.03876   3.61429   7.01093   1.87374   0.05254   1.057E+00   2.000E-03  -5.951E-02
 480  8.02044067   0.709  -1.04091   3.61394   7.01071   1.87315   0.04982   1.056E+00   2.000E-03  -5.871E-02
 481  8.02352863   0.709  -1.04287   3.61362   7.01049   1.87263   0.04977   1.055E+00   2.000E-03  -5.733E-02
 482  8.02659480   0.709  -1.04469   3.61331   7.01027   1.87218   0.04977   1.054E+00   2.000E-03  -5.585E-02
 483  8.02963947   0.709  -1.04634   3.61303   7.01006   1.87179   0.04977   1.052E+00   2.000E-03  -5.440E-02
 484  8.03266294   0.709  -1.04782   3.61277   7.00985   1.87145   0.04765   1.050E+00   2.000E-03  -5.292E-02
 485  8.03566550   0.709  -1.04916   3.61254   7.00964   1.87117   0.04701   1.049E+00   2.000E-03  -5.117E-02
 486  8.03864746   0.709  -1.05037   3.61232   7.00944   1.87093   0.04701   1.047E+00   2.000E-03  -4.932E-02
 487  8.04160907   0.709  -1.05145   3.61213   7.00925   1.87072   0.04701   1.045E+00   2.000E-03  -4.746E-02
 488  8.04455063   0.709  -1.05234   3.61196   7.00906   1.87056   0.04596   1.043E+00   2.000E-03  -4.567E-02
 489  8.04747240   0.709  -1.05319   3.61179   7.00888   1.87042   0.04466   1.041E+00   2.000E-03  -4.389E-02
 490  8.05037464   0.709  -1.05380   3.61166   7.00871   1.87033   0.04459   1.039E+00   2.000E-03  -4.195E-02
 491  8.05325761   0.709  -1.05440   3.61154   7.00855   1.87025   0.04459   1.038E+00   2.000E-03  -4.000E-02
 492  8.05612158   0.709  -1.05483   3.61144   7.00840   1.87020   0.04422   1.036E+00   2.000E-03  -3.819E-02
 493  8.05896678   0.709  -1.05515   3.61137   7.00826   1.87018   0.04360   1.034E+00   2.000E-03  -3.648E-02
 494  8.06179346   0.709  -1.05546   3.61129   7.00812   1.87015   0.04298   1.032E+00   2.000E-03  -3.478E-02
 495  8.06460187   0.709  -1.05571   3.61122   7.00799   1.87014   0.04240   1.031E+00   2.000E-03  -3.311E-02
 496  8.06739222   0.709  -1.05574   3.61119   7.00789   1.87016   0.04192   1.029E+00   2.000E-03  -3.155E-02
 497  8.07016477   0.709  -1.05578   3.61116   7.00779   1.87018   0.04143   1.028E+00   2.000E-03  -2.999E-02
 498  8.07291973   0.709  -1.05582   3.61113   7.00768   1.87020   0.04095   1.026E+00   2.000E-03  -2.844E-02
 499  8.07565732   0.709  -1.05585   3.61110   7.00758   1.87022   0.04047   1.025E+00   2.000E-03  -2.688E-02
 500  8.07837776   0.709  -1.05585   3.61108   7.00748   1.87025   0.04003   1.024E+00   2.000E-03  -2.542E-02
 501  8.08108127   0.709  -1.05571   3.61108   7.00741   1.87030   0.03976   1.023E+00   2.000E-03  -2.426E-02
 502  8.08376805   0.709  -1.05557   3.61109   7.00734   1.87034   0.03948   1.021E+00   2.000E-03  -2.310E-02
 503  8.08643832   0.709  -1.05543   3.61109   7.00727   1.87039   0.03920   1.020E+00   2.000E-03  -2.195E-02
 504  8.08909226   0.709  -1.05529   3.61109   7.00720   1.87043   0.03893   1.019E+00   2.000E-03  -2.079E-02
 505  8.09173009   0.709  -1.05515   3.61109   7.00713   1.87048   0.03865   1.018E+00   2.000E-03  -1.963E-02
 506  8.09435199   0.709  -1.05501   3.61110   7.00706   1.87052   0.03837   1.017E+00   2.000E-03  -1.847E-02
 507  8.09695816   0.709  -1.05487   3.61110   7.00699   1.87057   0.03810   1.015E+00   2.000E-03  -1.732E-02
 508  8.09954878   0.709  -1.05471   3.61111   7.00694   1.87059   0.03793   1.015E+00   2.000E-03  -1.666E-02
 509  8.10212403   0.709  -1.05454   3.61112   7.00690   1.87060   0.03781   1.014E+00   2.000E-03  -1.620E-02
 510  8.10468411   0.709  -1.05437   3.61114   7.00686   1.87062   0.03769   1.014E+00   2.000E-03  -1.574E-02
 511  8.10722919   0.709  -1.05420   3.61115   7.00682   1.87063   0.03756   1.013E+00   2.000E-03  -1.528E-02
 512  8.10975944   0.709  -1.05403   3.61116   7.00678   1.87064   0.03744   1.013E+00   2.000E-03  -1.482E-02
 513  8.11227503   0.709  -1.05386   3.61118   7.00674   1.87066   0.03732   1.012E+00   2.000E-03  -1.436E-02
 514  8.11477613   0.709  -1.05369   3.61119   7.00670   1.87067   0.03720   1.012E+00   2.000E-03  -1.390E-02
 515  8.11726291   0.709  -1.05352   3.61120   7.00665   1.87068   0.03707   1.012E+00   2.000E-03  -1.344E-02
 516  8.11973554   0.709  -1.05335   3.61122   7.00661   1.87070   0.03695   1.011E+00   2.000E-03  -1.297E-02
 517  8.12219416   0.709  -1.05318   3.61123   7.00657   1.87071   0.03683   1.011E+00   2.000E-03  -1.251E-02
 518  8.12463895   0.709  -1.05301   3.61124   7.00653   1.87072   0.03671   1.010E+00   2.000E-03  -1.205E-02
 519  8.12707005   0.709  -1.05287   3.61125   7.00650   1.87072   0.03658   1.010E+00   2.000E-03  -1.176E-02
 520  8.12948762   0.709  -1.05275   3.61126   7.00646   1.87069   0.03645   1.010E+00   2.000E-03  -1.166E-02
 521  8.13189180   0.709  -1.05264   3.61127   7.00643   1.87066   0.03632   1.010E+00   2.000E-03  -1.157E-02
 522  8.13428275   0.709  -1.05253   3.61128   7.00640   1.87064   0.03618   1.010E+00   2.000E-03  -1.148E-02
 523  8.13666061   0.709  -1.05241   3.61129   7.00637   1.87061   0.03605   1.010E+00   2.000E-03  -1.139E-02
 524  8.13902551   0.709  -1.05230   3.61130   7.00634   1.87058   0.03592   1.010E+00   2.000E-03  -1.129E-02
 525  8.14137761   0.709  -1.05218   3.61130   7.00631   1.87056   0.03579   1.009E+00   2.000E-03  -1.120E-02
 526  8.14371704   0.709  -1.05207   3.61131   7.00628   1.87053   0.03566   1.009E+00   2.000E-03  -1.111E-02
 527  8.14604394   0.709  -1.05196   3.61132   7.00625   1.87050   0.03553   1.009E+00   2.000E-03  -1.101E-02
 528  8.14835843   0.709  -1.05184   3.61133   7.00621   1.87047   0.03539   1.009E+00   2.000E-03  -1.092E-02
 529  8.15066066   0.709  -1.05173   3.61134   7.00618   1.87045   0.03526   1.009E+00   2.000E-03  -1.083E-02
 530  8.15295075   0.709  -1.05161   3.61135   7.00615   1.87042   0.03513   1.009E+00   2.000E-03  -1.074E-02
 531  8.15522882   0.709  -1.05154   3.61135   7.00612   1.87038   0.03496   1.009E+00   2.000E-03  -1.069E-02
 532  8.15749500   0.709  -1.05150   3.61135   7.00609   1.87034   0.03478   1.009E+00   2.000E-03  -1.067E-02
 533  8.15974943   0.709  -1.05145   3.61135   7.00606   1.87030   0.03459   1.009E+00   2.000E-03  -1.065E-02
 534  8.16199221   0.709  -1.05141   3.61135   7.00603   1.87025   0.03440   1.009E+00   2.000E-03  -1.064E-02
 535  8.16422346   0.709  -1.05137   3.61135   7.00599   1.87021   0.03421   1.009E+00   2.000E-03  -1.062E-02
 536  8.16644332   0.709  -1.05132   3.61135   7.00596   1.87017   0.03402   1.009E+00   2.000E-03  -1.060E-02
 537  8.16865188   0.709  -1.05128   3.61135   7.00593   1.87012   0.03383   1.009E+00   2.000E-03  -1.059E-02
 538  8.17084927   0.709  -1.05123   3.61135   7.00590   1.87008   0.03365   1.009E+00   2.000E-03  -1.057E-02
 539  8.17303559   0.709  -1.05119   3.61135   7.00587   1.87003   0.03346   1.009E+00   2.000E-03  -1.055E-02
 540  8.17521097   0.709  -1.05115   3.61134   7.00584   1.86999   0.03327   1.008E+00   2.000E-03  -1.053E-02
 541  8.17737550   0.709  -1.05110   3.61134   7.00580   1.86995   0.03308   1.008E+00   2.000E-03  -1.052E-02
 542  8.17952930   0.709  -1.05106   3.61134   7.00577   1.86990   0.03289   1.008E+00   2.000E-03  -1.050E-02
 543  8.18167247   0.709  -1.05101   3.61134   7.00574   1.86986   0.03271   1.008E+00   2.000E-03  -1.048E-02
 544  8.18380512   0.709  -1.05097   3.61134   7.00571   1.86982   0.03252   1.008E+00   2.000E-03  -1.047E-02
 545  8.18592734   0.709  -1.05092   3.61134   7.00568   1.86977   0.03233   1.008E+00   2.000E-03  -1.045E-02
 546  8.18803925   0.709  -1.05088   3.61134   7.00565   1.86973   0.03214   1.008E+00   2.000E-03  -1.043E-02
 547  8.19014093   0.709  -1.05084   3.61134   7.00562   1.86969   0.03195   1.008E+00   2.000E-03  -1.041E-02
 548  8.19223249   0.709  -1.05080   3.61134   7.00558   1.86964   0.03176   1.008E+00   2.000E-03  -1.040E-02
 549  8.19431403   0.709  -1.05079   3.61133   7.00555   1.86960   0.03156   1.008E+00   2.000E-03  -1.039E-02
 550  8.19638564   0.709  -1.05079   3.61133   7.00551   1.86956   0.03135   1.008E+00   2.000E-03  -1.037E-02
 551  8.19844741   0.708  -1.05078   3.61132   7.00548   1.86952   0.03115   1.008E+00   2.000E-03  -1.036E-02
 552  8.20049944   0.708  -1.05077   3.61131   7.00544   1.86948   0.03094   1.008E+00   2.000E-03  -1.035E-02
 553  8.20254182   0.708  -1.05077   3.61131   7.00541   1.86943   0.03074   1.008E+00   2.000E-03  -1.034E-02
 554  8.20457465   0.708  -1.05076   3.61130   7.00537   1.86939   0.03053   1.008E+00   2.000E-03  -1.033E-02
 555  8.20659800   0.708  -1.05075   3.61130   7.00534   1.86935   0.03033   1.008E+00   2.000E-03  -1.032E-02
 556  8.20861197   0.708  -1.05075   3.61129   7.00530   1.86931   0.03012   1.008E+00   2.000E-03  -1.031E-02
 557  8.21061664   0.708  -1.05074   3.61128   7.00527   1.86927   0.02992   1.008E+00   2.000E-03  -1.029E-02
 558  8.21261210   0.708  -1.05073   3.61128   7.00524   1.86923   0.02971   1.008E+00   2.000E-03  -1.028E-02
 559  8.21459843   0.708  -1.05073   3.61127   7.00520   1.86918   0.02951   1.008E+00   2.000E-03  -1.027E-02
 560  8.21657572   0.708  -1.05072   3.61127   7.00517   1.86914   0.02930   1.008E+00   2.000E-03  -1.026E-02
 561  8.21854405   0.708  -1.05071   3.61126   7.00513   1.86910   0.02910   1.008E+00   2.000E-03  -1.025E-02
 562  8.22050350   0.708  -1.05071   3.61125   7.00510   1.86906   0.02889   1.008E+00   2.000E-03  -1.024E-02
 563  8.22245415   0.708  -1.05070   3.61125   7.00506   1.86902   0.02869   1.008E+00   2.000E-03  -1.023E-02
 564  8.22439607   0.708  -1.05069   3.61124   7.00503   1.86897   0.02848   1.008E+00   2.000E-03  -1.021E-02
 565  8.22632935   0.708  -1.05069   3.61123   7.00499   1.86893   0.02828   1.008E+00   2.000E-03  -1.020E-02
 566  8.22825406   0.708  -1.05068   3.61123   7.00496   1.86889   0.02807   1.008E+00   2.000E-03  -1.019E-02
 567  8.23017028   0.708  -1.05068   3.61122   7.00492   1.86885   0.02787   1.008E+00   2.000E-03  -1.018E-02
 568  8.23207809   0.708  -1.05067   3.61122   7.00489   1.86881   0.02766   1.008E+00   2.000E-03  -1.017E-02
 569  8.23397755   0.708  -1.05066   3.61121   7.00485   1.86877   0.02745   1.008E+00   2.000E-03  -1.016E-02
 570  8.23586873   0.708  -1.05066   3.61120   7.00482   1.86872   0.02725   1.008E+00   2.000E-03  -1.015E-02
 571  8.23775172   0.708  -1.05065   3.61120   7.00478   1.86868   0.02704   1.008E+00   2.000E-03  -1.013E-02
 572  8.23962658   0.708  -1.05064   3.61119   7.00475   1.86864   0.02684   1.008E+00   2.000E-03  -1.012E-02
 573  8.24149338   0.708  -1.05064   3.61119   7.00471   1.86860   0.02663   1.008E+00   2.000E-03  -1.011E-02
 574  8.24335219   0.708  -1.05063   3.61118   7.00468   1.86856   0.02643   1.008E+00   2.000E-03  -1.010E-02
 575  8.24520307   0.708  -1.05063   3.61117   7.00464   1.86852   0.02628   1.008E+00   2.000E-03  -1.009E-02
 576  8.24704611   0.708  -1.05063   3.61117   7.00461   1.86849   0.02613   1.008E+00   2.000E-03  -1.008E-02
 577  8.24888135   0.708  -1.05064   3.61116   7.00457   1.86846   0.02598   1.008E+00   2.000E-03  -1.007E-02
 578  8.25070887   0.708  -1.05064   3.61115   7.00453   1.86842   0.02582   1.008E+00   2.000E-03  -1.006E-02
 579  8.25252873   0.708  -1.05064   3.61114   7.00450   1.86839   0.02567   1.008E+00   2.000E-03  -1.005E-02
 580  8.25434100   0.708  -1.05064   3.61114   7.00446   1.86835   0.02552   1.008E+00   2.000E-03  -1.004E-02
 581  8.25614574   0.708  -1.05064   3.61113   7.00442   1.86832   0.02537   1.008E+00   2.000E-03  -1.004E-02
 582  8.25794301   0.708  -1.05064   3.61112   7.00439   1.86828   0.02522   1.008E+00   2.000E-03  -1.003E-02
 583  8.25973287   0.708  -1.05065   3.61112   7.00435   1.86825   0.02506   1.008E+00   2.000E-03  -1.002E-02
 584  8.26151539   0.708  -1.05065   3.61111   7.00431   1.86822   0.02491   1.008E+00   2.000E-03  -1.001E-02
 585  8.26329062   0.708  -1.05065   3.61110   7.00428   1.86818   0.02476   1.008E+00   2.000E-03  -9.999E-03
 586  8.26505862   0.708  -1.05065   3.61109   7.00424   1.86815   0.02461   1.008E+00   2.000E-03  -9.989E-03
 587  8.26681946   0.708  -1.05065   3.61109   7.00420   1.86811   0.02446   1.008E+00   2.000E-03  -9.980E-03
 588  8.26857318   0.708  -1.05066   3.61108   7.00417   1.86808   0.02430   1.008E+00   2.000E-03  -9.971E-03
 589  8.27031985   0.708  -1.05066   3.61107   7.00413   1.86805   0.02415   1.008E+00   2.000E-03  -9.962E-03
 590  8.27205953   0.708  -1.05066   3.61107   7.00409   1.86801   0.02400   1.008E+00   2.000E-03  -9.953E-03
 591  8.27379226   0.708  -1.05066   3.61106   7.00406   1.86798   0.02385   1.008E+00   2.000E-03  -9.943E-03
 592  8.27551811   0.708  -1.05066   3.61105   7.00402   1.86794   0.02370   1.008E+00   2.000E-03  -9.934E-03
 593  8.27723713   0.708  -1.05066   3.61104   7.00399   1.86791   0.02354   1.008E+00   2.000E-03  -9.925E-03
 594  8.27894936   0.708  -1.05067   3.61104   7.00395   1.86787   0.02339   1.008E+00   2.000E-03  -9.916E-03
 595  8.28065488   0.708  -1.05067   3.61103   7.00391   1.86784   0.02324   1.008E+00   2.000E-03  -9.907E-03
 596  8.28235372   0.708  -1.05067   3.61102   7.00388   1.86781   0.02309   1.008E+00   2.000E-03  -9.898E-03
 597  8.28404595   0.708  -1.05067   3.61102   7.00384   1.86777   0.02294   1.008E+00   2.000E-03  -9.888E-03
 598  8.28573160   0.708  -1.05067   3.61101   7.00380   1.86774   0.02278   1.008E+00   2.000E-03  -9.879E-03
 599  8.28741074   0.708  -1.05067   3.61100   7.00377   1.86770   0.02263   1.008E+00   2.000E-03  -9.870E-03
 600  8.28908341   0.708  -1.05068   3.61099   7.00373   1.86767   0.02248   1.008E+00   2.000E-03  -9.861E-03
 601  8.29074967   0.708  -1.05068   3.61099   7.00369   1.86764   0.02233   1.008E+00   2.000E-03  -9.852E-03
 602  8.29240955   0.708  -1.05068   3.61098   7.00366   1.86760   0.02218   1.008E+00   2.000E-03  -9.842E-03
 603  8.29406312   0.708  -1.05068   3.61097   7.00362   1.86757   0.02202   1.008E+00   2.000E-03  -9.833E-03
 604  8.29571041   0.708  -1.05068   3.61097   7.00358   1.86753   0.02187   1.008E+00   2.000E-03  -9.824E-03
 605  8.29735148   0.708  -1.05069   3.61096   7.00355   1.86750   0.02172   1.008E+00   2.000E-03  -9.815E-03
 606  8.29898637   0.708  -1.05069   3.61095   7.00351   1.86746   0.02157   1.008E+00   2.000E-03  -9.806E-03
 607  8.30061513   0.708  -1.05069   3.61094   7.00347   1.86743   0.02142   1.008E+00   2.000E-03  -9.797E-03
 608  8.30223780   0.708  -1.05069   3.61094   7.00344   1.86740   0.02126   1.008E+00   2.000E-03  -9.787E-03
 609  8.30385444   0.708  -1.05069   3.61093   7.00340   1.86736   0.02111   1.008E+00   2.000E-03  -9.778E-03
 610  8.30546507   0.708  -1.05069   3.61092   7.00337   1.86733   0.02096   1.008E+00   2.000E-03  -9.769E-03
 611  8.30706976   0.708  -1.05070   3.61092   7.00333   1.86729   0.02081   1.008E+00   2.000E-03  -9.760E-03
 612  8.30866854   0.708  -1.05070   3.61091   7.00329   1.86726   0.02066   1.008E+00   2.000E-03  -9.751E-03
 613  8.31026145   0.708  -1.05070   3.61090   7.00326   1.86723   0.02050   1.008E+00   2.000E-03  -9.741E-03
 614  8.31184855   0.708  -1.05070   3.61089   7.00322   1.86719   0.02038   1.008E+00   2.000E-03  -9.734E-03
 615  8.31342986   0.708  -1.05071   3.61089   7.00319   1.86716   0.02027   1.008E+00   2.000E-03  -9.726E-03
 616  8.31500544   0.708  -1.05071   3.61088   7.00315   1.86712   0.02016   1.008E+00   2.000E-03  -9.718E-03
 617  8.31657533   0.708  -1.05071   3.61087   7.00312   1.86709   0.02005   1.008E+00   2.000E-03  -9.711E-03
 618  8.31813955   0.708  -1.05072   3.61087   7.00308   1.86705   0.01993   1.008E+00   2.000E-03  -9.703E-03
 619  8.31969817   0.708  -1.05072   3.61086   7.00305   1.86702   0.01982   1.008E+00   2.000E-03  -9.695E-03
 620  8.32125121   0.708  -1.05073   3.61085   7.00301   1.86698   0.01971   1.008E+00   2.000E-03  -9.688E-03
 621  8.32279872   0.708  -1.05073   3.61085   7.00298   1.86695   0.01959   1.008E+00   2.000E-03  -9.680E-03
 622  8.32434073   0.708  -1.05073   3.61084   7.00294   1.86692   0.01948   1.008E+00   2.000E-03  -9.672E-03
 623  8.32587729   0.708  -1.05074   3.61083   7.00291   1.86688   0.01937   1.008E+00   2.000E-03  -9.665E-03
 624  8.32740843   0.708  -1.05074   3.61082   7.00287   1.86685   0.01925   1.008E+00   2.000E-03  -9.657E-03
 625  8.32893419   0.708  -1.05074   3.61082   7.00284   1.86681   0.01914   1.008E+00   2.000E-03  -9.649E-03
 626  8.33045461   0.708  -1.05075   3.61081   7.00280   1.86678   0.01903   1.008E+00   2.000E-03  -9.642E-03
 627  8.33196972   0.708  -1.05075   3.61080   7.00277   1.86674   0.01891   1.008E+00   2.000E-03  -9.634E-03
 628  8.33347957   0.708  -1.05076   3.61080   7.00274   1.86671   0.01880   1.008E+00   2.000E-03  -9.626E-03
 629  8.33498419   0.708  -1.05076   3.61079   7.00270   1.86668   0.01869   1.008E+00   2.000E-03  -9.619E-03
 630  8.33648361   0.708  -1.05076   3.61078   7.00267   1.86664   0.01858   1.008E+00   2.000E-03  -9.611E-03
 631  8.33797787   0.708  -1.05077   3.61078   7.00263   1.86661   0.01846   1.008E+00   2.000E-03  -9.603E-03
 632  8.33946701   0.708  -1.05077   3.61077   7.00260   1.86657   0.01835   1.008E+00   2.000E-03  -9.596E-03
 633  8.34095106   0.708  -1.05077   3.61076   7.00256   1.86654   0.01824   1.008E+00   2.000E-03  -9.588E-03
 634  8.34243006   0.708  -1.05078   3.61075   7.00253   1.86650   0.01812   1.008E+00   2.000E-03  -9.581E-03
 635  8.34390403   0.708  -1.05078   3.61075   7.00249   1.86647   0.01801   1.008E+00   2.000E-03  -9.573E-03
 636  8.34537302   0.708  -1.05079   3.61074   7.00246   1.86644   0.01790   1.008E+00   2.000E-03  -9.565E-03
 637  8.34683706   0.708  -1.05079   3.61073   7.00242   1.86640   0.01778   1.008E+00   2.000E-03  -9.558E-03
 638  8.34829618   0.708  -1.05079   3.61073   7.00239   1.86637   0.01767   1.008E+00   2.000E-03  -9.550E-03
 639  8.34975042   0.707  -1.05080   3.61072   7.00235   1.86633   0.01756   1.008E+00   2.000E-03  -9.542E-03
 640  8.35119980   0.707  -1.05080   3.61071   7.00232   1.86630   0.01744   1.008E+00   2.000E-03  -9.535E-03
 641  8.35264436   0.707  -1.05080   3.61071   7.00228   1.86626   0.01733   1.008E+00   2.000E-03  -9.527E-03
 642  8.35408413   0.707  -1.05081   3.61070   7.00225   1.86623   0.01722   1.008E+00   2.000E-03  -9.519E-03
 643  8.35551914   0.707  -1.05081   3.61069   7.00221   1.86619   0.01711   1.008E+00   2.000E-03  -9.512E-03
 644  8.35694943   0.707  -1.05082   3.61068   7.00218   1.86616   0.01699   1.008E+00   2.000E-03  -9.504E-03
 645  8.35837503   0.707  -1.05082   3.61068   7.00215   1.86613   0.01688   1.008E+00   2.000E-03  -9.496E-03
 646  8.35979595   0.707  -1.05082   3.61067   7.00211   1.86609   0.01677   1.008E+00   2.000E-03  -9.489E-03
 647  8.36121225   0.707  -1.05083   3.61066   7.00208   1.86606   0.01665   1.008E+00   2.000E-03  -9.481E-03
 648  8.36262394   0.707  -1.05083   3.61066   7.00204   1.86602   0.01654   1.008E+00   2.000E-03  -9.473E-03
 649  8.36403106   0.707  -1.05083   3.61065   7.00201   1.86599   0.01643   1.008E+00   2.000E-03  -9.466E-03
 650  8.36543363   0.707  -1.05084   3.61064   7.00197   1.86595   0.01631   1.008E+00   2.000E-03  -9.458E-03
 651  8.36683169   0.707  -1.05084   3.61064   7.00194   1.86592   0.01620   1.008E+00   2.000E-03  -9.450E-03
 652  8.36822526   0.707  -1.05085   3.61063   7.00190   1.86589   0.01609   1.008E+00   2.000E-03  -9.443E-03
 653  8.36961437   0.707  -1.05085   3.61062   7.00187   1.86585   0.01597   1.008E+00   2.000E-03  -9.435E-03
 654  8.37099906   0.707  -1.05085   3.61062   7.00183   1.86582   0.01586   1.008E+00   2.000E-03  -9.427E-03
 655  8.37237934   0.707  -1.05086   3.61061   7.00180   1.86578   0.01575   1.008E+00   2.000E-03  -9.420E-03
 656  8.37375525   0.707  -1.05086   3.61060   7.00176   1.86575   0.01564   1.008E+00   2.000E-03  -9.412E-03
 657  8.37512682   0.707  -1.05086   3.61059   7.00173   1.86571   0.01552   1.008E+00   2.000E-03  -9.405E-03
 658  8.37649407   0.707  -1.05087   3.61059   7.00169   1.86568   0.01541   1.008E+00   2.000E-03  -9.397E-03
 659  8.37785702   0.707  -1.05087   3.61058   7.00166   1.86565   0.01530   1.008E+00   2.000E-03  -9.389E-03
 660  8.37921572   0.707  -1.05088   3.61057   7.00163   1.86561   0.01518   1.008E+00   2.000E-03  -9.382E-03
 661  8.38057017   0.707  -1.05088   3.61057   7.00159   1.86558   0.01507   1.008E+00   2.000E-03  -9.374E-03
 662  8.38192042   0.707  -1.05088   3.61056   7.00156   1.86554   0.01496   1.008E+00   2.000E-03  -9.366E-03
 663  8.38326648   0.707  -1.05089   3.61055   7.00152   1.86551   0.01484   1.008E+00   2.000E-03  -9.359E-03
 664  8.38460838   0.707  -1.05089   3.61055   7.00149   1.86547   0.01473   1.008E+00   2.000E-03  -9.351E-03
 665  8.38594615   0.707  -1.05089   3.61054   7.00145   1.86544   0.01462   1.008E+00   2.000E-03  -9.343E-03
 666  8.38727980   0.707  -1.05090   3.61053   7.00142   1.86540   0.01450   1.008E+00   2.000E-03  -9.336E-03
 667  8.38860938   0.707  -1.05090   3.61052   7.00138   1.86537   0.01439   1.008E+00   2.000E-03  -9.328E-03
 668  8.38993490   0.707  -1.05091   3.61052   7.00135   1.86534   0.01428   1.008E+00   2.000E-03  -9.320E-03
 669  8.39125638   0.707  -1.05091   3.61051   7.00131   1.86530   0.01417   1.008E+00   2.000E-03  -9.313E-03
 670  8.39257386   0.707  -1.05091   3.61050   7.00128   1.86527   0.01405   1.008E+00   2.000E-03  -9.305E-03
 671  8.39388735   0.707  -1.05092   3.61050   7.00124   1.86523   0.01394   1.008E+00   2.000E-03  -9.297E-03
 672  8.39519688   0.707  -1.05092   3.61049   7.00121   1.86520   0.01383   1.008E+00   2.000E-03  -9.289E-03
 673  8.39650247   0.707  -1.05092   3.61049   7.00118   1.86518   0.01376   1.008E+00   1.988E-03  -9.254E-03
 674  8.39780415   0.707  -1.05091   3.61048   7.00116   1.86517   0.01370   1.008E+00   1.977E-03  -9.218E-03
 675  8.39910195   0.707  -1.05091   3.61048   7.00113   1.86516   0.01364   1.008E+00   1.966E-03  -9.183E-03
 676  8.40039587   0.707  -1.05090   3.61047   7.00111   1.86514   0.01357   1.008E+00   1.954E-03  -9.147E-03
 677  8.40168595   0.707  -1.05090   3.61047   7.00109   1.86513   0.01351   1.008E+00   1.943E-03  -9.112E-03
 678  8.40297221   0.707  -1.05089   3.61047   7.00106   1.86511   0.01344   1.008E+00   1.932E-03  -9.077E-03
 679  8.40425467   0.707  -1.05089   3.61046   7.00104   1.86510   0.01338   1.008E+00   1.920E-03  -9.041E-03
 680  8.40553336   0.707  -1.05089   3.61046   7.00101   1.86508   0.01331   1.008E+00   1.909E-03  -9.006E-03
 681  8.40680829   0.707  -1.05088   3.61046   7.00099   1.86507   0.01325   1.008E+00   1.898E-03  -8.971E-03
 682  8.40807949   0.707  -1.05088   3.61045   7.00096   1.86505   0.01319   1.008E+00   1.886E-03  -8.935E-03
 683  8.40934698   0.707  -1.05087   3.61045   7.00094   1.86504   0.01312   1.008E+00   1.875E-03  -8.900E-03
 684  8.41061078   0.707  -1.05087   3.61044   7.00091   1.86502   0.01306   1.008E+00   1.864E-03  -8.864E-03
 685  8.41187092   0.707  -1.05086   3.61044   7.00089   1.86501   0.01299   1.008E+00   1.852E-03  -8.829E-03
 686  8.41312740   0.707  -1.05086   3.61044   7.00086   1.86499   0.01293   1.008E+00   1.841E-03  -8.794E-03
 687  8.41438027   0.707  -1.05086   3.61043   7.00084   1.86498   0.01287   1.007E+00   1.830E-03  -8.758E-03
 688  8.41562953   0.707  -1.05085   3.61043   7.00081   1.86497   0.01280   1.007E+00   1.818E-03  -8.723E-03
 689  8.41687521   0.707  -1.05085   3.61042   7.00079   1.86495   0.01274   1.007E+00   1.807E-03  -8.688E-03
 690  8.41811732   0.707  -1.05084   3.61042   7.00076   1.86494   0.01267   1.007E+00   1.796E-03  -8.652E-03
 691  8.41935589   0.707  -1.05084   3.61042   7.00074   1.86492   0.01261   1.007E+00   1.784E-03  -8.617E-03
 692  8.42059094   0.707  -1.05083   3.61041   7.00071   1.86491   0.01254   1.007E+00   1.773E-03  -8.582E-03
 693  8.42182249   0.707  -1.05083   3.61041   7.00069   1.86489   0.01248   1.007E+00   1.762E-03  -8.546E-03
 694  8.42305055   0.707  -1.05083   3.61041   7.00066   1.86488   0.01242   1.007E+00   1.750E-03  -8.511E-03
 695  8.42427515   0.707  -1.05082   3.61040   7.00064   1.86486   0.01235   1.007E+00   1.739E-03  -8.475E-03
 696  8.42549631   0.707  -1.05082   3.61040   7.00061   1.86485   0.01229   1.007E+00   1.728E-03  -8.440E-03
 697  8.42671405   0.707  -1.05081   3.61039   7.00059   1.86483   0.01222   1.007E+00   1.716E-03  -8.405E-03
 698  8.42792838   0.707  -1.05081   3.61039   7.00056   1.86482   0.01216   1.007E+00   1.705E-03  -8.369E-03
 699  8.42913932   0.707  -1.05080   3.61039   7.00054   1.86480   0.01210   1.007E+00   1.694E-03  -8.334E-03
 700  8.43034690   0.707  -1.05080   3.61038   7.00051   1.86479   0.01203   1.007E+00   1.682E-03  -8.299E-03
 701  8.43155113   0.707  -1.05079   3.61038   7.00049   1.86478   0.01197   1.007E+00   1.671E-03  -8.263E-03
 702  8.43275202   0.707  -1.05079   3.61037   7.00046   1.86476   0.01190   1.007E+00   1.660E-03  -8.228E-03
 703  8.43394961   0.707  -1.05079   3.61037   7.00044   1.86475   0.01184   1.007E+00   1.648E-03  -8.192E-03
 704  8.43514390   0.707  -1.05078   3.61037   7.00041   1.86473   0.01177   1.007E+00   1.637E-03  -8.157E-03
 705  8.43633492   0.707  -1.05078   3.61036   7.00039   1.86472   0.01171   1.007E+00   1.626E-03  -8.122E-03
 706  8.43752268   0.707  -1.05077   3.61036   7.00037   1.86470   0.01165   1.007E+00   1.614E-03  -8.086E-03
 707  8.43870720   0.707  -1.05077   3.61035   7.00034   1.86469   0.01158   1.007E+00   1.603E-03  -8.051E-03
 708  8.43988850   0.707  -1.05076   3.61035   7.00032   1.86467   0.01152   1.007E+00   1.592E-03  -8.016E-03
 709  8.44106660   0.707  -1.05076   3.61035   7.00029   1.86466   0.01145   1.007E+00   1.580E-03  -7.980E-03
 710  8.44224151   0.707  -1.05076   3.61034   7.00027   1.86464   0.01139   1.007E+00   1.569E-03  -7.945E-03
 711  8.44341324   0.707  -1.05075   3.61034   7.00024   1.86463   0.01133   1.007E+00   1.558E-03  -7.910E-03
 712  8.44458183   0.707  -1.05075   3.61034   7.00022   1.86461   0.01126   1.007E+00   1.546E-03  -7.874E-03
 713  8.44574728   0.707  -1.05074   3.61033   7.00019   1.86460   0.01120   1.007E+00   1.535E-03  -7.839E-03
 714  8.44690961   0.707  -1.05074   3.61033   7.00017   1.86459   0.01113   1.007E+00   1.524E-03  -7.803E-03
 715  8.44806883   0.707  -1.05073   3.61032   7.00014   1.86457   0.01107   1.007E+00   1.512E-03  -7.768E-03
 716  8.44922498   0.707  -1.05073   3.61032   7.00012   1.86456   0.01100   1.007E+00   1.501E-03  -7.733E-03
 717  8.45037805   0.707  -1.05073   3.61032   7.00009   1.86454   0.01094   1.006E+00   1.490E-03  -7.697E-03
 718  8.45152807   0.707  -1.05072   3.61031   7.00007   1.86453   0.01088   1.006E+00   1.478E-03  -7.662E-03
 719  8.45267505   0.707  -1.05072   3.61031   7.00004   1.86451   0.01081   1.006E+00   1.467E-03  -7.627E-03
 720  8.45381901   0.707  -1.05071   3.61030   7.00002   1.86450   0.01075   1.006E+00   1.456E-03  -7.591E-03
 721  8.45495996   0.707  -1.05071   3.61030   6.99999   1.86448   0.01068   1.006E+00   1.444E-03  -7.556E-03
 722  8.45609793   0.707  -1.05070   3.61030   6.99997   1.86447   0.01062   1.006E+00   1.433E-03  -7.521E-03
 723  8.45723292   0.706  -1.05070   3.61029   6.99994   1.86445   0.01056   1.006E+00   1.422E-03  -7.485E-03
 724  8.45836495   0.706  -1.05070   3.61029   6.99992   1.86444   0.01049   1.006E+00   1.410E-03  -7.450E-03
 725  8.45949404   0.706  -1.05069   3.61029   6.99989   1.86442   0.01043   1.006E+00   1.399E-03  -7.414E-03
 726  8.46062020   0.706  -1.05069   3.61028   6.99987   1.86441   0.01036   1.006E+00   1.388E-03  -7.379E-03
 727  8.46174345   0.706  -1.05068   3.61028   6.99984   1.86440   0.01030   1.006E+00   1.376E-03  -7.344E-03
 728  8.46286380   0.706  -1.05068   3.61027   6.99982   1.86438   0.01024   1.006E+00   1.365E-03  -7.308E-03
 729  8.46398127   0.706  -1.05067   3.61027   6.99979   1.86437   0.01017   1.006E+00   1.354E-03  -7.273E-03
 730  8.46509587   0.706  -1.05067   3.61027   6.99977   1.86435   0.01011   1.006E+00   1.342E-03  -7.238E-03
 731  8.46620762   0.706  -1.05067   3.61026   6.99974   1.86434   0.01004   1.006E+00   1.331E-03  -7.202E-03
 732  8.46731652   0.706  -1.05066   3.61026   6.99972   1.86432   0.00998   1.006E+00   1.320E-03  -7.167E-03
 733  8.46842261   0.706  -1.05066   3.61025   6.99969   1.86431   0.00991   1.006E+00   1.308E-03  -7.131E-03
 734  8.46952588   0.706  -1.05065   3.61025   6.99967   1.86429   0.00985   1.006E+00   1.297E-03  -7.096E-03
 735  8.47062636   0.706  -1.05065   3.61025   6.99965   1.86428   0.00979   1.006E+00   1.285E-03  -7.061E-03
 736  8.47172406   0.706  -1.05064   3.61024   6.99962   1.86426   0.00972   1.006E+00   1.274E-03  -7.025E-03
 737  8.47281899   0.706  -1.05064   3.61024   6.99960   1.86425   0.00966   1.006E+00   1.263E-03  -6.990E-03
 738  8.47391117   0.706  -1.05064   3.61024   6.99957   1.86423   0.00959   1.006E+00   1.251E-03  -6.955E-03
 739  8.47500060   0.706  -1.05063   3.61023   6.99955   1.86422   0.00953   1.006E+00   1.240E-03  -6.919E-03
 740  8.47608731   0.706  -1.05063   3.61023   6.99952   1.86421   0.00947   1.006E+00   1.229E-03  -6.884E-03
 741  8.47717131   0.706  -1.05062   3.61022   6.99950   1.86419   0.00940   1.006E+00   1.217E-03  -6.849E-03
 742  8.47825261   0.706  -1.05062   3.61022   6.99947   1.86418   0.00934   1.006E+00   1.206E-03  -6.813E-03
 743  8.47933122   0.706  -1.05061   3.61022   6.99945   1.86416   0.00927   1.006E+00   1.195E-03  -6.778E-03
 744  8.48040716   0.706  -1.05061   3.61021   6.99942   1.86415   0.00921   1.006E+00   1.183E-03  -6.742E-03
 745  8.48148045   0.706  -1.05061   3.61021   6.99940   1.86413   0.00914   1.006E+00   1.172E-03  -6.707E-03
 746  8.48255108   0.706  -1.05060   3.61020   6.99937   1.86412   0.00908   1.005E+00   1.161E-03  -6.672E-03
 747  8.48361909   0.706  -1.05060   3.61020   6.99935   1.86410   0.00902   1.005E+00   1.149E-03  -6.636E-03
 748  8.48468447   0.706  -1.05059   3.61020   6.99932   1.86409   0.00895   1.005E+00   1.138E-03  -6.601E-03
 749  8.48574725   0.706  -1.05059   3.61019   6.99930   1.86407   0.00889   1.005E+00   1.127E-03  -6.566E-03
 750  8.48680743   0.706  -1.05058   3.61019   6.99927   1.86406   0.00882   1.005E+00   1.115E-03  -6.530E-03
 751  8.48786503   0.706  -1.05058   3.61019   6.99925   1.86404   0.00876   1.005E+00   1.104E-03  -6.495E-03
 752  8.48892006   0.706  -1.05058   3.61018   6.99922   1.86403   0.00870   1.005E+00   1.093E-03  -6.459E-03
 753  8.48997254   0.706  -1.05057   3.61018   6.99920   1.86402   0.00863   1.005E+00   1.081E-03  -6.424E-03
 754  8.49102247   0.706  -1.05057   3.61017   6.99917   1.86400   0.00857   1.005E+00   1.070E-03  -6.389E-03
 755  8.49206986   0.706  -1.05056   3.61017   6.99915   1.86399   0.00850   1.005E+00   1.059E-03  -6.353E-03
 756  8.49311474   0.706  -1.05056   3.61017   6.99912   1.86397   0.00844   1.005E+00   1.047E-03  -6.318E-03
 757  8.49415711   0.706  -1.05055   3.61016   6.99910   1.86396   0.00837   1.005E+00   1.036E-03  -6.283E-03
 758  8.49519699   0.706  -1.05055   3.61016   6.99907   1.86394   0.00831   1.005E+00   1.025E-03  -6.247E-03
 759  8.49623438   0.706  -1.05055   3.61015   6.99905   1.86393   0.00825   1.005E+00   1.013E-03  -6.212E-03
 760  8.49726929   0.706  -1.05054   3.61015   6.99902   1.86391   0.00818   1.005E+00   1.002E-03  -6.177E-03
 761  8.49830175   0.706  -1.05054   3.61015   6.99901   1.86391   0.00814   1.005E+00   1.000E-03  -6.156E-03
 762  8.49933176   0.706  -1.05053   3.61015   6.99899   1.86390   0.00811   1.005E+00   1.000E-03  -6.139E-03
 763  8.50035933   0.706  -1.05052   3.61014   6.99898   1.86390   0.00808   1.005E+00   1.000E-03  -6.123E-03
 764  8.50138448   0.706  -1.05052   3.61014   6.99896   1.86389   0.00804   1.005E+00   1.000E-03  -6.106E-03
 765  8.50240721   0.706  -1.05051   3.61014   6.99894   1.86388   0.00801   1.005E+00   1.000E-03  -6.089E-03
 766  8.50342754   0.706  -1.05051   3.61014   6.99893   1.86388   0.00797   1.005E+00   1.000E-03  -6.072E-03
 767  8.50444548   0.706  -1.05050   3.61014   6.99891   1.86387   0.00794   1.005E+00   1.000E-03  -6.055E-03
 768  8.50546104   0.706  -1.05050   3.61013   6.99890   1.86387   0.00791   1.005E+00   1.000E-03  -6.038E-03
 769  8.50647422   0.706  -1.05049   3.61013   6.99888   1.86386   0.00787   1.005E+00   1.000E-03  -6.021E-03
 770  8.50748505   0.706  -1.05049   3.61013   6.99887   1.86386   0.00784   1.005E+00   1.000E-03  -6.005E-03
 771  8.50849354   0.706  -1.05048   3.61013   6.99885   1.86385   0.00781   1.005E+00   1.000E-03  -5.988E-03
 772  8.50949968   0.706  -1.05048   3.61013   6.99884   1.86385   0.00777   1.005E+00   1.000E-03  -5.971E-03
 773  8.51050350   0.706  -1.05047   3.61012   6.99882   1.86384   0.00774   1.005E+00   1.000E-03  -5.954E-03
 774  8.51150501   0.706  -1.05047   3.61012   6.99880   1.86384   0.00771   1.005E+00   1.000E-03  -5.937E-03
 775  8.51250421   0.706  -1.05046   3.61012   6.99879   1.86383   0.00767   1.005E+00   1.000E-03  -5.920E-03
 776  8.51350112   0.706  -1.05046   3.61012   6.99877   1.86383   0.00764   1.005E+00   1.000E-03  -5.903E-03
 777  8.51449575   0.706  -1.05045   3.61011   6.99876   1.86382   0.00760   1.005E+00   1.000E-03  -5.887E-03
 778  8.51548810   0.706  -1.05044   3.61011   6.99874   1.86382   0.00757   1.005E+00   1.000E-03  -5.870E-03
 779  8.51647819   0.706  -1.05044   3.61011   6.99873   1.86381   0.00754   1.005E+00   1.000E-03  -5.853E-03
 780  8.51746603   0.706  -1.05043   3.61011   6.99871   1.86381   0.00750   1.005E+00   1.000E-03  -5.836E-03
 781  8.51845162   0.706  -1.05043   3.61011   6.99869   1.86380   0.00747   1.005E+00   1.000E-03  -5.819E-03
 782  8.51943499   0.706  -1.05042   3.61010   6.99868   1.86379   0.00744   1.005E+00   1.000E-03  -5.802E-03
 783  8.52041613   0.706  -1.05042   3.61010   6.99866   1.86379   0.00740   1.005E+00   1.000E-03  -5.786E-03
 784  8.52139506   0.706  -1.05041   3.61010   6.99865   1.86378   0.00737   1.005E+00   1.000E-03  -5.769E-03
 785  8.52237179   0.706  -1.05041   3.61010   6.99863   1.86378   0.00734   1.005E+00   1.000E-03  -5.752E-03
 786  8.52334633   0.706  -1.05040   3.61010   6.99862   1.86377   0.00730   1.005E+00   1.000E-03  -5.735E-03
 787  8.52431869   0.706  -1.05040   3.61009   6.99860   1.86377   0.00727   1.005E+00   1.000E-03  -5.718E-03
 788  8.52528887   0.706  -1.05039   3.61009   6.99858   1.86376   0.00723   1.005E+00   1.000E-03  -5.701E-03
 789  8.52625689   0.706  -1.05039   3.61009   6.99857   1.86376   0.00720   1.005E+00   1.000E-03  -5.684E-03
 790  8.52722276   0.706  -1.05038   3.61009   6.99855   1.86375   0.00717   1.005E+00   1.000E-03  -5.668E-03
 791  8.52818648   0.706  -1.05037   3.61008   6.99854   1.86375   0.00713   1.005E+00   1.000E-03  -5.651E-03
 792  8.52914808   0.706  -1.05037   3.61008   6.99852   1.86374   0.00710   1.005E+00   1.000E-03  -5.634E-03
 793  8.53010754   0.706  -1.05036   3.61008   6.99851   1.86374   0.00707   1.005E+00   1.000E-03  -5.617E-03
 794  8.53106489   0.706  -1.05036   3.61008   6.99849   1.86373   0.00703   1.004E+00   1.000E-03  -5.600E-03
 795  8.53202014   0.706  -1.05035   3.61008   6.99848   1.86373   0.00700   1.004E+00   1.000E-03  -5.583E-03
 796  8.53297329   0.706  -1.05035   3.61007   6.99846   1.86372   0.00697   1.004E+00   1.000E-03  -5.566E-03
 797  8.53392435   0.706  -1.05034   3.61007   6.99844   1.86372   0.00693   1.004E+00   1.000E-03  -5.550E-03
 798  8.53487334   0.706  -1.05034   3.61007   6.99843   1.86371   0.00690   1.004E+00   1.000E-03  -5.533E-03
 799  8.53582025   0.706  -1.05033   3.61007   6.99841   1.86370   0.00686   1.004E+00   1.000E-03  -5.516E-03
 800  8.53676511   0.706  -1.05033   3.61007   6.99840   1.86370   0.00683   1.004E+00   1.000E-03  -5.499E-03
 801  8.53770791   0.706  -1.05032   3.61006   6.99838   1.86369   0.00680   1.004E+00   1.000E-03  -5.482E-03
 802  8.53864867   0.706  -1.05032   3.61006   6.99837   1.86369   0.00676   1.004E+00   1.000E-03  -5.465E-03
 803  8.53958740   0.706  -1.05031   3.61006   6.99835   1.86368   0.00673   1.004E+00   1.000E-03  -5.448E-03
 804  8.54052410   0.705  -1.05030   3.61006   6.99833   1.86368   0.00670   1.004E+00   1.000E-03  -5.432E-03
 805  8.54145879   0.705  -1.05030   3.61006   6.99832   1.86367   0.00666   1.004E+00   1.000E-03  -5.415E-03
 806  8.54239147   0.705  -1.05029   3.61005   6.99830   1.86367   0.00663   1.004E+00   1.000E-03  -5.398E-03
 807  8.54332215   0.705  -1.05029   3.61005   6.99829   1.86366   0.00660   1.004E+00   1.000E-03  -5.381E-03
 808  8.54425084   0.705  -1.05028   3.61005   6.99827   1.86366   0.00656   1.004E+00   1.000E-03  -5.364E-03
 809  8.54517755   0.705  -1.05028   3.61005   6.99826   1.86365   0.00653   1.004E+00   1.000E-03  -5.347E-03
 810  8.54610229   0.705  -1.05027   3.61004   6.99824   1.86365   0.00649   1.004E+00   1.000E-03  -5.331E-03
 811  8.54702506   0.705  -1.05027   3.61004   6.99823   1.86364   0.00646   1.004E+00   1.000E-03  -5.314E-03
 812  8.54794588   0.705  -1.05026   3.61004   6.99821   1.86364   0.00643   1.004E+00   1.000E-03  -5.297E-03
 813  8.54886474   0.705  -1.05026   3.61004   6.99819   1.86363   0.00639   1.004E+00   1.000E-03  -5.280E-03
 814  8.54978167   0.705  -1.05025   3.61004   6.99818   1.86363   0.00636   1.004E+00   1.000E-03  -5.263E-03
 815  8.55069666   0.705  -1.05025   3.61003   6.99816   1.86362   0.00633   1.004E+00   1.000E-03  -5.246E-03
 816  8.55160974   0.705  -1.05024   3.61003   6.99815   1.86361   0.00629   1.004E+00   1.000E-03  -5.229E-03
 817  8.55252089   0.705  -1.05024   3.61003   6.99813   1.86361   0.00626   1.004E+00   1.000E-03  -5.213E-03
 818  8.55343014   0.705  -1.05023   3.61003   6.99812   1.86360   0.00623   1.004E+00   1.000E-03  -5.196E-03
 819  8.55433749   0.705  -1.05022   3.61003   6.99810   1.86360   0.00619   1.004E+00   1.000E-03  -5.179E-03
 820  8.55524294   0.705  -1.05022   3.61002   6.99808   1.86359   0.00616   1.004E+00   1.000E-03  -5.162E-03
 821  8.55614652   0.705  -1.05021   3.61002   6.99807   1.86359   0.00612   1.004E+00   1.000E-03  -5.145E-03
 822  8.55704821   0.705  -1.05021   3.61002   6.99805   1.86358   0.00609   1.004E+00   1.000E-03  -5.128E-03
 823  8.55794804   0.705  -1.05020   3.61002   6.99804   1.86358   0.00606   1.004E+00   1.000E-03  -5.111E-03
 824  8.55884601   0.705  -1.05020   3.61001   6.99802   1.86357   0.00602   1.004E+00   1.000E-03  -5.095E-03
 825  8.55974213   0.705  -1.05019   3.61001   6.99801   1.86357   0.00599   1.004E+00   1.000E-03  -5.078E-03
 826  8.56063640   0.705  -1.05019   3.61001   6.99799   1.86356   0.00596   1.004E+00   1.000E-03  -5.061E-03
 827  8.56152883   0.705  -1.05018   3.61001   6.99797   1.86356   0.00592   1.004E+00   1.000E-03  -5.044E-03
 828  8.56241943   0.705  -1.05018   3.61001   6.99796   1.86355   0.00589   1.004E+00   1.000E-03  -5.027E-03
 829  8.56330821   0.705  -1.05017   3.61000   6.99794   1.86355   0.00586   1.004E+00   1.000E-03  -5.010E-03
 830  8.56419517   0.705  -1.05017   3.61000   6.99793   1.86354   0.00582   1.004E+00   1.000E-03  -4.993E-03
 831  8.56508033   0.705  -1.05016   3.61000   6.99791   1.86354   0.00579   1.004E+00   1.000E-03  -4.977E-03
 832  8.56596369   0.705  -1.05015   3.61000   6.99790   1.86353   0.00575   1.004E+00   1.000E-03  -4.960E-03
 833  8.56684525   0.705  -1.05015   3.61000   6.99788   1.86352   0.00572   1.004E+00   1.000E-03  -4.943E-03
 834  8.56772503   0.705  -1.05014   3.60999   6.99787   1.86352   0.00569   1.004E+00   1.000E-03  -4.926E-03
 835  8.56860302   0.705  -1.05014   3.60999   6.99785   1.86351   0.00565   1.004E+00   1.000E-03  -4.909E-03
 836  8.56947925   0.705  -1.05013   3.60999   6.99783   1.86351   0.00562   1.004E+00   1.000E-03  -4.892E-03
 837  8.57035371   0.705  -1.05013   3.60999   6.99782   1.86350   0.00559   1.004E+00   1.000E-03  -4.875E-03
 838  8.57122642   0.705  -1.05012   3.60999   6.99780   1.86350   0.00555   1.004E+00   1.000E-03  -4.859E-03
 839  8.57209738   0.705  -1.05012   3.60998   6.99779   1.86349   0.00552   1.004E+00   1.000E-03  -4.842E-03
 840  8.57296659   0.705  -1.05011   3.60998   6.99777   1.86349   0.00549   1.004E+00   1.000E-03  -4.825E-03
 841  8.57383406   0.705  -1.05011   3.60998   6.99776   1.86348   0.00545   1.004E+00   1.000E-03  -4.808E-03
 842  8.57469981   0.705  -1.05010   3.60998   6.99774   1.86348   0.00542   1.004E+00   1.000E-03  -4.791E-03
 843  8.57556384   0.705  -1.05010   3.60997   6.99772   1.86347   0.00539   1.004E+00   1.000E-03  -4.774E-03
 844  8.57642614   0.705  -1.05009   3.60997   6.99771   1.86347   0.00535   1.004E+00   1.000E-03  -4.758E-03
 845  8.57728674   0.705  -1.05008   3.60997   6.99769   1.86346   0.00532   1.004E+00   1.000E-03  -4.741E-03
 846  8.57814564   0.705  -1.05008   3.60997   6.99768   1.86346   0.00528   1.004E+00   1.000E-03  -4.724E-03
 847  8.57900285   0.705  -1.05007   3.60997   6.99766   1.86345   0.00525   1.004E+00   1.000E-03  -4.707E-03
 848  8.57985836   0.705  -1.05007   3.60996   6.99765   1.86345   0.00522   1.004E+00   1.000E-03  -4.690E-03
 849  8.58071219   0.705  -1.05006   3.60996   6.99763   1.86344   0.00518   1.004E+00   1.000E-03  -4.673E-03
 850  8.58156435   0.705  -1.05006   3.60996   6.99762   1.86343   0.00515   1.004E+00   1.000E-03  -4.656E-03
 851  8.58241484   0.705  -1.05005   3.60996   6.99760   1.86343   0.00512   1.004E+00   1.000E-03  -4.640E-03
 852  8.58326366   0.705  -1.05005   3.60996   6.99758   1.86342   0.00508   1.004E+00   1.000E-03  -4.623E-03
 853  8.58411083   0.705  -1.05004   3.60995   6.99757   1.86342   0.00505   1.004E+00   1.000E-03  -4.606E-03
 854  8.58495635   0.705  -1.05004   3.60995   6.99755   1.86341   0.00502   1.004E+00   1.000E-03  -4.589E-03
 855  8.58580023   0.705  -1.05003   3.60995   6.99754   1.86341   0.00498   1.004E+00   1.000E-03  -4.572E-03
 856  8.58664247   0.705  -1.05003   3.60995   6.99752   1.86340   0.00495   1.004E+00   1.000E-03  -4.555E-03
 857  8.58748308   0.705  -1.05002   3.60995   6.99751   1.86340   0.00491   1.004E+00   1.000E-03  -4.538E-03
 858  8.58832207   0.705  -1.05002   3.60994   6.99749   1.86339   0.00488   1.004E+00   1.000E-03  -4.522E-03
 859  8.58915944   0.705  -1.05001   3.60994   6.99747   1.86339   0.00485   1.004E+00   1.000E-03  -4.505E-03
 860  8.58999520   0.705  -1.05000   3.60994   6.99746   1.86338   0.00481   1.003E+00   1.000E-03  -4.488E-03
 861  8.59082935   0.705  -1.05000   3.60994   6.99744   1.86338   0.00478   1.003E+00   1.000E-03  -4.471E-03
 862  8.59166191   0.705  -1.04999   3.60993   6.99743   1.86337   0.00475   1.003E+00   1.000E-03  -4.454E-03
 863  8.59249287   0.705  -1.04999   3.60993   6.99741   1.86337   0.00471   1.003E+00   1.000E-03  -4.437E-03
 864  8.59332224   0.705  -1.04998   3.60993   6.99740   1.86336   0.00468   1.003E+00   1.000E-03  -4.420E-03
 865  8.59415003   0.705  -1.04998   3.60993   6.99738   1.86336   0.00465   1.003E+00   1.000E-03  -4.404E-03
 866  8.59497625   0.705  -1.04997   3.60993   6.99736   1.86335   0.00461   1.003E+00   1.000E-03  -4.387E-03
 867  8.59580090   0.705  -1.04997   3.60992   6.99735   1.86334   0.00458   1.003E+00   1.000E-03  -4.370E-03
 868  8.59662399   0.705  -1.04996   3.60992   6.99733   1.86334   0.00454   1.003E+00   1.000E-03  -4.353E-03
 869  8.59744552   0.705  -1.04996   3.60992   6.99732   1.86333   0.00451   1.003E+00   1.000E-03  -4.336E-03
 870  8.59826549   0.705  -1.04995   3.60992   6.99730   1.86333   0.00448   1.003E+00   1.000E-03  -4.319E-03
 871  8.59908393   0.705  -1.04995   3.60992   6.99729   1.86332   0.00444   1.003E+00   1.000E-03  -4.303E-03
 872  8.59990082   0.705  -1.04994   3.60991   6.99727   1.86332   0.00441   1.003E+00   1.000E-03  -4.286E-03
 873  8.60071618   0.705  -1.04993   3.60991   6.99726   1.86331   0.00438   1.003E+00   1.000E-03  -4.269E-03
 874  8.60153001   0.705  -1.04993   3.60991   6.99724   1.86331   0.00434   1.003E+00   1.000E-03  -4.252E-03
 875  8.60234232   0.705  -1.04992   3.60991   6.99722   1.86330   0.00431   1.003E+00   1.000E-03  -4.235E-03
 876  8.60315312   0.705  -1.04992   3.60990   6.99721   1.86330   0.00428   1.003E+00   1.000E-03  -4.218E-03
 877  8.60396240   0.705  -1.04991   3.60990   6.99719   1.86329   0.00424   1.003E+00   1.000E-03  -4.201E-03
 878  8.60477018   0.705  -1.04991   3.60990   6.99718   1.86329   0.00421   1.003E+00   1.000E-03  -4.185E-03
 879  8.60557645   0.705  -1.04990   3.60990   6.99716   1.86328   0.00417   1.003E+00   1.000E-03  -4.168E-03
 880  8.60638124   0.705  -1.04990   3.60990   6.99715   1.86328   0.00414   1.003E+00   1.000E-03  -4.151E-03
 881  8.60718453   0.705  -1.04989   3.60989   6.99713   1.86327   0.00411   1.003E+00   1.000E-03  -4.134E-03
 882  8.60798634   0.705  -1.04989   3.60989   6.99711   1.86327   0.00407   1.003E+00   1.000E-03  -4.117E-03
 883  8.60878668   0.705  -1.04988   3.60989   6.99710   1.86326   0.00404   1.003E+00   1.000E-03  -4.100E-03
 884  8.60958554   0.704  -1.04988   3.60989   6.99708   1.86326   0.00401   1.003E+00   1.000E-03  -4.083E-03
 885  8.61038293   0.704  -1.04987   3.60989   6.99707   1.86325   0.00397   1.003E+00   1.000E-03  -4.067E-03
 886  8.61117887   0.704  -1.04986   3.60988   6.99705   1.86324   0.00394   1.003E+00   1.000E-03  -4.050E-03
 887  8.61197335   0.704  -1.04986   3.60988   6.99704   1.86324   0.00391   1.003E+00   1.000E-03  -4.033E-03
 888  8.61276637   0.704  -1.04985   3.60988   6.99702   1.86323   0.00387   1.003E+00   1.000E-03  -4.016E-03
 889  8.61355795   0.704  -1.04985   3.60988   6.99700   1.86323   0.00384   1.003E+00   1.000E-03  -3.999E-03
 890  8.61434810   0.704  -1.04984   3.60988   6.99699   1.86322   0.00380   1.003E+00   1.000E-03  -3.982E-03
 891  8.61513680   0.704  -1.04984   3.60987   6.99697   1.86322   0.00377   1.003E+00   1.000E-03  -3.965E-03
 892  8.61592408   0.704  -1.04983   3.60987   6.99696   1.86321   0.00374   1.003E+00   1.000E-03  -3.949E-03
 893  8.61670993   0.704  -1.04983   3.60987   6.99695   1.86321   0.00371   1.003E+00   1.000E-03  -3.937E-03
 894  8.61749436   0.704  -1.04982   3.60987   6.99694   1.86321   0.00370   1.003E+00   1.000E-03  -3.929E-03
 895  8.61827738   0.704  -1.04982   3.60987   6.99693   1.86321   0.00369   1.003E+00   1.000E-03  -3.922E-03
 896  8.61905899   0.704  -1.04981   3.60987   6.99692   1.86320   0.00367   1.003E+00   1.000E-03  -3.915E-03
 897  8.61983920   0.704  -1.04981   3.60986   6.99691   1.86320   0.00366   1.003E+00   1.000E-03  -3.908E-03
 898  8.62061800   0.704  -1.04980   3.60986   6.99690   1.86320   0.00365   1.003E+00   1.000E-03  -3.901E-03
 899  8.62139541   0.704  -1.04980   3.60986   6.99689   1.86320   0.00363   1.003E+00   1.000E-03  -3.894E-03
 900  8.62217144   0.704  -1.04979   3.60986   6.99688   1.86320   0.00362   1.003E+00   1.000E-03  -3.886E-03
 901  8.62294608   0.704  -1.04979   3.60986   6.99687   1.86320   0.00361   1.003E+00   1.000E-03  -3.879E-03
 902  8.62371934   0.704  -1.04978   3.60986   6.99686   1.86320   0.00359   1.003E+00   1.000E-03  -3.872E-03
 903  8.62449122   0.704  -1.04978   3.60986   6.99685   1.86319   0.00358   1.003E+00   1.000E-03  -3.865E-03
 904  8.62526174   0.704  -1.04977   3.60986   6.99684   1.86319   0.00356   1.003E+00   1.000E-03  -3.858E-03
 905  8.62603089   0.704  -1.04977   3.60985   6.99683   1.86319   0.00355   1.003E+00   1.000E-03  -3.851E-03
 906  8.62679868   0.704  -1.04976   3.60985   6.99682   1.86319   0.00354   1.003E+00   1.000E-03  -3.844E-03
 907  8.62756511   0.704  -1.04976   3.60985   6.99681   1.86319   0.00352   1.003E+00   1.000E-03  -3.836E-03
 908  8.62833020   0.704  -1.04975   3.60985   6.99680   1.86319   0.00351   1.003E+00   1.000E-03  -3.829E-03
 909  8.62909394   0.704  -1.04975   3.60985   6.99679   1.86318   0.00350   1.003E+00   1.000E-03  -3.822E-03
 910  8.62985634   0.704  -1.04974   3.60985   6.99678   1.86318   0.00348   1.003E+00   1.000E-03  -3.815E-03
 911  8.63061740   0.704  -1.04973   3.60985   6.99677   1.86318   0.00347   1.003E+00   1.000E-03  -3.808E-03
 912  8.63137714   0.704  -1.04973   3.60985   6.99676   1.86318   0.00346   1.003E+00   1.000E-03  -3.801E-03
 913  8.63213554   0.704  -1.04972   3.60984   6.99675   1.86318   0.00344   1.003E+00   1.000E-03  -3.793E-03
 914  8.63289263   0.704  -1.04972   3.60984   6.99675   1.86318   0.00343   1.003E+00   1.000E-03  -3.786E-03
 915  8.63364839   0.704  -1.04971   3.60984   6.99674   1.86317   0.00342   1.003E+00   1.000E-03  -3.779E-03
 916  8.63440284   0.704  -1.04971   3.60984   6.99673   1.86317   0.00340   1.003E+00   1.000E-03  -3.772E-03
 917  8.63515599   0.704  -1.04970   3.60984   6.99672   1.86317   0.00339   1.003E+00   1.000E-03  -3.765E-03
 918  8.63590783   0.704  -1.04970   3.60984   6.99671   1.86317   0.00338   1.003E+00   1.000E-03  -3.758E-03
 919  8.63665837   0.704  -1.04969   3.60984   6.99670   1.86317   0.00336   1.003E+00   1.000E-03  -3.750E-03
 920  8.63740762   0.704  -1.04969   3.60984   6.99669   1.86317   0.00335   1.003E+00   1.000E-03  -3.743E-03
 921  8.63815557   0.704  -1.04968   3.60983   6.99668   1.86317   0.00334   1.003E+00   1.000E-03  -3.736E-03
 922  8.63890225   0.704  -1.04968   3.60983   6.99667   1.86316   0.00332   1.003E+00   1.000E-03  -3.729E-03
 923  8.63964763   0.704  -1.04967   3.60983   6.99666   1.86316   0.00331   1.003E+00   1.000E-03  -3.722E-03
 924  8.64039175   0.704  -1.04967   3.60983   6.99665   1.86316   0.00329   1.003E+00   1.000E-03  -3.715E-03
 925  8.64113458   0.704  -1.04966   3.60983   6.99664   1.86316   0.00328   1.003E+00   1.000E-03  -3.708E-03
 926  8.64187616   0.704  -1.04966   3.60983   6.99663   1.86316   0.00327   1.003E+00   1.000E-03  -3.700E-03
 927  8.64261646   0.704  -1.04965   3.60983   6.99662   1.86316   0.00325   1.003E+00   1.000E-03  -3.693E-03
 928  8.64335551   0.704  -1.04965   3.60983   6.99661   1.86315   0.00324   1.003E+00   1.000E-03  -3.686E-03
 929  8.64409330   0.704  -1.04964   3.60982   6.99660   1.86315   0.00323   1.003E+00   1.000E-03  -3.679E-03
 930  8.64482984   0.704  -1.04964   3.60982   6.99659   1.86315   0.00321   1.003E+00   1.000E-03  -3.672E-03
 931  8.64556513   0.704  -1.04963   3.60982   6.99658   1.86315   0.00320   1.003E+00   1.000E-03  -3.665E-03
 932  8.64629918   0.704  -1.04963   3.60982   6.99657   1.86315   0.00319   1.003E+00   1.000E-03  -3.657E-03
 933  8.64703199   0.704  -1.04962   3.60982   6.99656   1.86315   0.00317   1.003E+00   1.000E-03  -3.650E-03
 934  8.64776357   0.704  -1.04962   3.60982   6.99655   1.86315   0.00316   1.003E+00   1.000E-03  -3.643E-03
 935  8.64849392   0.704  -1.04961   3.60982   6.99655   1.86314   0.00315   1.003E+00   1.000E-03  -3.636E-03
 936  8.64922304   0.704  -1.04961   3.60982   6.99654   1.86314   0.00313   1.003E+00   1.000E-03  -3.629E-03
 937  8.64995094   0.704  -1.04960   3.60981   6.99653   1.86314   0.00312   1.003E+00   1.000E-03  -3.622E-03
 938  8.65067762   0.704  -1.04960   3.60981   6.99652   1.86314   0.00311   1.003E+00   1.000E-03  -3.615E-03
 939  8.65140308   0.704  -1.04959   3.60981   6.99651   1.86314   0.00309   1.003E+00   1.000E-03  -3.607E-03
 940  8.65212734   0.704  -1.04959   3.60981   6.99650   1.86314   0.00308   1.003E+00   1.000E-03  -3.600E-03
 941  8.65285039   0.704  -1.04958   3.60981   6.99649   1.86313   0.00307   1.003E+00   1.000E-03  -3.593E-03
 942  8.65357224   0.704  -1.04958   3.60981   6.99648   1.86313   0.00305   1.003E+00   1.000E-03  -3.586E-03
 943  8.65429289   0.704  -1.04957   3.60981   6.99647   1.86313   0.00304   1.002E+00   1.000E-03  -3.579E-03
 944  8.65501235   0.704  -1.04957   3.60981   6.99646   1.86313   0.00302   1.002E+00   1.000E-03  -3.572E-03
 945  8.65573062   0.704  -1.04956   3.60980   6.99645   1.86313   0.00301   1.002E+00   1.000E-03  -3.564E-03
 946  8.65644770   0.704  -1.04956   3.60980   6.99644   1.86313   0.00300   1.002E+00   1.000E-03  -3.557E-03
 947  8.65716360   0.704  -1.04955   3.60980   6.99643   1.86312   0.00298   1.002E+00   1.000E-03  -3.550E-03
 948  8.65787832   0.704  -1.04954   3.60980   6.99642   1.86312   0.00297   1.002E+00   1.000E-03  -3.543E-03
 949  8.65859187   0.704  -1.04954   3.60980   6.99641   1.86312   0.00296   1.002E+00   1.000E-03  -3.536E-03
 950  8.65930425   0.704  -1.04953   3.60980   6.99640   1.86312   0.00294   1.002E+00   1.000E-03  -3.529E-03
 951  8.66001546   0.704  -1.04953   3.60980   6.99639   1.86312   0.00293   1.002E+00   1.000E-03  -3.522E-03
 952  8.66072550   0.704  -1.04952   3.60980   6.99638   1.86312   0.00292   1.002E+00   1.000E-03  -3.514E-03
 953  8.66143439   0.704  -1.04952   3.60979   6.99637   1.86312   0.00290   1.002E+00   1.000E-03  -3.507E-03
 954  8.66214213   0.704  -1.04951   3.60979   6.99636   1.86311   0.00289   1.002E+00   1.000E-03  -3.500E-03
 955  8.66284871   0.704  -1.04951   3.60979   6.99635   1.86311   0.00288   1.002E+00   1.000E-03  -3.493E-03
 956  8.66355414   0.704  -1.04950   3.60979   6.99635   1.86311   0.00286   1.002E+00   1.000E-03  -3.486E-03
 957  8.66425843   0.704  -1.04950   3.60979   6.99634   1.86311   0.00285   1.002E+00   1.000E-03  -3.479E-03
 958  8.66496158   0.704  -1.04949   3.60979   6.99633   1.86311   0.00284   1.002E+00   1.000E-03  -3.471E-03
 959  8.66566360   0.704  -1.04949   3.60979   6.99632   1.86311   0.00282   1.002E+00   1.000E-03  -3.464E-03
 960  8.66636448   0.704  -1.04948   3.60978   6.99631   1.86310   0.00281   1.002E+00   1.000E-03  -3.457E-03
 961  8.66706423   0.703  -1.04948   3.60978   6.99630   1.86310   0.00280   1.002E+00   1.000E-03  -3.450E-03
 962  8.66776285   0.703  -1.04947   3.60978   6.99629   1.86310   0.00278   1.002E+00   1.000E-03  -3.443E-03
 963  8.66846036   0.703  -1.04947   3.60978   6.99628   1.86310   0.00277   1.002E+00   1.000E-03  -3.436E-03
 964  8.66915674   0.703  -1.04946   3.60978   6.99627   1.86310   0.00275   1.002E+00   1.000E-03  -3.429E-03
 965  8.66985201   0.703  -1.04946   3.60978   6.99626   1.86310   0.00274   1.002E+00   1.000E-03  -3.421E-03
 966  8.67054617   0.703  -1.04945   3.60978   6.99625   1.86310   0.00273   1.002E+00   1.000E-03  -3.414E-03
 967  8.67123922   0.703  -1.04945   3.60978   6.99624   1.86309   0.00271   1.002E+00   1.000E-03  -3.407E-03
 968  8.67193117   0.703  -1.04944   3.60977   6.99623   1.86309   0.00270   1.002E+00   1.000E-03  -3.400E-03
 969  8.67262201   0.703  -1.04944   3.60977   6.99622   1.86309   0.00269   1.002E+00   1.000E-03  -3.393E-03
 970  8.67331176   0.703  -1.04943   3.60977   6.99621   1.86309   0.00267   1.002E+00   1.000E-03  -3.386E-03
 971  8.67400042   0.703  -1.04943   3.60977   6.99620   1.86309   0.00266   1.002E+00   1.000E-03  -3.378E-03
 972  8.67468798   0.703  -1.04942   3.60977   6.99619   1.86309   0.00265   1.002E+00   1.000E-03  -3.371E-03
 973  8.67537446   0.703  -1.04942   3.60977   6.99618   1.86308   0.00263   1.002E+00   1.000E-03  -3.364E-03
 974  8.67605985   0.703  -1.04941   3.60977   6.99617   1.86308   0.00262   1.002E+00   1.000E-03  -3.357E-03
 975  8.67674417   0.703  -1.04941   3.60977   6.99616   1.86308   0.00261   1.002E+00   1.000E-03  -3.350E-03
 976  8.67742741   0.703  -1.04940   3.60976   6.99616   1.86308   0.00259   1.002E+00   1.000E-03  -3.343E-03
 977  8.67810957   0.703  -1.04940   3.60976   6.99615   1.86308   0.00258   1.002E+00   1.000E-03  -3.336E-03
 978  8.67879067   0.703  -1.04939   3.60976   6.99614   1.86308   0.00257   1.002E+00   1.000E-03  -3.328E-03
 979  8.67947070   0.703  -1.04939   3.60976   6.99613   1.86307   0.00255   1.002E+00   1.000E-03  -3.321E-03
 980  8.68014966   0.703  -1.04938   3.60976   6.99612   1.86307   0.00254   1.002E+00   1.000E-03  -3.314E-03
 981  8.68082757   0.703  -1.04938   3.60976   6.99611   1.86307   0.00253   1.002E+00   1.000E-03  -3.307E-03
 982  8.68150442   0.703  -1.04937   3.60976   6.99610   1.86307   0.00251   1.002E+00   1.000E-03  -3.300E-03
 983  8.68218021   0.703  -1.04936   3.60976   6.99609   1.86307   0.00250   1.002E+00   1.000E-03  -3.293E-03
 984  8.68285496   0.703  -1.04936   3.60975   6.99608   1.86307   0.00248   1.002E+00   1.000E-03  -3.285E-03
 985  8.68352866   0.703  -1.04935   3.60975   6.99607   1.86307   0.00247   1.002E+00   1.000E-03  -3.278E-03
 986  8.68420131   0.703  -1.04935   3.60975   6.99606   1.86306   0.00246   1.002E+00   1.000E-03  -3.271E-03
 987  8.68487293   0.703  -1.04934   3.60975   6.99605   1.86306   0.00244   1.002E+00   1.000E-03  -3.264E-03
 988  8.68554351   0.703  -1.04934   3.60975   6.99604   1.86306   0.00243   1.002E+00   1.000E-03  -3.257E-03
 989  8.68621305   0.703  -1.04933   3.60975   6.99603   1.86306   0.00242   1.002E+00   1.000E-03  -3.250E-03
 990  8.68688157   0.703  -1.04933   3.60975   6.99602   1.86306   0.00240   1.002E+00   1.000E-03  -3.243E-03
 991  8.68754905   0.703  -1.04932   3.60975   6.99601   1.86306   0.00239   1.002E+00   1.000E-03  -3.235E-03
 992  8.68821551   0.703  -1.04932   3.60974   6.99600   1.86305   0.00238   1.002E+00   1.000E-03  -3.228E-03
 993  8.68888096   0.703  -1.04931   3.60974   6.99599   1.86305   0.00236   1.002E+00   1.000E-03  -3.221E-03
 994  8.68954538   0.703  -1.04931   3.60974   6.99598   1.86305   0.00235   1.002E+00   1.000E-03  -3.214E-03
 995  8.69020879   0.703  -1.04930   3.60974   6.99597   1.86305   0.00234   1.002E+00   1.000E-03  -3.207E-03
 996  8.69087118   0.703  -1.04930   3.60974   6.99596   1.86305   0.00232   1.002E+00   1.000E-03  -3.200E-03
 997  8.69153257   0.703  -1.04929   3.60974   6.99596   1.86305   0.00231   1.002E+00   1.000E-03  -3.192E-03
 998  8.69219295   0.703  -1.04929   3.60974   6.99595   1.86305   0.00230   1.002E+00   1.000E-03  -3.185E-03
 999  8.69285233   0.703  -1.04928   3.60974   6.99594   1.86304   0.00228   1.002E+00   1.000E-03  -3.178E-03
1000  8.69351071   0.703  -1.04928   3.60973   6.99593   1.86304   0.00227   1.002E+00   1.000E-03  -3.171E-03
1001  8.69416809   0.703  -1.04927   3.60973   6.99592   1.86304   0.00226   1.002E+00   1.000E-03  -3.164E-03
1002  8.69482448   0.703  -1.04927   3.60973   6.99591   1.86304   0.00224   1.002E+00   1.000E-03  -3.157E-03
1003  8.69547988   0.703  -1.04926   3.60973   6.99590   1.86304   0.00223   1.002E+00   1.000E-03  -3.150E-03
1004  8.69613429   0.703  -1.04926   3.60973   6.99589   1.86304   0.00221   1.002E+00   1.000E-03  -3.142E-03
1005  8.69678772   0.703  -1.04925   3.60973   6.99588   1.86303   0.00220   1.002E+00   1.000E-03  -3.135E-03
1006  8.69744017   0.703  -1.04925   3.60973   6.99587   1.86303   0.00219   1.002E+00   1.000E-03  -3.128E-03
1007  8.69809163   0.703  -1.04924   3.60973   6.99586   1.86303   0.00217   1.002E+00   1.000E-03  -3.121E-03
1008  8.69874212   0.703  -1.04924   3.60972   6.99585   1.86303   0.00216   1.002E+00   1.000E-03  -3.114E-03
1009  8.69939164   0.703  -1.04923   3.60972   6.99584   1.86303   0.00215   1.002E+00   1.000E-03  -3.107E-03
1010  8.70004019   0.703  -1.04923   3.60972   6.99583   1.86303   0.00213   1.002E+00   1.000E-03  -3.099E-03
1011  8.70068777   0.703  -1.04922   3.60972   6.99582   1.86302   0.00212   1.002E+00   1.000E-03  -3.092E-03
1012  8.70133439   0.703  -1.04922   3.60972   6.99581   1.86302   0.00211   1.002E+00   1.000E-03  -3.085E-03
1013  8.70198004   0.703  -1.04921   3.60972   6.99580   1.86302   0.00209   1.002E+00   1.000E-03  -3.078E-03
1014  8.70262474   0.703  -1.04921   3.60972   6.99579   1.86302   0.00208   1.002E+00   1.000E-03  -3.071E-03
1015  8.70326848   0.703  -1.04920   3.60972   6.99578   1.86302   0.00207   1.002E+00   1.000E-03  -3.064E-03
1016  8.70391127   0.703  -1.04920   3.60971   6.99577   1.86302   0.00205   1.002E+00   1.000E-03  -3.057E-03
1017  8.70455311   0.703  -1.04919   3.60971   6.99576   1.86302   0.00204   1.002E+00   1.000E-03  -3.049E-03
1018  8.70519400   0.703  -1.04919   3.60971   6.99576   1.86301   0.00203   1.002E+00   1.000E-03  -3.042E-03
1019  8.70583394   0.703  -1.04918   3.60971   6.99575   1.86301   0.00201   1.002E+00   1.000E-03  -3.035E-03
1020  8.70647295   0.703  -1.04917   3.60971   6.99574   1.86301   0.00200   1.002E+00   1.000E-03  -3.028E-03
1021  8.70711102   0.703  -1.04917   3.60971   6.99573   1.86301   0.00199   1.002E+00   1.000E-03  -3.021E-03
1022  8.70774815   0.703  -1.04916   3.60971   6.99572   1.86301   0.00197   1.002E+00   1.000E-03  -3.014E-03
1023  8.70838434   0.703  -1.04916   3.60971   6.99571   1.86301   0.00196   1.002E+00   1.000E-03  -3.006E-03
1024  8.70901961   0.703  -1.04915   3.60970   6.99570   1.86300   0.00194   1.002E+00   1.000E-03  -2.999E-03
1025  8.70965395   0.703  -1.04915   3.60970   6.99569   1.86300   0.00193   1.002E+00   1.000E-03  -2.992E-03
1026  8.71028736   0.703  -1.04914   3.60970   6.99568   1.86300   0.00192   1.002E+00   1.000E-03  -2.985E-03
1027  8.71091985   0.703  -1.04914   3.60970   6.99567   1.86300   0.00190   1.002E+00   1.000E-03  -2.978E-03
1028  8.71155142   0.703  -1.04913   3.60970   6.99566   1.86300   0.00189   1.002E+00   1.000E-03  -2.971E-03
1029  8.71218208   0.703  -1.04913   3.60970   6.99565   1.86300   0.00188   1.002E+00   1.000E-03  -2.964E-03
1030  8.71281182   0.703  -1.04912   3.60970   6.99564   1.86300   0.00186   1.002E+00   1.000E-03  -2.956E-03
1031  8.71344064   0.703  -1.04912   3.60970   6.99563   1.86299   0.00185   1.002E+00   1.000E-03  -2.949E-03
1032  8.71406856   0.703  -1.04911   3.60969   6.99562   1.86299   0.00184   1.002E+00   1.000E-03  -2.942E-03
1033  8.71469558   0.703  -1.04911   3.60969   6.99561   1.86299   0.00182   1.002E+00   1.000E-03  -2.935E-03
1034  8.71532168   0.703  -1.04910   3.60969   6.99560   1.86299   0.00181   1.002E+00   1.000E-03  -2.928E-03
1035  8.71594689   0.703  -1.04910   3.60969   6.99559   1.86299   0.00180   1.002E+00   1.000E-03  -2.921E-03
1036  8.71657120   0.703  -1.04909   3.60969   6.99558   1.86299   0.00178   1.002E+00   1.000E-03  -2.913E-03
1037  8.71719461   0.702  -1.04909   3.60969   6.99557   1.86298   0.00177   1.002E+00   1.000E-03  -2.906E-03
1038  8.71781713   0.702  -1.04908   3.60969   6.99556   1.86298   0.00176   1.002E+00   1.000E-03  -2.899E-03
1039  8.71843875   0.702  -1.04908   3.60969   6.99556   1.86298   0.00174   1.002E+00   1.000E-03  -2.892E-03
1040  8.71905949   0.702  -1.04907   3.60968   6.99555   1.86298   0.00173   1.002E+00   1.000E-03  -2.885E-03
1041  8.71967935   0.702  -1.04907   3.60968   6.99554   1.86298   0.00172   1.002E+00   1.000E-03  -2.878E-03
1042  8.72029832   0.702  -1.04906   3.60968   6.99553   1.86298   0.00170   1.001E+00   1.000E-03  -2.871E-03
1043  8.72091640   0.702  -1.04906   3.60968   6.99552   1.86297   0.00169   1.001E+00   1.000E-03  -2.863E-03
1044  8.72153361   0.702  -1.04905   3.60968   6.99551   1.86297   0.00167   1.001E+00   1.000E-03  -2.856E-03
1045  8.72214995   0.702  -1.04905   3.60968   6.99550   1.86297   0.00166   1.001E+00   1.000E-03  -2.849E-03
1046  8.72276541   0.702  -1.04904   3.60968   6.99549   1.86297   0.00165   1.001E+00   1.000E-03  -2.842E-03
1047  8.72338000   0.702  -1.04904   3.60968   6.99548   1.86297   0.00163   1.001E+00   1.000E-03  -2.835E-03
1048  8.72399372   0.702  -1.04903   3.60967   6.99547   1.86297   0.00162   1.001E+00   1.000E-03  -2.828E-03
1049  8.72460657   0.702  -1.04903   3.60967   6.99546   1.86297   0.00161   1.001E+00   1.000E-03  -2.820E-03
1050  8.72521856   0.702  -1.04902   3.60967   6.99545   1.86296   0.00159   1.001E+00   1.000E-03  -2.813E-03
1051  8.72582970   0.702  -1.04902   3.60967   6.99544   1.86296   0.00158   1.001E+00   1.000E-03  -2.806E-03
1052  8.72643997   0.702  -1.04901   3.60967   6.99543   1.86296   0.00157   1.001E+00   1.000E-03  -2.799E-03
1053  8.72704938   0.702  -1.04901   3.60967   6.99542   1.86296   0.00155   1.001E+00   1.000E-03  -2.792E-03
1054  8.72765794   0.702  -1.04900   3.60967   6.99541   1.86296   0.00154   1.001E+00   1.000E-03  -2.785E-03
1055  8.72826565   0.702  -1.04899   3.60967   6.99540   1.86296   0.00153   1.001E+00   1.000E-03  -2.778E-03
1056  8.72887251   0.702  -1.04899   3.60966   6.99539   1.86295   0.00151   1.001E+00   1.000E-03  -2.770E-03
1057  8.72947853   0.702  -1.04898   3.60966   6.99538   1.86295   0.00150   1.001E+00   1.000E-03  -2.763E-03
1058  8.73008370   0.702  -1.04898   3.60966   6.99537   1.86295   0.00149   1.001E+00   1.000E-03  -2.756E-03
1059  8.73068802   0.702  -1.04897   3.60966   6.99536   1.86295   0.00147   1.001E+00   1.000E-03  -2.749E-03
1060  8.73129151   0.702  -1.04897   3.60966   6.99536   1.86295   0.00146   1.001E+00   1.000E-03  -2.742E-03
1061  8.73189416   0.702  -1.04896   3.60966   6.99535   1.86295   0.00145   1.001E+00   1.000E-03  -2.735E-03
1062  8.73249597   0.702  -1.04896   3.60966   6.99534   1.86295   0.00143   1.001E+00   1.000E-03  -2.727E-03
1063  8.73309696   0.702  -1.04895   3.60966   6.99533   1.86294   0.00142   1.001E+00   1.000E-03  -2.720E-03
1064  8.73369711   0.702  -1.04895   3.60965   6.99532   1.86294   0.00140   1.001E+00   1.000E-03  -2.713E-03
1065  8.73429643   0.702  -1.04894   3.60965   6.99531   1.86294   0.00139   1.001E+00   1.000E-03  -2.706E-03
1066  8.73489493   0.702  -1.04894   3.60965   6.99530   1.86294   0.00138   1.001E+00   1.000E-03  -2.699E-03
1067  8.73549260   0.702  -1.04893   3.60965   6.99529   1.86294   0.00136   1.001E+00   1.000E-03  -2.692E-03
1068  8.73608945   0.702  -1.04893   3.60965   6.99528   1.86294   0.00135   1.001E+00   1.000E-03  -2.685E-03
1069  8.73668549   0.702  -1.04892   3.60965   6.99527   1.86293   0.00134   1.001E+00   1.000E-03  -2.677E-03
1070  8.73728070   0.702  -1.04892   3.60965   6.99526   1.86293   0.00132   1.001E+00   1.000E-03  -2.670E-03
1071  8.73787511   0.702  -1.04891   3.60965   6.99525   1.86293   0.00131   1.001E+00   1.000E-03  -2.663E-03
1072  8.73846869   0.702  -1.04891   3.60964   6.99524   1.86293   0.00130   1.001E+00   1.000E-03  -2.656E-03
1073  8.73906147   0.702  -1.04890   3.60964   6.99523   1.86293   0.00128   1.001E+00   1.000E-03  -2.649E-03
1074  8.73965344   0.702  -1.04890   3.60964   6.99522   1.86293   0.00127   1.001E+00   1.000E-03  -2.642E-03
1075  8.74024461   0.702  -1.04889   3.60964   6.99521   1.86292   0.00126   1.001E+00   1.000E-03  -2.634E-03
1076  8.74083497   0.702  -1.04889   3.60964   6.99520   1.86292   0.00124   1.001E+00   1.000E-03  -2.627E-03
1077  8.74142453   0.702  -1.04888   3.60964   6.99519   1.86292   0.00123   1.001E+00   1.000E-03  -2.620E-03
1078  8.74201329   0.702  -1.04888   3.60964   6.99518   1.86292   0.00122   1.001E+00   1.000E-03  -2.613E-03
1079  8.74260126   0.702  -1.04887   3.60964   6.99517   1.86292   0.00120   1.001E+00   1.000E-03  -2.606E-03
1080  8.74318843   0.702  -1.04887   3.60963   6.99516   1.86292   0.00119   1.001E+00   1.000E-03  -2.599E-03
1081  8.74377480   0.702  -1.04886   3.60963   6.99516   1.86292   0.00118   1.001E+00   1.000E-03  -2.592E-03
1082  8.74436039   0.702  -1.04886   3.60963   6.99515   1.86291   0.00116   1.001E+00   1.000E-03  -2.584E-03
1083  8.74494518   0.702  -1.04885   3.60963   6.99514   1.86291   0.00115   1.001E+00   1.000E-03  -2.577E-03
1084  8.74552919   0.702  -1.04885   3.60963   6.99513   1.86291   0.00113   1.001E+00   1.000E-03  -2.570E-03
1085  8.74611242   0.702  -1.04884   3.60963   6.99512   1.86291   0.00112   1.001E+00   1.000E-03  -2.563E-03
1086  8.74669486   0.702  -1.04884   3.60963   6.99511   1.86291   0.00111   1.001E+00   1.000E-03  -2.556E-03
1087  8.74727653   0.702  -1.04883   3.60963   6.99510   1.86291   0.00109   1.001E+00   1.000E-03  -2.549E-03
1088  8.74785741   0.702  -1.04883   3.60962   6.99509   1.86290   0.00108   1.001E+00   1.000E-03  -2.541E-03
1089  8.74843752   0.702  -1.04882   3.60962   6.99508   1.86290   0.00107   1.001E+00   1.000E-03  -2.534E-03
1090  8.74901686   0.702  -1.04882   3.60962   6.99507   1.86290   0.00105   1.001E+00   1.000E-03  -2.527E-03
1091  8.74959543   0.702  -1.04881   3.60962   6.99506   1.86290   0.00104   1.001E+00   1.000E-03  -2.520E-03
1092  8.98220569   0.695  -1.04630   3.60934   6.99307   1.86341   0.00000   1.000E+00   1.000E-03  -1.174E-03
1093  9.13286540   0.688  -1.04369   3.60933   6.99261   1.86540   0.00000   1.000E+00   1.000E-03  -5.509E-04
1094  9.24450718   0.681  -1.04097   3.60947   6.99274   1.86845   0.00000   9.990E-01   1.000E-03  -2.545E-04
1095  9.33323911   0.674  -1.03822   3.60968   6.99317   1.87219   0.00000   9.990E-01   1.000E-03  -7.640E-05
1096  9.40688148   0.667  -1.03550   3.60991   6.99376   1.87610   0.00000   9.990E-01   1.000E-03   2.175E-06
1097  9.46982822   0.659  -1.03280   3.61016   6.99446   1.88015   0.00000   9.990E-01   1.000E-03   6.646E-05
1098  9.52479577   0.652  -1.03011   3.61043   6.99522   1.88430   0.00000   9.990E-01   1.000E-03   1.154E-04
1099  9.57358133   0.645  -1.02745   3.61070   6.99604   1.88851   0.00000   9.990E-01   1.000E-03   1.545E-04
1100  9.61743592   0.638  -1.02479   3.61099   6.99689   1.89277   0.00000   9.990E-01   1.000E-03   1.876E-04
1101  9.65726546   0.631  -1.02213   3.61127   6.99778   1.89705   0.00000   9.990E-01   1.000E-03   2.156E-04
1102  9.69374709   0.624  -1.01948   3.61156   6.99869   1.90135   0.00000   9.990E-01   1.000E-03   2.416E-04
1103  9.72740026   0.616  -1.01684   3.61185   6.99961   1.90566   0.00000   9.990E-01   1.000E-03   2.646E-04
1104  9.75863216   0.610  -1.01420   3.61215   7.00056   1.90999   0.00000   9.990E-01   1.000E-03   2.856E-04
1105  9.78776794   0.603  -1.01155   3.61246   7.00152   1.91433   0.00000   9.990E-01   1.000E-03   3.056E-04
1106  9.81507136   0.596  -1.00891   3.61276   7.00251   1.91921   0.00000   9.990E-01   1.000E-03   3.238E-04
1107  9.84075931   0.589  -1.00626   3.61307   7.00356   1.92438   0.00000   9.990E-01   1.000E-03   3.367E-04
1108  9.86501234   0.582  -1.00361   3.61337   7.00466   1.92955   0.00000   9.990E-01   1.000E-03   3.498E-04
1109  9.88798230   0.575  -1.00095   3.61368   7.00579   1.93469   0.00000   9.990E-01   1.000E-03   3.621E-04
1110  9.90979816   0.569  -0.99827   3.61398   7.00695   1.93984   0.00000   9.990E-01   1.000E-03   3.727E-04
1111  9.93057036   0.562  -0.99557   3.61429   7.00814   1.94497   0.00000   9.990E-01   1.000E-03   3.848E-04
1112  9.95039422   0.556  -0.99285   3.61460   7.00934   1.95014   0.00000   9.982E-01   1.000E-03   3.960E-04
1113  9.96935256   0.549  -0.99012   3.61492   7.01058   1.95532   0.00000   9.980E-01   1.000E-03   4.087E-04
1114  9.98751781   0.542  -0.98736   3.61522   7.01181   1.96053   0.00000   9.980E-01   1.000E-03   4.199E-04
1115 10.00495367   0.536  -0.98458   3.61554   7.01306   1.96577   0.00000   9.980E-01   1.000E-03   4.324E-04
1116 10.02171645   0.529  -0.98178   3.61586   7.01433   1.97103   0.00000   9.980E-01   1.000E-03   4.448E-04
1117 10.03785620   0.522  -0.97895   3.61618   7.01561   1.97634   0.00000   9.980E-01   1.000E-03   4.575E-04
1118 10.05341758   0.516  -0.97610   3.61650   7.01689   1.98166   0.00000   9.980E-01   1.000E-03   4.704E-04
1119 10.06844061   0.509  -0.97323   3.61683   7.01819   1.98703   0.00000   9.980E-01   1.000E-03   4.834E-04
1120 10.08296129   0.502  -0.97032   3.61715   7.01949   1.99242   0.00000   9.980E-01   1.000E-03   4.973E-04
1121 10.09701214   0.495  -0.96738   3.61749   7.02081   1.99784   0.00000   9.980E-01   1.000E-03   5.102E-04
1122 10.11062261   0.488  -0.96441   3.61783   7.02213   2.00332   0.00000   9.980E-01   1.000E-03   5.222E-04
1123 10.12381946   0.482  -0.96142   3.61817   7.02346   2.00880   0.00000   9.980E-01   1.000E-03   5.361E-04
1124 10.13662710   0.475  -0.95841   3.61851   7.02480   2.01435   0.00000   9.980E-01   1.000E-03   5.491E-04
1125 10.14906784   0.468  -0.95537   3.61886   7.02614   2.01992   0.00000   9.980E-01   1.000E-03   5.607E-04
1126 10.16116209   0.461  -0.95230   3.61921   7.02750   2.02552   0.00000   9.980E-01   1.000E-03   5.739E-04
1127 10.17292865   0.455  -0.94920   3.61957   7.02885   2.03117   0.00000   9.980E-01   1.000E-03   5.879E-04
1128 10.18438481   0.448  -0.94608   3.61992   7.03022   2.03684   0.00000   9.980E-01   1.000E-03   6.012E-04
1129 10.19554651   0.441  -0.94293   3.62028   7.03159   2.04255   0.00000   9.980E-01   1.000E-03   6.141E-04
1130 10.20642853   0.435  -0.93976   3.62065   7.03297   2.04830   0.00000   9.980E-01   1.000E-03   6.271E-04
1131 10.21704453   0.428  -0.93656   3.62102   7.03437   2.05408   0.00000   9.980E-01   1.000E-03   6.396E-04
1132 10.22740721   0.421  -0.93333   3.62139   7.03576   2.05990   0.00000   9.980E-01   1.000E-03   6.518E-04
1133 10.23752837   0.415  -0.93007   3.62177   7.03717   2.06575   0.00000   9.980E-01   1.000E-03   6.645E-04
1134 10.24741903   0.407  -0.92679   3.62215   7.03858   2.07185   0.00000   9.980E-01   1.000E-03   6.759E-04
1135 10.25708944   0.400  -0.92348   3.62253   7.04001   2.07837   0.00000   9.980E-01   1.000E-03   6.888E-04
1136 10.26654920   0.393  -0.92014   3.62292   7.04147   2.08561   0.00000   9.980E-01   1.000E-03   6.991E-04
1137 10.27580730   0.386  -0.91677   3.62331   7.04301   2.09276   0.00000   9.980E-01   1.000E-03   7.088E-04
1138 10.28487215   0.380  -0.91337   3.62370   7.04457   2.09986   0.00000   9.980E-01   1.000E-03   7.192E-04
1139 10.29375166   0.374  -0.90993   3.62410   7.04617   2.10696   0.00000   9.980E-01   1.000E-03   7.316E-04
1140 10.30245324   0.367  -0.90646   3.62449   7.04781   2.11408   0.00000   9.980E-01   1.000E-03   7.410E-04
1141 10.31098390   0.361  -0.90296   3.62490   7.04947   2.12131   0.00000   9.980E-01   1.000E-03   7.525E-04
1142 10.31935022   0.355  -0.89942   3.62530   7.05116   2.12860   0.00000   9.980E-01   1.000E-03   7.620E-04
1143 10.32755841   0.348  -0.89584   3.62571   7.05288   2.13599   0.00000   9.980E-01   1.000E-03   7.700E-04
1144 10.33561434   0.341  -0.89224   3.62613   7.05462   2.14346   0.00000   9.980E-01   1.000E-03   7.784E-04
1145 10.34352355   0.335  -0.88859   3.62654   7.05639   2.15102   0.00000   9.980E-01   1.000E-03   7.889E-04
1146 10.35129130   0.328  -0.88490   3.62696   7.05817   2.15866   0.00000   9.980E-01   1.000E-03   7.984E-04
1147 10.35892255   0.322  -0.88117   3.62738   7.05998   2.16635   0.00000   9.980E-01   1.000E-03   8.063E-04
1148 10.36642202   0.315  -0.87741   3.62781   7.06181   2.17410   0.00000   9.980E-01   1.000E-03   8.149E-04
1149 10.37379418   0.308  -0.87361   3.62824   7.06365   2.18192   0.00000   9.980E-01   1.000E-03   8.236E-04
1150 10.38104328   0.301  -0.86976   3.62868   7.06552   2.18981   0.00000   9.980E-01   1.000E-03   8.327E-04
1151 10.38817337   0.295  -0.86587   3.62912   7.06740   2.19777   0.00000   9.980E-01   1.000E-03   8.401E-04
1152 10.39518829   0.288  -0.86194   3.62956   7.06931   2.20580   0.00000   9.980E-01   1.401E-03   8.474E-04
1153 10.40209170   0.281  -0.85796   3.63001   7.07124   2.21387   0.00000   9.980E-01   2.000E-03   8.574E-04
1154 10.40888709   0.274  -0.85393   3.63047   7.07318   2.22205   0.00000   9.980E-01   2.000E-03   8.757E-04
1155 10.41557779   0.268  -0.84984   3.63093   7.07515   2.23023   0.00000   9.980E-01   2.000E-03   8.944E-04
1156 10.42216697   0.261  -0.84571   3.63140   7.07714   2.23848   0.00000   9.980E-01   2.000E-03   9.114E-04
1157 10.42865768   0.254  -0.84153   3.63187   7.07915   2.24681   0.00000   9.974E-01   2.000E-03   9.281E-04
1158 10.43505280   0.248  -0.83729   3.63235   7.08118   2.25511   0.00000   9.970E-01   2.000E-03   9.460E-04
1159 10.44135512   0.241  -0.83300   3.63284   7.08323   2.26354   0.00000   9.970E-01   2.000E-03   9.660E-04
1160 10.44756729   0.235  -0.82865   3.63333   7.08530   2.27198   0.00000   9.970E-01   2.000E-03   9.835E-04
1161 10.45369185   0.228  -0.82426   3.63383   7.08739   2.28048   0.00000   9.970E-01   2.000E-03   1.001E-03
1162 10.45973125   0.222  -0.81979   3.63434   7.08950   2.28900   0.00000   9.970E-01   2.000E-03   1.024E-03
1163 10.46568780   0.216  -0.81527   3.63487   7.09164   2.29755   0.00000   9.970E-01   2.000E-03   1.046E-03
1164 10.47156377   0.210  -0.81069   3.63539   7.09379   2.30619   0.00000   9.970E-01   2.000E-03   1.060E-03
1165 10.47736129   0.204  -0.80604   3.63592   7.09597   2.31483   0.00000   9.970E-01   2.000E-03   1.082E-03
1166 10.48308244   0.198  -0.80134   3.63647   7.09817   2.32418   0.00000   9.970E-01   2.000E-03   1.105E-03
1167 10.48872920   0.192  -0.79658   3.63702   7.10042   2.33453   0.00000   9.970E-01   2.000E-03   1.120E-03
1168 10.49430348   0.186  -0.79176   3.63757   7.10276   2.34504   0.00000   9.970E-01   2.000E-03   1.140E-03
1169 10.49980712   0.181  -0.78687   3.63813   7.10518   2.35557   0.00000   9.970E-01   2.000E-03   1.165E-03
1170 10.50524188   0.175  -0.78192   3.63870   7.10769   2.36627   0.00000   9.970E-01   2.000E-03   1.182E-03
1171 10.51060948   0.170  -0.77690   3.63928   7.11024   2.37701   0.00000   9.970E-01   2.000E-03   1.200E-03
1172 10.51591154   0.164  -0.77181   3.63985   7.11286   2.38789   0.00000   9.970E-01   2.000E-03   1.224E-03
1173 10.52114966   0.159  -0.76665   3.64044   7.11553   2.39892   0.00000   9.970E-01   2.000E-03   1.250E-03
1174 10.52632535   0.153  -0.76141   3.64104   7.11826   2.41004   0.00000   9.970E-01   2.000E-03   1.274E-03
1175 10.53144008   0.148  -0.75610   3.64164   7.12104   2.42134   0.00000   9.960E-01   2.000E-03   1.290E-03
1176 10.53649528   0.143  -0.75072   3.64224   7.12389   2.43275   0.00000   9.960E-01   2.000E-03   1.310E-03
1177 10.54149231   0.137  -0.74525   3.64285   7.12679   2.44436   0.00000   9.960E-01   2.000E-03   1.338E-03
1178 10.54643249   0.132  -0.73969   3.64347   7.12974   2.45615   0.00000   9.960E-01   3.000E-03   1.362E-03
1179 10.55131712   0.127  -0.73405   3.64410   7.13273   2.46809   0.00000   9.960E-01   3.000E-03   1.390E-03
1180 10.55614741   0.122  -0.72831   3.64473   7.13576   2.48025   0.00000   9.960E-01   3.000E-03   1.418E-03
1181 10.56092458   0.116  -0.72248   3.64537   7.13884   2.49258   0.00000   9.953E-01   3.000E-03   1.437E-03
1182 10.56564976   0.111  -0.71654   3.64602   7.14194   2.50516   0.00000   9.950E-01   3.000E-03   1.467E-03
1183 10.57032409   0.106  -0.71049   3.64668   7.14508   2.51798   0.00000   9.950E-01   4.000E-03   1.490E-03
1184 10.57494864   0.101  -0.70434   3.64734   7.14824   2.53108   0.00000   9.950E-01   4.000E-03   1.518E-03
1185 10.57952447   0.097  -0.69806   3.64800   7.15145   2.54442   0.00000   9.940E-01   4.000E-03   1.549E-03
1186 10.58405259   0.092  -0.69166   3.64868   7.15466   2.55809   0.00000   9.940E-01   5.000E-03   1.590E-03
1187 10.58853398   0.087  -0.68512   3.64938   7.15790   2.57209   0.00000   9.930E-01   5.000E-03   1.616E-03
1188 10.59296960   0.083  -0.67844   3.65008   7.16116   2.58647   0.00000   9.930E-01   6.000E-03   1.644E-03
1189 10.59736038   0.078  -0.67163   3.65078   7.16446   2.60115   0.00000   9.920E-01   6.000E-03   1.690E-03
1190 10.60170721   0.074  -0.66468   3.65148   7.16779   2.61624   0.00000   9.910E-01   7.000E-03   1.715E-03
1191 10.60601097   0.069  -0.65757   3.65219   7.17116   2.63176   0.00000   9.900E-01   8.000E-03   1.750E-03
1192 10.60729194   0.068  -0.65541   3.65240   7.17218   2.63648   0.00000   9.900E-01   8.000E-03   1.761E-03
1193 10.60856914   0.067  -0.65323   3.65262   7.17321   2.64122   0.00000   9.900E-01   8.153E-03   1.773E-03
1194 10.60984259   0.066  -0.65104   3.65283   7.17424   2.64603   0.00000   9.898E-01   9.000E-03   1.795E-03
1195 10.61111232   0.064  -0.64882   3.65305   7.17528   2.65087   0.00000   9.890E-01   9.000E-03   1.810E-03
1196 10.61237835   0.063  -0.64660   3.65327   7.17633   2.65573   0.00000   9.890E-01   9.448E-03   1.814E-03
1197 10.61364070   0.062  -0.64436   3.65348   7.17738   2.66063   0.00000   9.884E-01   1.000E-02   1.826E-03
1198 10.61489939   0.061  -0.64210   3.65370   7.17844   2.66556   0.00000   9.880E-01   1.000E-02   1.837E-03
1199 10.61615445   0.060  -0.63983   3.65391   7.17950   2.67053   0.00000   9.880E-01   1.081E-02   1.848E-03
1200 10.61740588   0.058  -0.63755   3.65413   7.18058   2.67555   0.00000   9.871E-01   1.100E-02   1.859E-03
1201 10.61865373   0.057  -0.63524   3.65435   7.18166   2.68058   0.00000   9.869E-01   1.109E-02   1.870E-03
1202 10.61989799   0.056  -0.63292   3.65457   7.18275   2.68566   0.00000   9.860E-01   1.200E-02   1.875E-03
1203 10.62113870   0.055  -0.63059   3.65478   7.18386   2.69078   0.00000   9.860E-01   1.200E-02   1.894E-03
1204 10.62237588   0.054  -0.62823   3.65500   7.18498   2.69594   0.00000   9.854E-01   1.258E-02   1.912E-03
1205 10.62360954   0.052  -0.62586   3.65522   7.18610   2.70113   0.00000   9.850E-01   1.300E-02   1.920E-03
1206 10.62483971   0.051  -0.62348   3.65544   7.18724   2.70637   0.00000   9.841E-01   1.394E-02   1.929E-03
1207 10.62606641   0.050  -0.62107   3.65565   7.18840   2.71165   0.00000   9.839E-01   1.413E-02   1.940E-03
1208 10.62728965   0.049  -0.61865   3.65587   7.18957   2.71696   0.00000   9.830E-01   1.500E-02   1.947E-03
1209 10.62850945   0.048  -0.61621   3.65609   7.19076   2.72231   0.00000   9.825E-01   1.555E-02   1.971E-03
1210 10.62972584   0.047  -0.61376   3.65631   7.19195   2.72769   0.00000   9.812E-01   1.677E-02   1.988E-03
1211 10.63093883   0.046  -0.61129   3.65653   7.19318   2.73309   0.00000   9.810E-01   1.700E-02   1.990E-03
1212 10.63214844   0.044  -0.60881   3.65675   7.19441   2.73852   0.00000   9.800E-01   1.800E-02   1.992E-03
1213 10.63335469   0.043  -0.60630   3.65697   7.19567   2.74400   0.00000   9.795E-01   1.848E-02   2.010E-03
1214 10.63455760   0.042  -0.60377   3.65719   7.19696   2.74952   0.00000   9.783E-01   1.974E-02   2.027E-03
1215 10.63575718   0.041  -0.60123   3.65741   7.19826   2.75505   0.00000   9.770E-01   2.000E-02   2.040E-03
1216 10.63695347   0.040  -0.59868   3.65763   7.19958   2.76062   0.00000   9.767E-01   2.127E-02   2.043E-03
1217 10.63814646   0.039  -0.59607   3.65786   7.20094   2.76621   0.00000   9.755E-01   2.255E-02   2.055E-03
1218 10.63933619   0.038  -0.59344   3.65810   7.20233   2.77184   0.00000   9.741E-01   2.386E-02   2.120E-03
1219 10.64052267   0.036  -0.59085   3.65832   7.20374   2.77743   0.00000   9.728E-01   2.500E-02   2.078E-03
1220 10.64170592   0.035  -0.58823   3.65854   7.20518   2.78305   0.00000   9.720E-01   2.547E-02   2.070E-03
1221 10.64288595   0.034  -0.58560   3.65875   7.20665   2.78870   0.00000   9.704E-01   2.678E-02   2.078E-03
1222 10.64406278   0.033  -0.58294   3.65897   7.20816   2.79436   0.00000   9.689E-01   2.819E-02   2.090E-03
1223 10.64523643   0.032  -0.58027   3.65918   7.20971   2.80003   0.00000   9.676E-01   3.043E-02   2.099E-03
1224 10.64640692   0.031  -0.57758   3.65940   7.21130   2.80572   0.00000   9.662E-01   3.177E-02   2.125E-03
1225 10.64757427   0.030  -0.57488   3.65962   7.21292   2.81140   0.00000   9.648E-01   3.311E-02   2.140E-03
1226 10.64873848   0.028  -0.57217   3.65983   7.21459   2.81706   0.00000   9.625E-01   3.493E-02   2.135E-03
1227 10.64989958   0.027  -0.56945   3.66004   7.21629   2.82271   0.00000   9.612E-01   3.682E-02   2.130E-03
1228 10.65105759   0.026  -0.56671   3.66026   7.21804   2.82837   0.00000   9.588E-01   3.918E-02   2.144E-03
1229 10.65221252   0.025  -0.56395   3.66047   7.21983   2.83403   0.00000   9.569E-01   4.111E-02   2.160E-03
1230 10.65336438   0.024  -0.56119   3.66068   7.22166   2.83968   0.00000   9.551E-01   4.293E-02   2.160E-03
1231 10.65451320   0.022  -0.55843   3.66089   7.22352   2.84533   0.00000   9.524E-01   4.563E-02   2.153E-03
1232 10.65565898   0.021  -0.55563   3.66110   7.22543   2.85096   0.00000   9.496E-01   4.840E-02   2.167E-03
1233 10.65680175   0.020  -0.55281   3.66132   7.22736   2.85659   0.00000   9.468E-01   5.110E-02   2.192E-03
1234 10.65794152   0.019  -0.54998   3.66154   7.22932   2.86225   0.00000   9.440E-01   5.355E-02   2.200E-03
1235 10.65907831   0.017  -0.54715   3.66174   7.23127   2.86793   0.00000   9.411E-01   5.686E-02   2.190E-03
1236 10.66021213   0.016  -0.54428   3.66196   7.23325   2.87370   0.00000   9.382E-01   5.977E-02   2.284E-03
1237 10.66134300   0.015  -0.54129   3.66222   7.23526   2.87958   0.00000   9.341E-01   6.292E-02   2.514E-03
1238 10.66247093   0.013  -0.53833   3.66244   7.23725   2.88560   0.00000   9.306E-01   6.640E-02   2.734E-03
1239 10.66359594   0.012  -0.53535   3.66267   7.23917   2.89180   0.00000   9.268E-01   7.022E-02   2.989E-03
1240 10.66471804   0.011  -0.53235   3.66289   7.24096   2.89823   0.00000   9.226E-01   7.371E-02   3.272E-03
1241 10.66583725   0.010  -0.52933   3.66311   7.24261   2.90497   0.00000   9.190E-01   7.800E-02   3.530E-03
1242 10.66612546   0.009  -0.52854   3.66317   7.24300   2.90677   0.00000   9.177E-01   7.863E-02   3.599E-03
1243 10.66641349   0.009  -0.52775   3.66322   7.24338   2.90857   0.00000   9.167E-01   7.953E-02   3.666E-03
1244 10.66670132   0.009  -0.52696   3.66328   7.24376   2.91039   0.00000   9.161E-01   8.083E-02   3.731E-03
1245 10.66698896   0.008  -0.52616   3.66334   7.24412   2.91224   0.00000   9.148E-01   8.158E-02   3.798E-03
1246 10.66727641   0.008  -0.52536   3.66339   7.24448   2.91410   0.00000   9.137E-01   8.226E-02   3.868E-03
1247 10.66756367   0.008  -0.52456   3.66345   7.24481   2.91600   0.00000   9.131E-01   8.294E-02   3.944E-03
1248 10.66785074   0.008  -0.52376   3.66350   7.24514   2.91792   0.00000   9.117E-01   8.430E-02   4.015E-03
1249 10.66813762   0.007  -0.52295   3.66356   7.24546   2.91986   0.00000   9.106E-01   8.537E-02   4.087E-03
1250 10.66842431   0.007  -0.52214   3.66361   7.24577   2.92182   0.00000   9.098E-01   8.609E-02   4.158E-03
1251 10.66871081   0.007  -0.52133   3.66367   7.24606   2.92381   0.00000   9.083E-01   8.683E-02   4.225E-03
1252 10.66899712   0.007  -0.52052   3.66372   7.24635   2.92583   0.00000   9.074E-01   8.818E-02   4.287E-03
1253 10.66928325   0.006  -0.51970   3.66377   7.24662   2.92787   0.00000   9.066E-01   8.935E-02   4.348E-03
1254 10.66956918   0.006  -0.51888   3.66383   7.24689   2.92993   0.00000   9.057E-01   9.013E-02   4.412E-03
1255 10.66985493   0.006  -0.51806   3.66388   7.24714   2.93201   0.00000   9.042E-01   9.092E-02   4.483E-03
1256 10.67014049   0.006  -0.51723   3.66393   7.24739   2.93412   0.00000   9.033E-01   9.173E-02   4.548E-03
1257 10.67042586   0.005  -0.51640   3.66399   7.24763   2.93624   0.00000   9.025E-01   9.308E-02   4.608E-03
1258 10.67071105   0.005  -0.51557   3.66404   7.24786   2.93839   0.00000   9.016E-01   9.437E-02   4.669E-03
1259 10.67099605   0.005  -0.51474   3.66409   7.24808   2.94055   0.00000   9.006E-01   9.520E-02   4.732E-03
1260 10.67128086   0.005  -0.51390   3.66415   7.24829   2.94274   0.00000   8.989E-01   9.605E-02   4.784E-03
1261 10.67156548   0.005  -0.51306   3.66420   7.24849   2.94495   0.00000   8.981E-01   9.691E-02   4.844E-03
1262 10.67184992   0.004  -0.51222   3.66426   7.24868   2.94719   0.00000   8.972E-01   9.779E-02   4.897E-03
1263 10.67213417   0.004  -0.51137   3.66431   7.24887   2.94944   0.00000   8.963E-01   9.867E-02   4.944E-03
1264 10.67241824   0.004  -0.51052   3.66436   7.24905   2.95171   0.00000   8.954E-01   9.957E-02   4.994E-03
1265 10.67270212   0.004  -0.50967   3.66441   7.24923   2.95400   0.00000   8.945E-01   1.005E-01   5.053E-03
1266 10.67298581   0.004  -0.50881   3.66446   7.24940   2.95632   0.00000   8.936E-01   1.014E-01   5.117E-03
1267 10.67326932   0.003  -0.50795   3.66452   7.24956   2.95865   0.00000   8.927E-01   1.023E-01   5.179E-03
1268 10.67355265   0.003  -0.50709   3.66457   7.24971   2.96101   0.00000   8.915E-01   1.033E-01   5.238E-03
1269 10.67383579   0.003  -0.50622   3.66462   7.24986   2.96338   0.00000   8.898E-01   1.042E-01   5.302E-03
1270 10.67411874   0.003  -0.50535   3.66467   7.25001   2.96578   0.00000   8.888E-01   1.052E-01   5.360E-03
1271 10.67440151   0.003  -0.50448   3.66473   7.25015   2.96819   0.00000   8.879E-01   1.061E-01   5.418E-03
1272 10.67468410   0.003  -0.50360   3.66478   7.25030   2.97062   0.00000   8.869E-01   1.071E-01   5.477E-03
1273 10.67496650   0.003  -0.50271   3.66484   7.25042   2.97307   0.00000   8.859E-01   1.081E-01   5.536E-03
1274 10.67524872   0.002  -0.50183   3.66489   7.25056   2.97553   0.00000   8.849E-01   1.091E-01   5.586E-03
1275 10.67553076   0.002  -0.50093   3.66495   7.25069   2.97801   0.00000   8.839E-01   1.101E-01   5.637E-03
1276 10.67581261   0.002  -0.50004   3.66500   7.25081   2.98051   0.00000   8.828E-01   1.112E-01   5.688E-03
1277 10.67609428   0.002  -0.49915   3.66505   7.25093   2.98302   0.00000   8.818E-01   1.122E-01   5.738E-03
1278 10.67637577   0.002  -0.49821   3.66512   7.25104   2.98554   0.00000   8.808E-01   1.132E-01   5.797E-03
1279 10.67665708   0.002  -0.49719   3.66522   7.25116   2.98806   0.00000   8.797E-01   1.143E-01   5.874E-03
1280 10.67693820   0.002  -0.49630   3.66527   7.25128   2.99060   0.00000   8.786E-01   1.154E-01   5.871E-03
1281 10.67721914   0.002  -0.49540   3.66532   7.25140   2.99317   0.00000   8.775E-01   1.165E-01   5.918E-03
1282 10.67749990   0.002  -0.49449   3.66538   7.25150   2.99576   0.00000   8.764E-01   1.176E-01   5.984E-03
1283 10.67778048   0.002  -0.49357   3.66543   7.25161   2.99838   0.00000   8.753E-01   1.187E-01   6.050E-03
1284 10.67806088   0.001  -0.49266   3.66548   7.25171   3.00101   0.00000   8.742E-01   1.198E-01   6.117E-03
1285 10.67834110   0.001  -0.49174   3.66553   7.25181   3.00366   0.00000   8.731E-01   1.209E-01   6.185E-03
1286 10.67862113   0.001  -0.49081   3.66558   7.25191   3.00632   0.00000   8.719E-01   1.211E-01   6.244E-03
1287 10.67890099   0.001  -0.48988   3.66563   7.25201   3.00901   0.00000   8.708E-01   1.222E-01   6.311E-03
1288 10.67918066   0.001  -0.48895   3.66569   7.25210   3.01172   0.00000   8.696E-01   1.234E-01   6.374E-03
1289 10.67946016   0.001  -0.48801   3.66573   7.25220   3.01444   0.00000   8.690E-01   1.246E-01   6.439E-03
1290 10.67973947   0.001  -0.48708   3.66578   7.25229   3.01718   0.00000   8.682E-01   1.258E-01   6.507E-03
1291 10.68001861   0.001  -0.48614   3.66583   7.25239   3.01994   0.00000   8.670E-01   1.270E-01   6.560E-03
1292 10.68077631   0.001  -0.48361   3.66596   7.25261   3.02750   0.00000   8.649E-01   1.292E-01   5.949E-03
1293 10.68153269   0.001  -0.48106   3.66609   7.25283   3.03518   0.00000   8.621E-01   1.329E-01   5.237E-03
1294 10.68228776   0.001  -0.47851   3.66621   7.25302   3.04302   0.00000   8.597E-01   1.353E-01   4.587E-03
1295 10.68304152   0.000  -0.47592   3.66633   7.25320   3.05100   0.00000   8.577E-01   1.383E-01   4.002E-03
1296 10.68379397   0.000  -0.47332   3.66644   7.25336   3.05915   0.00000   8.557E-01   1.412E-01   3.465E-03
1297 10.68454512   0.000  -0.47071   3.66653   7.25351   3.06746   0.00000   8.533E-01   1.434E-01   3.010E-03
1298 10.68529497   0.000  -0.46808   3.66663   7.25366   3.07584   0.00000   8.508E-01   1.463E-01   2.637E-03
1299 10.68604353   0.000  -0.46537   3.66673   7.25392   3.08416   0.00000   8.478E-01   1.498E-01   2.643E-03
1300 10.68679080   0.000  -0.46253   3.66688   7.25425   3.09253   0.00000   8.444E-01   1.526E-01   2.744E-03
1301 10.68753679   0.000  -0.45972   3.66701   7.25465   3.10106   0.00000   8.406E-01   1.564E-01   2.866E-03
1302 10.68828150   0.000  -0.45692   3.66712   7.25502   3.11033   0.00000   8.372E-01   1.598E-01   2.728E-03
1303 10.68902494   0.000  -0.45408   3.66722   7.25536   3.11965   0.00000   8.340E-01   1.630E-01   2.720E-03
1304 10.68976710   0.000  -0.45122   3.66731   7.25564   3.12911   0.00000   8.307E-01   1.669E-01   2.714E-03
1305 10.69050800   0.000  -0.44831   3.66740   7.25597   3.13872   0.00000   8.273E-01   1.706E-01   2.689E-03
1306 10.69124763   0.000  -0.44537   3.66749   7.25637   3.14876   0.00000   8.233E-01   1.740E-01   2.700E-03
1307 10.69198601   0.000  -0.44237   3.66758   7.25665   3.15882   0.00000   8.196E-01   1.776E-01   2.724E-03
1308 10.69272314   0.000  -0.43935   3.66766   7.25699   3.16895   0.00000   8.154E-01   1.819E-01   2.713E-03
1309 10.69345902   0.000  -0.43631   3.66773   7.25738   3.17942   0.00000   8.115E-01   1.857E-01   2.687E-03
1310 10.69419365   0.000  -0.43319   3.66780   7.25772   3.19013   0.00000   8.073E-01   1.897E-01   2.698E-03
1311 10.69492704   0.000  -0.43001   3.66789   7.25810   3.20096   0.00000   8.032E-01   1.938E-01   2.767E-03
1312 10.69565919   0.000  -0.42683   3.66794   7.25850   3.21199   0.00000   7.990E-01   1.986E-01   2.714E-03
1313 10.69639011   0.000  -0.42363   3.66799   7.25897   3.22335   0.00000   7.947E-01   2.023E-01   2.675E-03
1314 10.69711981   0.000  -0.42036   3.66802   7.25941   3.23509   0.00000   7.898E-01   2.072E-01   2.625E-03
1315 10.69784828   0.000  -0.41704   3.66806   7.25988   3.24696   0.00000   7.853E-01   2.121E-01   2.656E-03
1316 10.69857553   0.000  -0.41362   3.66810   7.26046   3.25907   0.00000   7.809E-01   2.171E-01   2.645E-03
1317 10.69930156   0.000  -0.41022   3.66811   7.26100   3.27168   0.00000   7.757E-01   2.215E-01   2.686E-03
1318 10.70002639   0.000  -0.40678   3.66811   7.26153   3.28466   0.00000   7.706E-01   2.264E-01   2.609E-03
1319 10.70075000   0.000  -0.40332   3.66809   7.26212   3.29776   0.00000   7.654E-01   2.326E-01   2.616E-03
1320 10.70147241   0.000  -0.39977   3.66806   7.26282   3.31119   0.00000   7.593E-01   2.378E-01   2.591E-03
1321 10.70219363   0.000  -0.39608   3.66805   7.26350   3.32514   0.00000   7.538E-01   2.432E-01   2.705E-03
1322 10.70291364   0.000  -0.39237   3.66801   7.26417   3.33948   0.00000   7.482E-01   2.498E-01   2.686E-03
1323 10.70363247   0.000  -0.38864   3.66794   7.26486   3.35425   0.00000   7.422E-01   2.554E-01   2.589E-03
1324 10.70435010   0.000  -0.38483   3.66788   7.26560   3.36949   0.00000   7.360E-01   2.613E-01   2.546E-03
1325 10.70506656   0.000  -0.38086   3.66781   7.26638   3.38524   0.00000   7.292E-01   2.681E-01   2.656E-03
1326 10.70578183   0.000  -0.37684   3.66772   7.26724   3.40149   0.00000   7.222E-01   2.748E-01   2.595E-03
1327 10.70649593   0.000  -0.37277   3.66760   7.26813   3.41840   0.00000   7.151E-01   2.822E-01   2.587E-03
1328 10.70720885   0.000  -0.36858   3.66744   7.26904   3.43590   0.00000   7.076E-01   2.894E-01   2.579E-03
1329 10.70792061   0.000  -0.36427   3.66729   7.27003   3.45396   0.00000   6.991E-01   2.979E-01   2.603E-03
1330 10.70863120   0.000  -0.35984   3.66712   7.27106   3.47257   0.00000   6.913E-01   3.067E-01   2.617E-03
1331 10.70934063   0.000  -0.35536   3.66689   7.27211   3.49199   0.00000   6.824E-01   3.156E-01   2.565E-03
1332 10.71004890   0.000  -0.35072   3.66666   7.27324   3.51187   0.00000   6.723E-01   3.248E-01   2.557E-03
1333 10.71075602   0.000  -0.34588   3.66642   7.27453   3.53254   0.00000   6.617E-01   3.353E-01   2.647E-03
1334 10.71146200   0.000  -0.34108   3.66606   7.27587   3.55418   0.00000   6.509E-01   3.462E-01   2.576E-03
1335 10.71216682   0.000  -0.33602   3.66570   7.27719   3.57677   0.00000   6.399E-01   3.581E-01   2.603E-03
1336 10.71287050   0.000  -0.33087   3.66532   7.27867   3.59971   0.00000   6.270E-01   3.700E-01   2.570E-03
1337 10.71357305   0.000  -0.32531   3.66493   7.28037   3.62377   0.00000   6.135E-01   3.835E-01   2.795E-03
1338 10.71427446   0.000  -0.31988   3.66441   7.28215   3.64919   0.00000   6.002E-01   3.973E-01   2.363E-03
1339 10.71497474   0.000  -0.31281   3.66371   7.28549   3.68450   0.00000   5.887E-01   4.078E-01   3.267E-03
1340 10.71567389   0.000  -0.30544   3.66278   7.28748   3.72516   0.00000   5.749E-01   4.219E-01   2.850E-03
1341 10.71637192   0.971  -0.29782   3.66184   7.28939   3.76568   0.00000   5.600E-01   4.380E-01   2.010E-03
