 # M = 0.40 Mo, Y = 0.2700, Z = 2.00000E-02, alpha = 1.68, X_D = 4.0E-05
 # Solar Mixture: Asplund et al. (2005)         
 # ------------------------------------------------------------------------------------------------------------
 # NMD   LOG AGE    Xc      LOG L     LOG TE    LOG Tc   LOG RHOc    M-CC       L-PP       L-CNO       L-GRA
 #        (yr)              (Lo)        (K)       (K)   (gr/cm^3)    (Mo)        (L)         (L)         (L)
 # ------------------------------------------------------------------------------------------------------------
   1  5.04240299   0.710   0.17672   3.56494   6.02880  -0.86504   0.00000   9.790E-01   0.000E+00   2.120E-02
   2  5.26542965   0.710   0.16826   3.56478   6.03253  -0.85382   0.00000   9.415E-01   0.000E+00   5.818E-02
   3  5.41206153   0.710   0.15944   3.56462   6.03644  -0.84210   0.00000   9.377E-01   0.000E+00   6.224E-02
   4  5.52148566   0.710   0.15145   3.56446   6.03997  -0.83152   0.00000   9.414E-01   0.000E+00   5.869E-02
   5  5.60881371   0.710   0.14421   3.56431   6.04315  -0.82195   0.00000   9.448E-01   0.000E+00   5.528E-02
   6  5.68148748   0.710   0.13759   3.56417   6.04606  -0.81321   0.00000   9.481E-01   0.000E+00   5.197E-02
   7  5.74372564   0.710   0.13102   3.56404   6.04894  -0.80455   0.00000   9.511E-01   0.000E+00   4.894E-02
   8  5.79815230   0.710   0.12499   3.56392   6.05159  -0.79658   0.00000   9.517E-01   0.000E+00   4.831E-02
   9  5.84651145   0.710   0.11895   3.56379   6.05424  -0.78860   0.00000   9.524E-01   0.000E+00   4.768E-02
  10  5.89002123   0.710   0.11291   3.56367   6.05689  -0.78063   0.00000   9.529E-01   0.000E+00   4.717E-02
  11  5.92956619   0.710   0.10685   3.56354   6.05955  -0.77266   0.00000   9.520E-01   0.000E+00   4.798E-02
  12  5.96580895   0.710   0.10078   3.56340   6.06220  -0.76470   0.00000   9.511E-01   0.000E+00   4.879E-02
  13  5.99925876   0.710   0.09472   3.56327   6.06485  -0.75673   0.00000   9.502E-01   0.000E+00   4.961E-02
  14  6.03031545   0.710   0.08828   3.56313   6.06766  -0.74829   0.00000   9.484E-01   0.000E+00   5.154E-02
  15  6.05929871   0.710   0.08173   3.56298   6.07052  -0.73970   0.00000   9.463E-01   0.000E+00   5.382E-02
  16  6.08646815   0.710   0.07517   3.56283   6.07337  -0.73111   0.00000   9.441E-01   0.000E+00   5.609E-02
  17  6.11203747   0.710   0.06817   3.56267   6.07642  -0.72196   0.00000   9.410E-01   0.000E+00   5.928E-02
  18  6.13618473   0.710   0.06067   3.56249   6.07968  -0.71215   0.00000   9.367E-01   0.000E+00   6.351E-02
  19  6.15905980   0.710   0.05317   3.56231   6.08295  -0.70235   0.00000   9.325E-01   0.000E+00   6.774E-02
  20  6.18079004   0.710   0.04505   3.56212   6.08647  -0.69176   0.00000   9.269E-01   0.000E+00   7.331E-02
  21  6.20148462   0.710   0.03608   3.56190   6.09035  -0.68008   0.00000   9.194E-01   0.000E+00   8.078E-02
  22  6.22123776   0.710   0.02710   3.56167   6.09423  -0.66840   0.00000   9.119E-01   0.000E+00   8.825E-02
  23  6.24013142   0.710   0.01659   3.56141   6.09877  -0.65475   0.00000   9.002E-01   0.000E+00   9.985E-02
  24  6.25823727   0.710   0.00557   3.56112   6.10353  -0.64045   0.00000   8.872E-01   0.000E+00   1.128E-01
  25  6.27561840   0.710  -0.00691   3.56079   6.10888  -0.62436   0.00000   8.692E-01   0.000E+00   1.308E-01
  26  6.29233060   0.710  -0.02070   3.56041   6.11477  -0.60663   0.00000   8.466E-01   0.000E+00   1.534E-01
  27  6.30842345   0.710  -0.03685   3.55996   6.12168  -0.58587   0.00000   8.126E-01   0.000E+00   1.874E-01
  28  6.32394123   0.710  -0.05497   3.55945   6.12942  -0.56261   0.00000   7.683E-01   0.000E+00   2.317E-01
  29  6.33892361   0.710  -0.07636   3.55882   6.13851  -0.53526   0.00000   7.051E-01   0.000E+00   2.949E-01
  30  6.35340632   0.710  -0.10201   3.55803   6.14940  -0.50257   0.00000   6.140E-01   0.000E+00   3.860E-01
  31  6.36742161   0.710  -0.13228   3.55705   6.16212  -0.46431   0.00000   4.907E-01   0.000E+00   5.093E-01
  32  6.38099871   0.710  -0.16671   3.55589   6.17654  -0.42101   0.00000   3.473E-01   0.000E+00   6.527E-01
  33  6.39416419   0.710  -0.20434   3.55457   6.19217  -0.37396   0.00000   2.076E-01   0.000E+00   7.924E-01
  34  6.40694228   0.710  -0.24195   3.55322   6.20783  -0.32695   0.00000   1.221E-01   0.000E+00   8.776E-01
  35  6.41935513   0.710  -0.27699   3.55196   6.22236  -0.28322   0.00000   8.283E-02   0.000E+00   9.172E-01
  36  6.43142303   0.710  -0.30931   3.55084   6.23589  -0.24259   0.00000   5.345E-02   0.000E+00   9.465E-01
  37  6.44316464   0.710  -0.33899   3.54987   6.24847  -0.20486   0.00000   3.254E-02   0.000E+00   9.675E-01
  38  6.45459715   0.710  -0.36614   3.54902   6.26000  -0.17011   0.00000   1.984E-02   0.000E+00   9.802E-01
  39  6.46573640   0.710  -0.39105   3.54830   6.27074  -0.13782   0.00000   1.183E-02   0.000E+00   9.882E-01
  40  6.47659708   0.710  -0.41404   3.54768   6.28071  -0.10781   0.00000   7.404E-03   0.000E+00   9.926E-01
  41  6.48719276   0.710  -0.43537   3.54715   6.29001  -0.07980   0.00000   4.000E-03   0.000E+00   9.960E-01
  42  6.50669970   0.710  -0.47180   3.54633   6.30610  -0.03134   0.00000   2.051E-03   0.000E+00   9.979E-01
  43  6.52536799   0.710  -0.50387   3.54569   6.32044   0.01189   0.00000   1.000E-03   0.000E+00   9.990E-01
  44  6.54326678   0.710  -0.53275   3.54516   6.33345   0.05113   0.00000   0.000E+00   0.000E+00   1.000E+00
  45  6.56045701   0.710  -0.55882   3.54474   6.34530   0.08684   0.00000   0.000E+00   0.000E+00   1.000E+00
  46  6.57699264   0.710  -0.58277   3.54439   6.35625   0.11986   0.00000   0.000E+00   0.000E+00   1.000E+00
  47  6.59292171   0.710  -0.60479   3.54408   6.36637   0.15040   0.00000   0.000E+00   0.000E+00   1.000E+00
  48  6.60828714   0.710  -0.62513   3.54383   6.37576   0.17873   0.00000   0.000E+00   0.000E+00   1.000E+00
  49  6.62312747   0.710  -0.64410   3.54361   6.38457   0.20531   0.00000   0.000E+00   0.000E+00   1.000E+00
  50  6.63747739   0.710  -0.66194   3.54341   6.39286   0.23032   0.00000   0.000E+00   0.000E+00   1.000E+00
  51  6.65136830   0.710  -0.67871   3.54324   6.40069   0.25396   0.00000   0.000E+00   0.000E+00   1.000E+00
  52  6.66482864   0.710  -0.69442   3.54309   6.40806   0.27620   0.00000   0.000E+00   0.000E+00   1.000E+00
  53  6.67788430   0.710  -0.70929   3.54297   6.41504   0.29730   0.00000   0.000E+00   0.000E+00   1.000E+00
  54  6.69055892   0.710  -0.72347   3.54285   6.42171   0.31746   0.00000   0.000E+00   0.000E+00   1.000E+00
  55  6.70287410   0.710  -0.73705   3.54274   6.42812   0.33681   0.00000   0.000E+00   0.000E+00   1.000E+00
  56  6.71484967   0.710  -0.74992   3.54264   6.43420   0.35519   0.00000   0.000E+00   0.000E+00   1.000E+00
  57  6.72650386   0.710  -0.76216   3.54257   6.44001   0.37274   0.00000   0.000E+00   0.000E+00   1.000E+00
  58  6.73785347   0.710  -0.77404   3.54250   6.44566   0.38980   0.00000   0.000E+00   0.000E+00   1.000E+00
  59  6.74891401   0.710  -0.78532   3.54242   6.45102   0.40600   0.00000   0.000E+00   0.000E+00   1.000E+00
  60  6.75969985   0.710  -0.79621   3.54236   6.45621   0.42168   0.00000   0.000E+00   0.000E+00   1.000E+00
  61  6.77022429   0.710  -0.80674   3.54231   6.46123   0.43688   0.00000   0.000E+00   0.000E+00   1.000E+00
  62  6.78049971   0.710  -0.81679   3.54226   6.46603   0.45138   0.00000   0.000E+00   0.000E+00   1.000E+00
  63  6.79053763   0.710  -0.82668   3.54221   6.47075   0.46565   0.00000   0.000E+00   0.000E+00   1.000E+00
  64  6.80034877   0.710  -0.83601   3.54217   6.47522   0.47916   0.00000   0.000E+00   0.000E+00   1.000E+00
  65  6.80994315   0.710  -0.84525   3.54213   6.47964   0.49254   0.00000   0.000E+00   0.000E+00   1.000E+00
  66  6.81933015   0.710  -0.85401   3.54209   6.48383   0.50524   0.00000   0.000E+00   0.000E+00   1.000E+00
  67  6.82851854   0.710  -0.86266   3.54205   6.48799   0.51779   0.00000   0.000E+00   0.000E+00   1.000E+00
  68  6.83751655   0.710  -0.87094   3.54202   6.49197   0.52983   0.00000   0.000E+00   0.000E+00   1.000E+00
  69  6.84633191   0.710  -0.87904   3.54199   6.49586   0.54161   0.00000   0.000E+00   0.000E+00   1.000E+00
  70  6.85497189   0.710  -0.88696   3.54196   6.49966   0.55313   0.00000   0.000E+00   0.000E+00   1.000E+00
  71  6.86344334   0.710  -0.89456   3.54194   6.50331   0.56418   0.00000   0.000E+00   0.000E+00   1.000E+00
  72  6.87175269   0.710  -0.90216   3.54191   6.50696   0.57522   0.00000   0.000E+00   0.000E+00   1.000E+00
  73  6.87990604   0.710  -0.90932   3.54189   6.51041   0.58565   0.00000   0.000E+00   0.000E+00   1.000E+00
  74  6.88790914   0.710  -0.91643   3.54186   6.51383   0.59600   0.00000   0.000E+00   0.000E+00   1.000E+00
  75  6.89576742   0.710  -0.92343   3.54183   6.51720   0.60620   0.00000   0.000E+00   0.000E+00   1.000E+00
  76  6.90348604   0.710  -0.93010   3.54181   6.52040   0.61591   0.00000   0.000E+00   0.000E+00   1.000E+00
  77  6.91106986   0.710  -0.93677   3.54179   6.52361   0.62562   0.00000   0.000E+00   0.000E+00   1.000E+00
  78  6.91852353   0.710  -0.94325   3.54177   6.52673   0.63507   0.00000   0.000E+00   0.000E+00   1.000E+00
  79  6.92585142   0.710  -0.94950   3.54175   6.52973   0.64417   0.00000   0.000E+00   0.000E+00   1.000E+00
  80  6.93305772   0.710  -0.95574   3.54173   6.53274   0.65328   0.00000   0.000E+00   0.000E+00   1.000E+00
  81  6.94014640   0.710  -0.96182   3.54171   6.53566   0.66214   0.00000   0.000E+00   0.000E+00   1.000E+00
  82  6.94712122   0.710  -0.96768   3.54169   6.53848   0.67068   0.00000   0.000E+00   0.000E+00   1.000E+00
  83  6.95398580   0.710  -0.97354   3.54167   6.54130   0.67922   0.00000   0.000E+00   0.000E+00   1.000E+00
  84  6.96074356   0.710  -0.97931   3.54166   6.54408   0.68764   0.00000   0.000E+00   0.000E+00   1.000E+00
  85  6.96739778   0.710  -0.98480   3.54164   6.54672   0.69566   0.00000   0.000E+00   0.000E+00   1.000E+00
  86  6.97395158   0.710  -0.99030   3.54162   6.54936   0.70367   0.00000   0.000E+00   0.000E+00   1.000E+00
  87  6.98040794   0.710  -0.99579   3.54160   6.55201   0.71168   0.00000   0.000E+00   0.000E+00   1.000E+00
  88  6.98676973   0.710  -1.00099   3.54159   6.55451   0.71929   0.00000   0.000E+00   0.000E+00   1.000E+00
  89  6.99303967   0.710  -1.00614   3.54158   6.55699   0.72680   0.00000   0.000E+00   0.000E+00   1.000E+00
  90  6.99922038   0.710  -1.01128   3.54156   6.55947   0.73432   0.00000   0.000E+00   0.000E+00   1.000E+00
  91  7.00531435   0.710  -1.01637   3.54155   6.56191   0.74175   0.00000   0.000E+00   0.000E+00   1.000E+00
  92  7.01132400   0.710  -1.02120   3.54153   6.56424   0.74880   0.00000   0.000E+00   0.000E+00   1.000E+00
  93  7.01725163   0.710  -1.02604   3.54152   6.56656   0.75584   0.00000   0.000E+00   0.000E+00   1.000E+00
  94  7.02309944   0.710  -1.03087   3.54150   6.56888   0.76289   0.00000   0.000E+00   0.000E+00   1.000E+00
  95  7.02886955   0.710  -1.03561   3.54149   6.57117   0.76981   0.00000   0.000E+00   0.000E+00   1.000E+00
  96  7.03456400   0.710  -1.04013   3.54147   6.57334   0.77642   0.00000   0.000E+00   0.000E+00   1.000E+00
  97  7.04018475   0.710  -1.04466   3.54146   6.57552   0.78302   0.00000   0.000E+00   0.000E+00   1.000E+00
  98  7.04573369   0.710  -1.04918   3.54144   6.57769   0.78963   0.00000   0.000E+00   0.000E+00   1.000E+00
  99  7.05121262   0.710  -1.05366   3.54143   6.57985   0.79618   0.00000   0.000E+00   0.000E+00   1.000E+00
 100  7.05662329   0.710  -1.05791   3.54141   6.58189   0.80237   0.00000   0.000E+00   0.000E+00   1.000E+00
 101  7.06196738   0.710  -1.06215   3.54140   6.58393   0.80857   0.00000   0.000E+00   0.000E+00   1.000E+00
 102  7.06724651   0.710  -1.06640   3.54138   6.58597   0.81476   0.00000   0.000E+00   0.000E+00   1.000E+00
 103  7.07246224   0.710  -1.07065   3.54136   6.58801   0.82095   0.00000   0.000E+00   0.000E+00   1.000E+00
 104  7.07761607   0.710  -1.07470   3.54135   6.58996   0.82687   0.00000   0.000E+00   0.000E+00   1.000E+00
 105  7.08270945   0.710  -1.07868   3.54134   6.59187   0.83268   0.00000   0.000E+00   0.000E+00   1.000E+00
 106  7.08774380   0.710  -1.08266   3.54133   6.59378   0.83849   0.00000   0.000E+00   0.000E+00   1.000E+00
 107  7.09272045   0.710  -1.08664   3.54131   6.59570   0.84430   0.00000   0.000E+00   0.000E+00   1.000E+00
 108  7.09764072   0.710  -1.09062   3.54130   6.59761   0.85010   0.00000   0.000E+00   0.000E+00   1.000E+00
 109  7.10250587   0.710  -1.09435   3.54129   6.59940   0.85555   0.00000   0.000E+00   0.000E+00   1.000E+00
 110  7.10731712   0.710  -1.09808   3.54127   6.60119   0.86100   0.00000   0.000E+00   0.000E+00   1.000E+00
 111  7.11207566   0.710  -1.10182   3.54126   6.60298   0.86644   0.00000   0.000E+00   0.000E+00   1.000E+00
 112  7.11678262   0.710  -1.10555   3.54124   6.60477   0.87189   0.00000   0.000E+00   0.000E+00   1.000E+00
 113  7.12143911   0.710  -1.10929   3.54123   6.60656   0.87734   0.00000   0.000E+00   0.000E+00   1.000E+00
 114  7.12604621   0.710  -1.11279   3.54122   6.60824   0.88245   0.00000   0.000E+00   0.000E+00   1.000E+00
 115  7.13060494   0.710  -1.11629   3.54120   6.60992   0.88755   0.00000   0.000E+00   0.000E+00   1.000E+00
 116  7.13511632   0.710  -1.11979   3.54119   6.61160   0.89266   0.00000   0.000E+00   0.000E+00   1.000E+00
 117  7.13958132   0.710  -1.12329   3.54118   6.61328   0.89776   0.00000   0.000E+00   0.000E+00   1.000E+00
 118  7.14400087   0.710  -1.12679   3.54116   6.61496   0.90287   0.00000   0.000E+00   0.000E+00   1.000E+00
 119  7.14837591   0.710  -1.13015   3.54115   6.61658   0.90777   0.00000   0.000E+00   0.000E+00   1.000E+00
 120  7.15270731   0.710  -1.13343   3.54114   6.61815   0.91255   0.00000   0.000E+00   0.000E+00   1.000E+00
 121  7.15699594   0.710  -1.13671   3.54113   6.61972   0.91733   0.00000   0.000E+00   0.000E+00   1.000E+00
 122  7.16124263   0.710  -1.14000   3.54112   6.62130   0.92211   0.00000   0.000E+00   0.000E+00   1.000E+00
 123  7.16544820   0.710  -1.14328   3.54110   6.62287   0.92690   0.00000   0.000E+00   0.000E+00   1.000E+00
 124  7.16961344   0.710  -1.14656   3.54109   6.62444   0.93168   0.00000   0.000E+00   0.000E+00   1.000E+00
 125  7.17373910   0.710  -1.14966   3.54108   6.62592   0.93619   0.00000   1.518E-04   0.000E+00   9.998E-01
 126  7.17782594   0.710  -1.15273   3.54106   6.62740   0.94067   0.00000   3.160E-04   0.000E+00   9.997E-01
 127  7.18187468   0.710  -1.15581   3.54105   6.62887   0.94516   0.00000   4.801E-04   0.000E+00   9.995E-01
 128  7.18588603   0.710  -1.15888   3.54104   6.63035   0.94964   0.00000   6.443E-04   0.000E+00   9.994E-01
 129  7.18986066   0.710  -1.16196   3.54103   6.63182   0.95413   0.00000   8.084E-04   0.000E+00   9.992E-01
 130  7.19379925   0.710  -1.16504   3.54101   6.63329   0.95861   0.00000   9.726E-04   0.000E+00   9.990E-01
 131  7.19770244   0.710  -1.16795   3.54100   6.63469   0.96286   0.00000   1.000E-03   0.000E+00   9.990E-01
 132  7.20157086   0.710  -1.17084   3.54099   6.63607   0.96706   0.00000   1.000E-03   0.000E+00   9.990E-01
 133  7.20540513   0.710  -1.17373   3.54098   6.63745   0.97127   0.00000   1.000E-03   0.000E+00   9.990E-01
 134  7.20920584   0.710  -1.17662   3.54096   6.63883   0.97547   0.00000   1.000E-03   0.000E+00   9.990E-01
 135  7.21297358   0.710  -1.17950   3.54095   6.64021   0.97967   0.00000   1.000E-03   0.000E+00   9.990E-01
 136  7.21670891   0.710  -1.18239   3.54094   6.64159   0.98387   0.00000   1.000E-03   0.000E+00   9.990E-01
 137  7.22041239   0.710  -1.18522   3.54093   6.64294   0.98799   0.00000   1.000E-03   0.000E+00   9.990E-01
 138  7.22408455   0.710  -1.18792   3.54091   6.64423   0.99193   0.00000   1.000E-03   0.000E+00   9.990E-01
 139  7.22772593   0.710  -1.19063   3.54090   6.64553   0.99587   0.00000   1.000E-03   0.000E+00   9.990E-01
 140  7.23133702   0.710  -1.19333   3.54089   6.64682   0.99981   0.00000   1.000E-03   0.000E+00   9.990E-01
 141  7.23491834   0.710  -1.19604   3.54088   6.64811   1.00375   0.00000   1.000E-03   0.000E+00   9.990E-01
 142  7.23847037   0.710  -1.19874   3.54087   6.64941   1.00768   0.00000   1.000E-03   0.000E+00   9.990E-01
 143  7.24199358   0.710  -1.20145   3.54086   6.65070   1.01162   0.00000   1.000E-03   0.000E+00   9.990E-01
 144  7.24548844   0.710  -1.20409   3.54085   6.65196   1.01546   0.00000   1.000E-03   0.000E+00   9.990E-01
 145  7.24895540   0.710  -1.20662   3.54083   6.65317   1.01916   0.00000   1.000E-03   0.000E+00   9.990E-01
 146  7.25239490   0.710  -1.20916   3.54082   6.65438   1.02285   0.00000   1.000E-03   0.000E+00   9.990E-01
 147  7.25580738   0.710  -1.21170   3.54081   6.65559   1.02654   0.00000   1.000E-03   0.000E+00   9.990E-01
 148  7.25919325   0.710  -1.21423   3.54080   6.65680   1.03024   0.00000   1.000E-03   0.000E+00   9.990E-01
 149  7.26255293   0.710  -1.21677   3.54078   6.65800   1.03393   0.00000   1.000E-03   0.000E+00   9.990E-01
 150  7.26588681   0.710  -1.21931   3.54077   6.65921   1.03762   0.00000   1.000E-03   0.000E+00   9.990E-01
 151  7.26919530   0.710  -1.22184   3.54076   6.66042   1.04132   0.00000   1.000E-03   0.000E+00   9.990E-01
 152  7.27247878   0.710  -1.22422   3.54075   6.66152   1.04481   0.00000   1.000E-03   0.000E+00   9.990E-01
 153  7.27573762   0.710  -1.22661   3.54074   6.66263   1.04831   0.00000   1.000E-03   0.000E+00   9.990E-01
 154  7.27897218   0.710  -1.22899   3.54073   6.66373   1.05180   0.00000   1.000E-03   0.000E+00   9.990E-01
 155  7.28218284   0.710  -1.23137   3.54071   6.66483   1.05530   0.00000   1.000E-03   0.000E+00   9.990E-01
 156  7.28536993   0.710  -1.23375   3.54070   6.66594   1.05879   0.00000   1.000E-03   0.000E+00   9.990E-01
 157  7.28853380   0.710  -1.23613   3.54069   6.66704   1.06229   0.00000   1.000E-03   0.000E+00   9.990E-01
 158  7.29167479   0.710  -1.23851   3.54068   6.66814   1.06578   0.00000   1.000E-03   0.000E+00   9.990E-01
 159  7.29479323   0.710  -1.24087   3.54067   6.66923   1.06925   0.00000   1.015E-03   0.000E+00   9.990E-01
 160  7.29788943   0.710  -1.24310   3.54066   6.67024   1.07256   0.00000   1.134E-03   0.000E+00   9.989E-01
 161  7.30096372   0.710  -1.24533   3.54065   6.67124   1.07586   0.00000   1.253E-03   0.000E+00   9.987E-01
 162  7.30401640   0.710  -1.24756   3.54064   6.67225   1.07917   0.00000   1.372E-03   0.000E+00   9.986E-01
 163  7.30704776   0.710  -1.24979   3.54063   6.67326   1.08248   0.00000   1.492E-03   0.000E+00   9.985E-01
 164  7.31005812   0.710  -1.25202   3.54062   6.67426   1.08579   0.00000   1.611E-03   0.000E+00   9.984E-01
 165  7.31304776   0.710  -1.25425   3.54060   6.67527   1.08909   0.00000   1.730E-03   0.000E+00   9.983E-01
 166  7.31601695   0.710  -1.25648   3.54059   6.67628   1.09240   0.00000   1.849E-03   0.000E+00   9.982E-01
 167  7.31896598   0.710  -1.25871   3.54058   6.67729   1.09571   0.00000   1.968E-03   0.000E+00   9.980E-01
 168  7.32189513   0.710  -1.26084   3.54057   6.67823   1.09889   0.00000   2.000E-03   0.000E+00   9.980E-01
 169  7.32480464   0.710  -1.26293   3.54056   6.67915   1.10202   0.00000   2.000E-03   0.000E+00   9.980E-01
 170  7.32769480   0.710  -1.26502   3.54055   6.68007   1.10516   0.00000   2.000E-03   0.000E+00   9.980E-01
 171  7.33056585   0.710  -1.26711   3.54054   6.68099   1.10829   0.00000   2.000E-03   0.000E+00   9.980E-01
 172  7.33341805   0.710  -1.26920   3.54053   6.68191   1.11142   0.00000   2.000E-03   0.000E+00   9.980E-01
 173  7.33625163   0.710  -1.27130   3.54052   6.68284   1.11456   0.00000   2.000E-03   0.000E+00   9.980E-01
 174  7.33906685   0.710  -1.27339   3.54050   6.68376   1.11769   0.00000   2.000E-03   0.000E+00   9.980E-01
 175  7.34186393   0.710  -1.27548   3.54049   6.68468   1.12082   0.00000   2.000E-03   0.000E+00   9.980E-01
 176  7.34464312   0.710  -1.27757   3.54048   6.68560   1.12396   0.00000   2.000E-03   0.000E+00   9.980E-01
 177  7.34740463   0.710  -1.27956   3.54047   6.68646   1.12697   0.00000   2.079E-03   0.000E+00   9.979E-01
 178  7.35014870   0.710  -1.28152   3.54046   6.68730   1.12993   0.00000   2.184E-03   0.000E+00   9.978E-01
 179  7.35287553   0.710  -1.28347   3.54045   6.68815   1.13290   0.00000   2.289E-03   0.000E+00   9.977E-01
 180  7.35558536   0.710  -1.28543   3.54044   6.68899   1.13587   0.00000   2.393E-03   0.000E+00   9.976E-01
 181  7.35827837   0.710  -1.28739   3.54043   6.68984   1.13884   0.00000   2.498E-03   0.000E+00   9.975E-01
 182  7.36095480   0.710  -1.28935   3.54042   6.69068   1.14181   0.00000   2.602E-03   0.000E+00   9.974E-01
 183  7.36361483   0.710  -1.29131   3.54041   6.69152   1.14477   0.00000   2.707E-03   0.000E+00   9.973E-01
 184  7.36625866   0.710  -1.29327   3.54040   6.69237   1.14774   0.00000   2.811E-03   0.000E+00   9.972E-01
 185  7.36888650   0.710  -1.29522   3.54039   6.69321   1.15071   0.00000   2.916E-03   0.000E+00   9.971E-01
 186  7.37149853   0.710  -1.29716   3.54038   6.69404   1.15365   0.00000   3.019E-03   0.000E+00   9.970E-01
 187  7.37409495   0.710  -1.29899   3.54037   6.69482   1.15646   0.00000   3.117E-03   0.000E+00   9.969E-01
 188  7.37667594   0.710  -1.30082   3.54036   6.69559   1.15927   0.00000   3.215E-03   0.000E+00   9.968E-01
 189  7.37924167   0.710  -1.30266   3.54035   6.69636   1.16208   0.00000   3.313E-03   0.000E+00   9.967E-01
 190  7.38179234   0.710  -1.30449   3.54034   6.69714   1.16490   0.00000   3.411E-03   0.000E+00   9.966E-01
 191  7.38432812   0.710  -1.30632   3.54033   6.69791   1.16771   0.00000   3.509E-03   0.000E+00   9.965E-01
 192  7.38684918   0.710  -1.30816   3.54032   6.69869   1.17052   0.00000   3.606E-03   0.000E+00   9.964E-01
 193  7.38935568   0.710  -1.30999   3.54031   6.69946   1.17333   0.00000   3.704E-03   0.000E+00   9.963E-01
 194  7.39184781   0.710  -1.31182   3.54030   6.70024   1.17615   0.00000   3.802E-03   0.000E+00   9.962E-01
 195  7.39432571   0.710  -1.31366   3.54029   6.70101   1.17896   0.00000   3.900E-03   0.000E+00   9.961E-01
 196  7.39678956   0.710  -1.31549   3.54028   6.70178   1.18177   0.00000   3.998E-03   0.000E+00   9.960E-01
 197  7.39923951   0.710  -1.31721   3.54027   6.70250   1.18443   0.00000   4.090E-03   0.000E+00   9.959E-01
 198  7.40167571   0.710  -1.31892   3.54026   6.70321   1.18709   0.00000   4.181E-03   0.000E+00   9.958E-01
 199  7.40409832   0.710  -1.32063   3.54025   6.70392   1.18976   0.00000   4.273E-03   0.000E+00   9.957E-01
 200  7.40650750   0.710  -1.32235   3.54024   6.70463   1.19242   0.00000   4.365E-03   0.000E+00   9.956E-01
 201  7.40890338   0.710  -1.32406   3.54023   6.70535   1.19508   0.00000   4.456E-03   0.000E+00   9.955E-01
 202  7.41128612   0.710  -1.32577   3.54023   6.70606   1.19774   0.00000   4.548E-03   0.000E+00   9.955E-01
 203  7.41365586   0.710  -1.32749   3.54022   6.70677   1.20040   0.00000   4.640E-03   0.000E+00   9.954E-01
 204  7.41601274   0.710  -1.32920   3.54021   6.70748   1.20306   0.00000   4.732E-03   0.000E+00   9.953E-01
 205  7.41835690   0.710  -1.33092   3.54020   6.70820   1.20572   0.00000   4.823E-03   0.000E+00   9.952E-01
 206  7.42068847   0.710  -1.33263   3.54019   6.70891   1.20838   0.00000   4.915E-03   0.000E+00   9.951E-01
 207  7.42300759   0.710  -1.33433   3.54018   6.70962   1.21103   0.00000   5.006E-03   0.000E+00   9.950E-01
 208  7.42531439   0.710  -1.33594   3.54017   6.71027   1.21355   0.00000   5.092E-03   0.000E+00   9.949E-01
 209  7.42760900   0.710  -1.33754   3.54016   6.71093   1.21607   0.00000   5.178E-03   0.000E+00   9.948E-01
 210  7.42989156   0.710  -1.33914   3.54015   6.71158   1.21859   0.00000   5.263E-03   0.000E+00   9.947E-01
 211  7.43216218   0.710  -1.34074   3.54014   6.71224   1.22111   0.00000   5.349E-03   0.000E+00   9.947E-01
 212  7.43442099   0.710  -1.34235   3.54013   6.71289   1.22363   0.00000   5.435E-03   0.000E+00   9.946E-01
 213  7.43666811   0.710  -1.34395   3.54012   6.71355   1.22615   0.00000   5.520E-03   0.000E+00   9.945E-01
 214  7.43890367   0.710  -1.34555   3.54011   6.71421   1.22867   0.00000   5.606E-03   0.000E+00   9.944E-01
 215  7.44112777   0.710  -1.34715   3.54010   6.71486   1.23119   0.00000   5.692E-03   0.000E+00   9.943E-01
 216  7.44334055   0.710  -1.34876   3.54009   6.71552   1.23371   0.00000   5.777E-03   0.000E+00   9.942E-01
 217  7.44554211   0.710  -1.35036   3.54009   6.71617   1.23622   0.00000   5.863E-03   0.000E+00   9.941E-01
 218  7.44773256   0.710  -1.35196   3.54008   6.71683   1.23874   0.00000   5.949E-03   0.000E+00   9.941E-01
 219  7.44991202   0.710  -1.35352   3.54007   6.71746   1.24121   0.00000   6.064E-03   0.000E+00   9.939E-01
 220  7.45208060   0.710  -1.35501   3.54006   6.71807   1.24359   0.00000   6.225E-03   0.000E+00   9.938E-01
 221  7.45423840   0.710  -1.35651   3.54005   6.71867   1.24598   0.00000   6.385E-03   0.000E+00   9.936E-01
 222  7.45638554   0.710  -1.35800   3.54005   6.71927   1.24836   0.00000   6.545E-03   0.000E+00   9.935E-01
 223  7.45852211   0.710  -1.35950   3.54004   6.71988   1.25075   0.00000   6.705E-03   0.000E+00   9.933E-01
 224  7.46064822   0.710  -1.36099   3.54003   6.72048   1.25313   0.00000   6.865E-03   0.000E+00   9.931E-01
 225  7.46276398   0.710  -1.36248   3.54002   6.72109   1.25552   0.00000   7.026E-03   0.000E+00   9.930E-01
 226  7.46486948   0.710  -1.36398   3.54002   6.72169   1.25790   0.00000   7.186E-03   0.000E+00   9.928E-01
 227  7.46696481   0.710  -1.36547   3.54001   6.72229   1.26029   0.00000   7.346E-03   0.000E+00   9.927E-01
 228  7.46905009   0.710  -1.36697   3.54000   6.72290   1.26267   0.00000   7.506E-03   0.000E+00   9.925E-01
 229  7.47112541   0.710  -1.36846   3.54000   6.72350   1.26505   0.00000   7.666E-03   0.000E+00   9.923E-01
 230  7.47319085   0.710  -1.36995   3.53999   6.72411   1.26744   0.00000   7.827E-03   0.000E+00   9.922E-01
 231  7.47524652   0.710  -1.37145   3.53998   6.72471   1.26982   0.00000   7.987E-03   0.000E+00   9.920E-01
 232  7.47729250   0.710  -1.37285   3.53997   6.72527   1.27209   0.00000   8.137E-03   0.000E+00   9.919E-01
 233  7.47932889   0.710  -1.37424   3.53997   6.72583   1.27435   0.00000   8.286E-03   0.000E+00   9.917E-01
 234  7.48135577   0.710  -1.37563   3.53996   6.72639   1.27660   0.00000   8.436E-03   0.000E+00   9.916E-01
 235  7.48337324   0.710  -1.37702   3.53995   6.72695   1.27886   0.00000   8.585E-03   0.000E+00   9.914E-01
 236  7.48538138   0.710  -1.37841   3.53995   6.72750   1.28111   0.00000   8.735E-03   0.000E+00   9.913E-01
 237  7.48738028   0.710  -1.37981   3.53994   6.72806   1.28337   0.00000   8.884E-03   0.000E+00   9.911E-01
 238  7.48937002   0.710  -1.38120   3.53993   6.72862   1.28563   0.00000   9.034E-03   0.000E+00   9.910E-01
 239  7.49135069   0.710  -1.38259   3.53993   6.72918   1.28788   0.00000   9.183E-03   0.000E+00   9.908E-01
 240  7.49332236   0.710  -1.38398   3.53992   6.72974   1.29014   0.00000   9.332E-03   0.000E+00   9.907E-01
 241  7.49528512   0.710  -1.38537   3.53991   6.73029   1.29240   0.00000   9.482E-03   0.000E+00   9.905E-01
 242  7.49723905   0.710  -1.38677   3.53991   6.73085   1.29465   0.00000   9.631E-03   0.000E+00   9.904E-01
 243  7.49918423   0.710  -1.38816   3.53990   6.73141   1.29691   0.00000   9.781E-03   0.000E+00   9.902E-01
 244  7.50112074   0.710  -1.38955   3.53989   6.73197   1.29916   0.00000   9.930E-03   0.000E+00   9.901E-01
 245  7.50304865   0.710  -1.39089   3.53989   6.73250   1.30136   0.00000   1.007E-02   0.000E+00   9.899E-01
 246  7.50496804   0.710  -1.39218   3.53988   6.73302   1.30349   0.00000   1.021E-02   0.000E+00   9.898E-01
 247  7.50687899   0.710  -1.39348   3.53988   6.73354   1.30562   0.00000   1.035E-02   0.000E+00   9.896E-01
 248  7.50878156   0.710  -1.39477   3.53987   6.73405   1.30776   0.00000   1.049E-02   0.000E+00   9.895E-01
 249  7.51067583   0.710  -1.39606   3.53986   6.73457   1.30989   0.00000   1.063E-02   0.000E+00   9.894E-01
 250  7.51256188   0.710  -1.39736   3.53986   6.73508   1.31203   0.00000   1.077E-02   0.000E+00   9.892E-01
 251  7.51443977   0.710  -1.39865   3.53985   6.73560   1.31416   0.00000   1.091E-02   0.000E+00   9.891E-01
 252  7.51630958   0.710  -1.39995   3.53985   6.73611   1.31629   0.00000   1.105E-02   0.000E+00   9.890E-01
 253  7.51817137   0.710  -1.40124   3.53984   6.73663   1.31843   0.00000   1.119E-02   0.000E+00   9.888E-01
 254  7.52002522   0.710  -1.40253   3.53984   6.73715   1.32056   0.00000   1.133E-02   0.000E+00   9.887E-01
 255  7.52187118   0.710  -1.40383   3.53983   6.73766   1.32269   0.00000   1.147E-02   0.000E+00   9.885E-01
 256  7.52370933   0.710  -1.40512   3.53983   6.73818   1.32483   0.00000   1.161E-02   0.000E+00   9.884E-01
 257  7.52553974   0.710  -1.40641   3.53982   6.73869   1.32696   0.00000   1.174E-02   0.000E+00   9.883E-01
 258  7.52736246   0.710  -1.40771   3.53981   6.73921   1.32910   0.00000   1.188E-02   0.000E+00   9.881E-01
 259  7.52917756   0.710  -1.40899   3.53981   6.73972   1.33121   0.00000   1.203E-02   0.000E+00   9.880E-01
 260  7.53098511   0.710  -1.41019   3.53980   6.74020   1.33322   0.00000   1.223E-02   0.000E+00   9.878E-01
 261  7.53278517   0.710  -1.41139   3.53980   6.74067   1.33524   0.00000   1.242E-02   0.000E+00   9.876E-01
 262  7.53457780   0.710  -1.41259   3.53980   6.74115   1.33725   0.00000   1.261E-02   0.000E+00   9.874E-01
 263  7.53636306   0.710  -1.41379   3.53979   6.74163   1.33926   0.00000   1.281E-02   0.000E+00   9.872E-01
 264  7.53814101   0.710  -1.41499   3.53979   6.74211   1.34128   0.00000   1.300E-02   0.000E+00   9.870E-01
 265  7.53991171   0.710  -1.41619   3.53978   6.74259   1.34329   0.00000   1.320E-02   0.000E+00   9.868E-01
 266  7.54167522   0.710  -1.41739   3.53978   6.74306   1.34531   0.00000   1.339E-02   0.000E+00   9.866E-01
 267  7.54343160   0.710  -1.41859   3.53977   6.74354   1.34732   0.00000   1.358E-02   0.000E+00   9.864E-01
 268  7.54518090   0.710  -1.41979   3.53977   6.74402   1.34933   0.00000   1.378E-02   0.000E+00   9.862E-01
 269  7.54692319   0.710  -1.42099   3.53976   6.74450   1.35135   0.00000   1.397E-02   0.000E+00   9.860E-01
 270  7.54865851   0.710  -1.42219   3.53976   6.74498   1.35336   0.00000   1.417E-02   0.000E+00   9.858E-01
 271  7.55038693   0.710  -1.42339   3.53975   6.74545   1.35537   0.00000   1.436E-02   0.000E+00   9.856E-01
 272  7.55210850   0.710  -1.42459   3.53975   6.74593   1.35739   0.00000   1.455E-02   0.000E+00   9.854E-01
 273  7.55382326   0.710  -1.42580   3.53975   6.74641   1.35940   0.00000   1.475E-02   0.000E+00   9.853E-01
 274  7.55553129   0.710  -1.42700   3.53974   6.74689   1.36142   0.00000   1.494E-02   0.000E+00   9.851E-01
 275  7.55723262   0.710  -1.42813   3.53974   6.74734   1.36335   0.00000   1.517E-02   0.000E+00   9.848E-01
 276  7.55892732   0.710  -1.42924   3.53974   6.74779   1.36525   0.00000   1.541E-02   0.000E+00   9.846E-01
 277  7.56061543   0.710  -1.43036   3.53973   6.74823   1.36715   0.00000   1.565E-02   0.000E+00   9.843E-01
 278  7.56229700   0.710  -1.43147   3.53973   6.74867   1.36905   0.00000   1.590E-02   0.000E+00   9.841E-01
 279  7.56397208   0.710  -1.43258   3.53973   6.74911   1.37095   0.00000   1.614E-02   0.000E+00   9.839E-01
 280  7.56564073   0.710  -1.43369   3.53973   6.74956   1.37285   0.00000   1.638E-02   0.000E+00   9.836E-01
 281  7.56730300   0.710  -1.43480   3.53972   6.75000   1.37475   0.00000   1.662E-02   0.000E+00   9.834E-01
 282  7.56895892   0.710  -1.43591   3.53972   6.75044   1.37665   0.00000   1.686E-02   0.000E+00   9.831E-01
 283  7.57060856   0.710  -1.43702   3.53972   6.75089   1.37855   0.00000   1.710E-02   0.000E+00   9.829E-01
 284  7.57225195   0.710  -1.43814   3.53972   6.75133   1.38045   0.00000   1.735E-02   0.000E+00   9.827E-01
 285  7.57388915   0.710  -1.43925   3.53971   6.75177   1.38235   0.00000   1.759E-02   0.000E+00   9.824E-01
 286  7.57552020   0.710  -1.44036   3.53971   6.75221   1.38425   0.00000   1.783E-02   0.000E+00   9.822E-01
 287  7.57714514   0.710  -1.44147   3.53971   6.75266   1.38615   0.00000   1.807E-02   0.000E+00   9.819E-01
 288  7.57876403   0.710  -1.44258   3.53971   6.75310   1.38805   0.00000   1.831E-02   0.000E+00   9.817E-01
 289  7.58037691   0.710  -1.44369   3.53970   6.75354   1.38995   0.00000   1.855E-02   0.000E+00   9.814E-01
 290  7.58198382   0.710  -1.44480   3.53970   6.75399   1.39185   0.00000   1.880E-02   0.000E+00   9.812E-01
 291  7.58358480   0.710  -1.44590   3.53970   6.75442   1.39373   0.00000   1.904E-02   0.000E+00   9.810E-01
 292  7.58517991   0.710  -1.44693   3.53970   6.75484   1.39552   0.00000   1.933E-02   0.000E+00   9.807E-01
 293  7.58676917   0.710  -1.44795   3.53970   6.75525   1.39731   0.00000   1.961E-02   0.000E+00   9.804E-01
 294  7.58835265   0.710  -1.44898   3.53969   6.75566   1.39910   0.00000   1.990E-02   0.000E+00   9.801E-01
 295  7.58993037   0.710  -1.45001   3.53969   6.75607   1.40089   0.00000   2.018E-02   0.000E+00   9.798E-01
 296  7.59150238   0.710  -1.45103   3.53969   6.75648   1.40268   0.00000   2.047E-02   0.000E+00   9.795E-01
 297  7.59306872   0.710  -1.45206   3.53969   6.75689   1.40447   0.00000   2.075E-02   0.000E+00   9.792E-01
 298  7.59462943   0.710  -1.45308   3.53969   6.75730   1.40626   0.00000   2.103E-02   0.000E+00   9.790E-01
 299  7.59618455   0.710  -1.45411   3.53969   6.75771   1.40805   0.00000   2.132E-02   0.000E+00   9.787E-01
 300  7.59773413   0.710  -1.45514   3.53968   6.75812   1.40984   0.00000   2.160E-02   0.000E+00   9.784E-01
 301  7.59927819   0.710  -1.45616   3.53968   6.75853   1.41163   0.00000   2.189E-02   0.000E+00   9.781E-01
 302  7.60081679   0.710  -1.45719   3.53968   6.75895   1.41342   0.00000   2.217E-02   0.000E+00   9.778E-01
 303  7.60234995   0.710  -1.45821   3.53968   6.75936   1.41521   0.00000   2.246E-02   0.000E+00   9.775E-01
 304  7.60387772   0.710  -1.45924   3.53968   6.75977   1.41700   0.00000   2.274E-02   0.000E+00   9.773E-01
 305  7.60540013   0.710  -1.46027   3.53968   6.76018   1.41879   0.00000   2.302E-02   0.000E+00   9.770E-01
 306  7.60691723   0.710  -1.46129   3.53967   6.76059   1.42058   0.00000   2.331E-02   0.000E+00   9.767E-01
 307  7.60842904   0.710  -1.46232   3.53967   6.76100   1.42237   0.00000   2.359E-02   0.000E+00   9.764E-01
 308  7.60993561   0.710  -1.46335   3.53967   6.76141   1.42416   0.00000   2.388E-02   0.000E+00   9.761E-01
 309  7.61143697   0.710  -1.46433   3.53967   6.76180   1.42589   0.00000   2.418E-02   0.000E+00   9.758E-01
 310  7.61293316   0.710  -1.46527   3.53967   6.76218   1.42757   0.00000   2.450E-02   0.000E+00   9.755E-01
 311  7.61442422   0.710  -1.46622   3.53967   6.76256   1.42925   0.00000   2.482E-02   0.000E+00   9.752E-01
 312  7.61591017   0.710  -1.46716   3.53967   6.76294   1.43093   0.00000   2.514E-02   0.000E+00   9.749E-01
 313  7.61739105   0.710  -1.46811   3.53967   6.76332   1.43260   0.00000   2.546E-02   0.000E+00   9.745E-01
 314  7.61886690   0.710  -1.46906   3.53967   6.76370   1.43428   0.00000   2.578E-02   0.000E+00   9.742E-01
 315  7.62033775   0.710  -1.47000   3.53967   6.76408   1.43596   0.00000   2.611E-02   0.000E+00   9.739E-01
 316  7.62180364   0.710  -1.47095   3.53967   6.76446   1.43764   0.00000   2.643E-02   0.000E+00   9.736E-01
 317  7.62326460   0.710  -1.47190   3.53967   6.76484   1.43932   0.00000   2.675E-02   0.000E+00   9.733E-01
 318  7.62472066   0.710  -1.47284   3.53967   6.76521   1.44099   0.00000   2.707E-02   0.000E+00   9.729E-01
 319  7.62617185   0.710  -1.47379   3.53967   6.76559   1.44267   0.00000   2.739E-02   0.000E+00   9.726E-01
 320  7.62761821   0.710  -1.47473   3.53967   6.76597   1.44435   0.00000   2.771E-02   0.000E+00   9.723E-01
 321  7.62905977   0.710  -1.47568   3.53967   6.76635   1.44603   0.00000   2.803E-02   0.000E+00   9.720E-01
 322  7.63049656   0.710  -1.47663   3.53967   6.76673   1.44771   0.00000   2.835E-02   0.000E+00   9.717E-01
 323  7.63192862   0.710  -1.47757   3.53967   6.76711   1.44939   0.00000   2.867E-02   0.000E+00   9.713E-01
 324  7.63335596   0.710  -1.47852   3.53967   6.76749   1.45106   0.00000   2.899E-02   0.000E+00   9.710E-01
 325  7.63477863   0.710  -1.47947   3.53967   6.76787   1.45274   0.00000   2.931E-02   0.000E+00   9.707E-01
 326  7.63619666   0.710  -1.48041   3.53967   6.76824   1.45442   0.00000   2.963E-02   0.000E+00   9.704E-01
 327  7.63761007   0.710  -1.48136   3.53967   6.76862   1.45610   0.00000   2.995E-02   0.000E+00   9.700E-01
 328  7.63901890   0.710  -1.48224   3.53967   6.76898   1.45770   0.00000   3.030E-02   0.000E+00   9.697E-01
 329  7.64042317   0.710  -1.48311   3.53967   6.76934   1.45928   0.00000   3.065E-02   0.000E+00   9.694E-01
 330  7.64182291   0.710  -1.48398   3.53967   6.76970   1.46086   0.00000   3.100E-02   0.000E+00   9.690E-01
 331  7.64321816   0.710  -1.48485   3.53968   6.77006   1.46245   0.00000   3.135E-02   0.000E+00   9.687E-01
 332  7.64460894   0.710  -1.48572   3.53968   6.77041   1.46403   0.00000   3.169E-02   0.000E+00   9.683E-01
 333  7.64599528   0.710  -1.48660   3.53968   6.77077   1.46562   0.00000   3.204E-02   0.000E+00   9.680E-01
 334  7.64737720   0.710  -1.48747   3.53968   6.77113   1.46720   0.00000   3.239E-02   0.000E+00   9.676E-01
 335  7.64875475   0.710  -1.48834   3.53968   6.77149   1.46878   0.00000   3.274E-02   0.000E+00   9.673E-01
 336  7.65012794   0.710  -1.48921   3.53968   6.77184   1.47037   0.00000   3.309E-02   0.000E+00   9.669E-01
 337  7.65149680   0.710  -1.49008   3.53968   6.77220   1.47195   0.00000   3.344E-02   0.000E+00   9.666E-01
 338  7.65286136   0.710  -1.49095   3.53969   6.77256   1.47354   0.00000   3.379E-02   0.000E+00   9.662E-01
 339  7.65422164   0.710  -1.49182   3.53969   6.77292   1.47512   0.00000   3.414E-02   0.000E+00   9.659E-01
 340  7.65557768   0.710  -1.49269   3.53969   6.77327   1.47670   0.00000   3.449E-02   0.000E+00   9.655E-01
 341  7.65692950   0.710  -1.49356   3.53969   6.77363   1.47829   0.00000   3.484E-02   0.000E+00   9.652E-01
 342  7.65827712   0.710  -1.49444   3.53969   6.77399   1.47987   0.00000   3.519E-02   0.000E+00   9.648E-01
 343  7.65962058   0.710  -1.49531   3.53969   6.77434   1.48145   0.00000   3.554E-02   0.000E+00   9.645E-01
 344  7.66095989   0.710  -1.49618   3.53970   6.77470   1.48304   0.00000   3.589E-02   0.000E+00   9.641E-01
 345  7.66229508   0.710  -1.49705   3.53970   6.77506   1.48462   0.00000   3.624E-02   0.000E+00   9.638E-01
 346  7.66362618   0.710  -1.49792   3.53970   6.77542   1.48621   0.00000   3.659E-02   0.000E+00   9.634E-01
 347  7.66495322   0.710  -1.49879   3.53970   6.77577   1.48779   0.00000   3.694E-02   0.000E+00   9.631E-01
 348  7.66627621   0.710  -1.49960   3.53970   6.77611   1.48929   0.00000   3.731E-02   0.000E+00   9.627E-01
 349  7.66759518   0.710  -1.50040   3.53970   6.77645   1.49078   0.00000   3.769E-02   0.000E+00   9.623E-01
 350  7.66891016   0.710  -1.50120   3.53971   6.77678   1.49226   0.00000   3.806E-02   0.000E+00   9.619E-01
 351  7.67022117   0.710  -1.50200   3.53971   6.77711   1.49375   0.00000   3.844E-02   0.000E+00   9.616E-01
 352  7.67152824   0.710  -1.50280   3.53971   6.77745   1.49523   0.00000   3.882E-02   0.000E+00   9.612E-01
 353  7.67283138   0.710  -1.50360   3.53971   6.77778   1.49672   0.00000   3.919E-02   0.000E+00   9.608E-01
 354  7.67413062   0.710  -1.50440   3.53972   6.77812   1.49820   0.00000   3.957E-02   0.000E+00   9.604E-01
 355  7.67542599   0.710  -1.50520   3.53972   6.77845   1.49969   0.00000   3.995E-02   0.000E+00   9.601E-01
 356  7.67671751   0.710  -1.50600   3.53972   6.77878   1.50117   0.00000   4.033E-02   0.000E+00   9.597E-01
 357  7.67800519   0.710  -1.50680   3.53972   6.77912   1.50266   0.00000   4.070E-02   0.000E+00   9.593E-01
 358  7.67928907   0.710  -1.50760   3.53973   6.77945   1.50414   0.00000   4.108E-02   0.000E+00   9.589E-01
 359  7.68056917   0.710  -1.50840   3.53973   6.77979   1.50562   0.00000   4.146E-02   0.000E+00   9.585E-01
 360  7.68184550   0.710  -1.50920   3.53973   6.78012   1.50711   0.00000   4.184E-02   0.000E+00   9.582E-01
 361  7.68311810   0.710  -1.51000   3.53973   6.78045   1.50859   0.00000   4.221E-02   0.000E+00   9.578E-01
 362  7.68438698   0.710  -1.51080   3.53973   6.78079   1.51008   0.00000   4.259E-02   0.000E+00   9.574E-01
 363  7.68565215   0.710  -1.51159   3.53974   6.78112   1.51156   0.00000   4.297E-02   0.000E+00   9.570E-01
 364  7.68691366   0.710  -1.51239   3.53974   6.78146   1.51305   0.00000   4.335E-02   0.000E+00   9.567E-01
 365  7.68817151   0.710  -1.51319   3.53974   6.78179   1.51453   0.00000   4.372E-02   0.000E+00   9.563E-01
 366  7.68942573   0.710  -1.51399   3.53974   6.78212   1.51602   0.00000   4.410E-02   0.000E+00   9.559E-01
 367  7.69067633   0.710  -1.51479   3.53975   6.78246   1.51750   0.00000   4.448E-02   0.000E+00   9.555E-01
 368  7.69192335   0.710  -1.51559   3.53975   6.78279   1.51899   0.00000   4.485E-02   0.000E+00   9.551E-01
 369  7.69316680   0.710  -1.51635   3.53975   6.78311   1.52041   0.00000   4.527E-02   0.000E+00   9.547E-01
 370  7.69440669   0.710  -1.51708   3.53976   6.78342   1.52181   0.00000   4.571E-02   0.000E+00   9.543E-01
 371  7.69564306   0.710  -1.51782   3.53976   6.78374   1.52320   0.00000   4.616E-02   0.000E+00   9.538E-01
 372  7.69687591   0.710  -1.51855   3.53976   6.78405   1.52459   0.00000   4.660E-02   0.000E+00   9.534E-01
 373  7.69810528   0.710  -1.51928   3.53977   6.78436   1.52598   0.00000   4.704E-02   0.000E+00   9.530E-01
 374  7.69933117   0.710  -1.52002   3.53977   6.78467   1.52737   0.00000   4.748E-02   0.000E+00   9.525E-01
 375  7.70055362   0.710  -1.52075   3.53978   6.78498   1.52876   0.00000   4.792E-02   0.000E+00   9.521E-01
 376  7.70177263   0.710  -1.52148   3.53978   6.78530   1.53016   0.00000   4.837E-02   0.000E+00   9.516E-01
 377  7.70298823   0.710  -1.52222   3.53978   6.78561   1.53155   0.00000   4.881E-02   0.000E+00   9.512E-01
 378  7.70420044   0.710  -1.52295   3.53979   6.78592   1.53294   0.00000   4.925E-02   0.000E+00   9.507E-01
 379  7.70540928   0.710  -1.52368   3.53979   6.78623   1.53433   0.00000   4.969E-02   0.000E+00   9.503E-01
 380  7.70661476   0.710  -1.52442   3.53980   6.78655   1.53572   0.00000   5.014E-02   0.000E+00   9.499E-01
 381  7.70781690   0.710  -1.52515   3.53980   6.78686   1.53711   0.00000   5.058E-02   0.000E+00   9.494E-01
 382  7.70901572   0.710  -1.52588   3.53980   6.78717   1.53851   0.00000   5.102E-02   0.000E+00   9.490E-01
 383  7.71021125   0.710  -1.52661   3.53981   6.78748   1.53990   0.00000   5.146E-02   0.000E+00   9.485E-01
 384  7.71140349   0.710  -1.52735   3.53981   6.78779   1.54129   0.00000   5.190E-02   0.000E+00   9.481E-01
 385  7.71259247   0.710  -1.52808   3.53982   6.78811   1.54268   0.00000   5.235E-02   0.000E+00   9.477E-01
 386  7.71377820   0.710  -1.52881   3.53982   6.78842   1.54407   0.00000   5.279E-02   0.000E+00   9.472E-01
 387  7.71496070   0.710  -1.52955   3.53982   6.78873   1.54546   0.00000   5.323E-02   0.000E+00   9.468E-01
 388  7.71613999   0.710  -1.53028   3.53983   6.78904   1.54686   0.00000   5.367E-02   0.000E+00   9.463E-01
 389  7.71731609   0.710  -1.53101   3.53983   6.78936   1.54825   0.00000   5.412E-02   0.000E+00   9.459E-01
 390  7.71848901   0.710  -1.53175   3.53984   6.78967   1.54964   0.00000   5.456E-02   0.000E+00   9.454E-01
 391  7.71965878   0.710  -1.53248   3.53984   6.78998   1.55103   0.00000   5.500E-02   0.000E+00   9.450E-01
 392  7.73697385   0.710  -1.54262   3.53991   6.79436   1.57074   0.00000   6.315E-02   0.000E+00   9.368E-01
 393  7.75362497   0.710  -1.55239   3.53998   6.79864   1.58990   0.00000   7.156E-02   0.000E+00   9.284E-01
 394  7.76966117   0.710  -1.56164   3.54006   6.80276   1.60826   0.00000   8.036E-02   0.000E+00   9.196E-01
 395  7.78512627   0.710  -1.57029   3.54015   6.80671   1.62567   0.00000   9.028E-02   0.000E+00   9.097E-01
 396  7.80005955   0.710  -1.57870   3.54024   6.81058   1.64268   0.00000   1.007E-01   0.000E+00   8.993E-01
 397  7.81449636   0.710  -1.58638   3.54034   6.81425   1.65854   0.00000   1.118E-01   0.000E+00   8.882E-01
 398  7.82846867   0.710  -1.59396   3.54044   6.81788   1.67423   0.00000   1.230E-01   0.000E+00   8.770E-01
 399  7.84200543   0.710  -1.60085   3.54055   6.82132   1.68872   0.00000   1.355E-01   0.000E+00   8.645E-01
 400  7.85513298   0.710  -1.60766   3.54066   6.82474   1.70309   0.00000   1.482E-01   0.000E+00   8.518E-01
 401  7.86787533   0.710  -1.61391   3.54077   6.82798   1.71642   0.00000   1.619E-01   0.000E+00   8.381E-01
 402  7.88025445   0.710  -1.62000   3.54088   6.83118   1.72947   0.00000   1.757E-01   0.000E+00   8.243E-01
 403  7.89229047   0.710  -1.62576   3.54099   6.83425   1.74184   0.00000   1.903E-01   0.000E+00   8.097E-01
 404  7.90400190   0.710  -1.63116   3.54111   6.83718   1.75343   0.00000   2.057E-01   0.000E+00   7.943E-01
 405  7.91540579   0.710  -1.63656   3.54122   6.84012   1.76503   0.00000   2.211E-01   0.000E+00   7.789E-01
 406  7.92651788   0.710  -1.64132   3.54133   6.84290   1.77541   0.00000   2.375E-01   0.000E+00   7.625E-01
 407  7.93735273   0.710  -1.64605   3.54144   6.84568   1.78571   0.00000   2.539E-01   0.000E+00   7.461E-01
 408  7.94792383   0.710  -1.65069   3.54155   6.84842   1.79582   0.00000   2.704E-01   0.000E+00   7.296E-01
 409  7.95824373   0.710  -1.65478   3.54166   6.85097   1.80469   0.00000   2.875E-01   0.000E+00   7.125E-01
 410  7.96832408   0.710  -1.65886   3.54177   6.85352   1.81355   0.00000   3.047E-01   0.000E+00   6.953E-01
 411  7.97817576   0.710  -1.66295   3.54188   6.85607   1.82242   0.00000   3.219E-01   0.000E+00   6.781E-01
 412  7.98780890   0.710  -1.66643   3.54198   6.85838   1.82986   0.00000   3.400E-01   0.000E+00   6.600E-01
 413  7.99723300   0.710  -1.66990   3.54207   6.86068   1.83729   0.00000   3.581E-01   0.000E+00   6.419E-01
 414  8.00645694   0.710  -1.67338   3.54217   6.86299   1.84472   0.00000   3.761E-01   0.000E+00   6.239E-01
 415  8.01548904   0.710  -1.67662   3.54226   6.86520   1.85155   0.00000   3.943E-01   0.000E+00   6.057E-01
 416  8.02433711   0.710  -1.67951   3.54235   6.86724   1.85750   0.00000   4.125E-01   0.000E+00   5.875E-01
 417  8.03300851   0.710  -1.68241   3.54243   6.86929   1.86344   0.00000   4.307E-01   0.000E+00   5.693E-01
 418  8.04151016   0.710  -1.68530   3.54251   6.87133   1.86939   0.00000   4.490E-01   0.000E+00   5.510E-01
 419  8.04984857   0.710  -1.68809   3.54259   6.87333   1.87507   0.00000   4.670E-01   0.000E+00   5.330E-01
 420  8.05802990   0.710  -1.69042   3.54266   6.87507   1.87952   0.00000   4.843E-01   0.000E+00   5.157E-01
 421  8.06605995   0.710  -1.69275   3.54272   6.87682   1.88397   0.00000   5.016E-01   0.000E+00   4.984E-01
 422  8.07394421   0.710  -1.69507   3.54279   6.87857   1.88842   0.00000   5.189E-01   0.000E+00   4.811E-01
 423  8.08168790   0.710  -1.69740   3.54286   6.88032   1.89287   0.00000   5.362E-01   0.000E+00   4.638E-01
 424  8.08929592   0.710  -1.69972   3.54292   6.88205   1.89727   0.00000   5.535E-01   0.000E+00   4.465E-01
 425  8.09677296   0.710  -1.70151   3.54297   6.88347   1.90025   0.00000   5.690E-01   0.000E+00   4.310E-01
 426  8.10412344   0.710  -1.70330   3.54301   6.88488   1.90323   0.00000   5.844E-01   0.000E+00   4.156E-01
 427  8.11135159   0.710  -1.70509   3.54305   6.88630   1.90621   0.00000   5.999E-01   0.000E+00   4.001E-01
 428  8.11846140   0.710  -1.70688   3.54310   6.88771   1.90918   0.00000   6.154E-01   0.000E+00   3.846E-01
 429  8.12545669   0.710  -1.70868   3.54314   6.88913   1.91216   0.00000   6.309E-01   0.000E+00   3.691E-01
 430  8.13234108   0.710  -1.71047   3.54319   6.89054   1.91514   0.00000   6.464E-01   0.000E+00   3.536E-01
 431  8.13911805   0.710  -1.71204   3.54322   6.89179   1.91749   0.00000   6.605E-01   0.000E+00   3.395E-01
 432  8.14579089   0.709  -1.71331   3.54324   6.89285   1.91905   0.00000   6.729E-01   0.000E+00   3.271E-01
 433  8.15236275   0.709  -1.71459   3.54326   6.89390   1.92062   0.00000   6.853E-01   0.000E+00   3.147E-01
 434  8.15883665   0.709  -1.71587   3.54328   6.89495   1.92218   0.00000   6.977E-01   0.000E+00   3.023E-01
 435  8.16521545   0.709  -1.71715   3.54330   6.89600   1.92374   0.00000   7.101E-01   0.000E+00   2.899E-01
 436  8.17150192   0.709  -1.71843   3.54332   6.89705   1.92531   0.00000   7.225E-01   0.000E+00   2.775E-01
 437  8.17769869   0.709  -1.71971   3.54334   6.89811   1.92687   0.00000   7.349E-01   0.000E+00   2.651E-01
 438  8.18380829   0.709  -1.72099   3.54336   6.89916   1.92843   0.00000   7.473E-01   0.000E+00   2.527E-01
 439  8.18983312   0.709  -1.72227   3.54338   6.90021   1.93000   0.00000   7.597E-01   0.000E+00   2.403E-01
 440  8.19577552   0.709  -1.72340   3.54339   6.90115   1.93117   0.00008   7.709E-01   0.000E+00   2.291E-01
 441  8.20163770   0.709  -1.72422   3.54339   6.90186   1.93157   0.00033   7.797E-01   0.000E+00   2.203E-01
 442  8.20742181   0.709  -1.72505   3.54338   6.90257   1.93197   0.00057   7.885E-01   0.000E+00   2.115E-01
 443  8.21312989   0.709  -1.72587   3.54338   6.90327   1.93237   0.00081   7.974E-01   0.000E+00   2.026E-01
 444  8.21876393   0.709  -1.72670   3.54338   6.90398   1.93277   0.00106   8.062E-01   0.000E+00   1.938E-01
 445  8.22432581   0.709  -1.72752   3.54338   6.90469   1.93317   0.00130   8.150E-01   0.000E+00   1.850E-01
 446  8.22981735   0.709  -1.72835   3.54337   6.90540   1.93357   0.00154   8.238E-01   0.000E+00   1.762E-01
 447  8.23524033   0.709  -1.72917   3.54337   6.90611   1.93396   0.00179   8.326E-01   0.000E+00   1.674E-01
 448  8.24059643   0.709  -1.73000   3.54337   6.90682   1.93436   0.00203   8.414E-01   0.000E+00   1.586E-01
 449  8.24588727   0.709  -1.73082   3.54337   6.90753   1.93476   0.00228   8.502E-01   0.000E+00   1.498E-01
 450  8.25111443   0.709  -1.73165   3.54336   6.90824   1.93516   0.00252   8.590E-01   0.000E+00   1.410E-01
 451  8.25627942   0.709  -1.73247   3.54336   6.90895   1.93556   0.00276   8.678E-01   0.000E+00   1.322E-01
 452  8.26138371   0.709  -1.73329   3.54336   6.90968   1.93585   0.00323   8.776E-01   0.000E+00   1.224E-01
 453  8.26642871   0.709  -1.73396   3.54334   6.91071   1.93477   0.00670   9.009E-01   0.000E+00   9.913E-02
 454  8.27141577   0.709  -1.73462   3.54333   6.91175   1.93368   0.01016   9.241E-01   0.000E+00   7.589E-02
 455  8.27634621   0.709  -1.73516   3.54328   6.91270   1.93127   0.01426   9.611E-01   0.000E+00   3.885E-02
 456  8.28122131   0.709  -1.73561   3.54323   6.91360   1.92802   0.01873   1.007E+00   0.000E+00  -6.721E-03
 457  8.28604229   0.709  -1.73606   3.54317   6.91450   1.92478   0.02321   1.052E+00   0.000E+00  -5.230E-02
 458  8.29081034   0.709  -1.73644   3.54309   6.91500   1.92109   0.02687   1.086E+00   0.000E+00  -8.614E-02
 459  8.29552661   0.709  -1.73677   3.54299   6.91525   1.91714   0.03004   1.113E+00   0.000E+00  -1.129E-01
 460  8.30019222   0.709  -1.73710   3.54289   6.91551   1.91319   0.03322   1.140E+00   0.000E+00  -1.397E-01
 461  8.30480823   0.709  -1.73743   3.54279   6.91577   1.90925   0.03639   1.166E+00   0.000E+00  -1.665E-01
 462  8.30937570   0.709  -1.73775   3.54269   6.91594   1.90540   0.03923   1.189E+00   0.000E+00  -1.890E-01
 463  8.31389563   0.709  -1.73798   3.54258   6.91578   1.90198   0.04075   1.194E+00   0.000E+00  -1.940E-01
 464  8.31836900   0.709  -1.73822   3.54247   6.91562   1.89856   0.04226   1.199E+00   0.000E+00  -1.989E-01
 465  8.32279677   0.709  -1.73846   3.54236   6.91546   1.89513   0.04378   1.204E+00   0.000E+00  -2.039E-01
 466  8.32717984   0.709  -1.73870   3.54225   6.91529   1.89171   0.04530   1.209E+00   0.000E+00  -2.089E-01
 467  8.33151913   0.709  -1.73893   3.54214   6.91513   1.88829   0.04681   1.214E+00   0.000E+00  -2.139E-01
 468  8.33581548   0.709  -1.73914   3.54204   6.91495   1.88506   0.04807   1.217E+00   0.000E+00  -2.171E-01
 469  8.34006975   0.709  -1.73917   3.54196   6.91467   1.88277   0.04807   1.212E+00   0.000E+00  -2.119E-01
 470  8.34428275   0.709  -1.73920   3.54188   6.91439   1.88048   0.04807   1.207E+00   0.000E+00  -2.067E-01
 471  8.34845528   0.709  -1.73924   3.54180   6.91411   1.87819   0.04807   1.201E+00   0.000E+00  -2.014E-01
 472  8.35258809   0.709  -1.73927   3.54172   6.91383   1.87590   0.04807   1.196E+00   0.000E+00  -1.962E-01
 473  8.35668195   0.709  -1.73930   3.54164   6.91355   1.87361   0.04807   1.191E+00   0.000E+00  -1.910E-01
 474  8.36073758   0.709  -1.73934   3.54157   6.91327   1.87132   0.04807   1.186E+00   0.000E+00  -1.857E-01
 475  8.36475568   0.709  -1.73937   3.54149   6.91299   1.86903   0.04807   1.181E+00   0.000E+00  -1.805E-01
 476  8.36873695   0.709  -1.73940   3.54141   6.91271   1.86674   0.04807   1.175E+00   0.000E+00  -1.753E-01
 477  8.37268205   0.709  -1.73932   3.54137   6.91249   1.86551   0.04764   1.169E+00   0.000E+00  -1.685E-01
 478  8.37659164   0.709  -1.73920   3.54134   6.91229   1.86462   0.04707   1.161E+00   0.000E+00  -1.613E-01
 479  8.38046635   0.709  -1.73908   3.54131   6.91209   1.86373   0.04649   1.154E+00   0.000E+00  -1.541E-01
 480  8.38430679   0.709  -1.73897   3.54128   6.91190   1.86284   0.04592   1.147E+00   0.000E+00  -1.468E-01
 481  8.38811357   0.709  -1.73885   3.54125   6.91170   1.86195   0.04535   1.140E+00   0.000E+00  -1.396E-01
 482  8.39188727   0.709  -1.73873   3.54123   6.91150   1.86107   0.04477   1.133E+00   0.000E+00  -1.324E-01
 483  8.39562847   0.709  -1.73861   3.54120   6.91130   1.86018   0.04420   1.125E+00   0.000E+00  -1.251E-01
 484  8.39933771   0.709  -1.73849   3.54117   6.91110   1.85929   0.04363   1.118E+00   0.000E+00  -1.179E-01
 485  8.40301553   0.709  -1.73838   3.54114   6.91091   1.85840   0.04306   1.111E+00   0.000E+00  -1.107E-01
 486  8.40666248   0.709  -1.73826   3.54111   6.91071   1.85751   0.04248   1.104E+00   0.000E+00  -1.035E-01
 487  8.41027905   0.709  -1.73814   3.54108   6.91051   1.85662   0.04191   1.096E+00   0.000E+00  -9.622E-02
 488  8.41386576   0.709  -1.73802   3.54105   6.91031   1.85573   0.04134   1.089E+00   0.000E+00  -8.899E-02
 489  8.41742308   0.709  -1.73790   3.54103   6.91013   1.85493   0.04081   1.083E+00   0.000E+00  -8.231E-02
 490  8.42095151   0.709  -1.73778   3.54102   6.91003   1.85467   0.04056   1.080E+00   0.000E+00  -7.929E-02
 491  8.42445150   0.709  -1.73765   3.54102   6.90993   1.85441   0.04030   1.077E+00   0.000E+00  -7.628E-02
 492  8.42792351   0.709  -1.73753   3.54101   6.90984   1.85415   0.04005   1.074E+00   0.000E+00  -7.326E-02
 493  8.43136798   0.709  -1.73740   3.54101   6.90974   1.85389   0.03980   1.071E+00   0.000E+00  -7.025E-02
 494  8.43478534   0.709  -1.73728   3.54100   6.90964   1.85363   0.03955   1.068E+00   0.000E+00  -6.724E-02
 495  8.43817603   0.709  -1.73715   3.54100   6.90955   1.85338   0.03930   1.065E+00   0.000E+00  -6.422E-02
 496  8.44154045   0.709  -1.73703   3.54099   6.90945   1.85312   0.03905   1.062E+00   0.000E+00  -6.121E-02
 497  8.44487900   0.709  -1.73690   3.54099   6.90935   1.85286   0.03880   1.058E+00   0.000E+00  -5.819E-02
 498  8.44819209   0.709  -1.73678   3.54098   6.90926   1.85260   0.03855   1.055E+00   0.000E+00  -5.518E-02
 499  8.45148009   0.709  -1.73665   3.54098   6.90916   1.85234   0.03830   1.052E+00   0.000E+00  -5.217E-02
 500  8.45474339   0.709  -1.73653   3.54097   6.90906   1.85209   0.03804   1.049E+00   0.000E+00  -4.915E-02
 501  8.45798235   0.709  -1.73640   3.54097   6.90896   1.85183   0.03779   1.046E+00   0.000E+00  -4.614E-02
 502  8.46119733   0.709  -1.73627   3.54096   6.90887   1.85157   0.03754   1.043E+00   0.000E+00  -4.312E-02
 503  8.46438869   0.709  -1.73615   3.54095   6.90877   1.85131   0.03729   1.040E+00   0.000E+00  -4.011E-02
 504  8.46755676   0.709  -1.73602   3.54095   6.90867   1.85105   0.03704   1.037E+00   0.000E+00  -3.710E-02
 505  8.47070190   0.709  -1.73590   3.54094   6.90858   1.85079   0.03679   1.034E+00   0.000E+00  -3.408E-02
 506  8.47382442   0.709  -1.73578   3.54094   6.90849   1.85057   0.03659   1.032E+00   0.000E+00  -3.145E-02
 507  8.47692465   0.709  -1.73570   3.54094   6.90845   1.85050   0.03659   1.031E+00   0.000E+00  -3.027E-02
 508  8.48000290   0.709  -1.73562   3.54094   6.90840   1.85043   0.03659   1.029E+00   0.000E+00  -2.909E-02
 509  8.48305949   0.709  -1.73553   3.54094   6.90836   1.85035   0.03659   1.028E+00   0.000E+00  -2.791E-02
 510  8.48609472   0.709  -1.73545   3.54094   6.90831   1.85028   0.03659   1.027E+00   0.000E+00  -2.673E-02
 511  8.48910888   0.709  -1.73537   3.54094   6.90827   1.85020   0.03659   1.026E+00   0.000E+00  -2.555E-02
 512  8.49210227   0.709  -1.73528   3.54094   6.90822   1.85013   0.03659   1.025E+00   0.000E+00  -2.437E-02
 513  8.49507517   0.709  -1.73520   3.54094   6.90818   1.85006   0.03659   1.023E+00   0.000E+00  -2.319E-02
 514  8.49802785   0.709  -1.73511   3.54094   6.90813   1.84998   0.03659   1.022E+00   0.000E+00  -2.201E-02
 515  8.50096060   0.709  -1.73503   3.54094   6.90809   1.84991   0.03659   1.021E+00   0.000E+00  -2.083E-02
 516  8.50387367   0.709  -1.73495   3.54094   6.90805   1.84983   0.03659   1.020E+00   0.000E+00  -1.965E-02
 517  8.50676733   0.709  -1.73486   3.54094   6.90800   1.84976   0.03659   1.019E+00   0.000E+00  -1.847E-02
 518  8.50964185   0.709  -1.73478   3.54094   6.90796   1.84969   0.03659   1.017E+00   0.000E+00  -1.730E-02
 519  8.51249746   0.709  -1.73470   3.54094   6.90791   1.84961   0.03659   1.016E+00   0.000E+00  -1.612E-02
 520  8.51533441   0.709  -1.73461   3.54094   6.90787   1.84954   0.03659   1.015E+00   0.000E+00  -1.494E-02
 521  8.51815296   0.709  -1.73453   3.54094   6.90782   1.84946   0.03659   1.014E+00   0.000E+00  -1.376E-02
 522  8.52095333   0.709  -1.73446   3.54094   6.90779   1.84940   0.03659   1.013E+00   0.000E+00  -1.282E-02
 523  8.52373576   0.708  -1.73442   3.54094   6.90777   1.84937   0.03659   1.013E+00   0.000E+00  -1.252E-02
 524  8.52650047   0.708  -1.73437   3.54094   6.90775   1.84933   0.03659   1.012E+00   0.000E+00  -1.222E-02
 525  8.52924770   0.708  -1.73433   3.54094   6.90774   1.84930   0.03659   1.012E+00   0.000E+00  -1.192E-02
 526  8.53197766   0.708  -1.73429   3.54094   6.90772   1.84927   0.03659   1.012E+00   0.000E+00  -1.162E-02
 527  8.53469056   0.708  -1.73425   3.54094   6.90770   1.84924   0.03659   1.011E+00   0.000E+00  -1.133E-02
 528  8.53738663   0.708  -1.73420   3.54095   6.90768   1.84920   0.03659   1.011E+00   0.000E+00  -1.103E-02
 529  8.54006605   0.708  -1.73416   3.54095   6.90767   1.84917   0.03659   1.011E+00   0.000E+00  -1.073E-02
 530  8.54272905   0.708  -1.73412   3.54095   6.90765   1.84914   0.03659   1.011E+00   0.000E+00  -1.043E-02
 531  8.54537582   0.708  -1.73408   3.54095   6.90763   1.84910   0.03659   1.010E+00   0.000E+00  -1.013E-02
 532  8.54800656   0.708  -1.73404   3.54095   6.90762   1.84907   0.03659   1.010E+00   0.000E+00  -9.835E-03
 533  8.55062146   0.708  -1.73399   3.54095   6.90760   1.84904   0.03659   1.010E+00   0.000E+00  -9.537E-03
 534  8.55322071   0.708  -1.73395   3.54095   6.90758   1.84900   0.03659   1.009E+00   0.000E+00  -9.239E-03
 535  8.55580449   0.708  -1.73391   3.54095   6.90757   1.84897   0.03659   1.009E+00   0.000E+00  -8.940E-03
 536  8.55837299   0.708  -1.73387   3.54095   6.90755   1.84894   0.03659   1.009E+00   0.000E+00  -8.642E-03
 537  8.56092639   0.708  -1.73382   3.54095   6.90753   1.84891   0.03659   1.009E+00   0.000E+00  -8.344E-03
 538  8.56346487   0.708  -1.73378   3.54095   6.90752   1.84887   0.03659   1.008E+00   0.000E+00  -8.045E-03
 539  8.56598860   0.708  -1.73374   3.54095   6.90750   1.84884   0.03659   1.008E+00   0.000E+00  -7.747E-03
 540  8.56849774   0.708  -1.73370   3.54096   6.90748   1.84881   0.03659   1.008E+00   0.000E+00  -7.449E-03
 541  8.57099247   0.708  -1.73366   3.54096   6.90747   1.84877   0.03659   1.007E+00   0.000E+00  -7.151E-03
 542  8.57347295   0.708  -1.73361   3.54096   6.90745   1.84874   0.03659   1.007E+00   0.000E+00  -6.852E-03
 543  8.57593935   0.708  -1.73357   3.54096   6.90743   1.84871   0.03659   1.007E+00   0.000E+00  -6.554E-03
 544  8.57839181   0.708  -1.73353   3.54096   6.90742   1.84867   0.03659   1.006E+00   0.000E+00  -6.256E-03
 545  8.58083051   0.708  -1.73349   3.54096   6.90740   1.84864   0.03659   1.006E+00   0.000E+00  -5.957E-03
 546  8.58325559   0.708  -1.73345   3.54096   6.90739   1.84861   0.03659   1.006E+00   0.000E+00  -5.752E-03
 547  8.58566720   0.708  -1.73343   3.54096   6.90738   1.84857   0.03659   1.006E+00   0.000E+00  -5.703E-03
 548  8.58806549   0.708  -1.73341   3.54096   6.90737   1.84854   0.03659   1.006E+00   0.000E+00  -5.654E-03
 549  8.59045062   0.708  -1.73338   3.54096   6.90736   1.84851   0.03659   1.006E+00   0.000E+00  -5.604E-03
 550  8.59282271   0.708  -1.73336   3.54096   6.90736   1.84847   0.03659   1.006E+00   0.000E+00  -5.555E-03
 551  8.59518192   0.708  -1.73334   3.54096   6.90735   1.84844   0.03659   1.006E+00   0.000E+00  -5.506E-03
 552  8.59752838   0.708  -1.73331   3.54096   6.90734   1.84841   0.03659   1.006E+00   0.000E+00  -5.457E-03
 553  8.59986224   0.708  -1.73329   3.54096   6.90733   1.84837   0.03659   1.006E+00   0.000E+00  -5.408E-03
 554  8.60218362   0.708  -1.73327   3.54096   6.90733   1.84834   0.03659   1.006E+00   0.000E+00  -5.359E-03
 555  8.60449265   0.708  -1.73325   3.54096   6.90732   1.84831   0.03659   1.005E+00   0.000E+00  -5.310E-03
 556  8.60678948   0.708  -1.73322   3.54096   6.90731   1.84827   0.03659   1.005E+00   0.000E+00  -5.261E-03
 557  8.60907422   0.708  -1.73320   3.54096   6.90730   1.84824   0.03659   1.005E+00   0.000E+00  -5.212E-03
 558  8.61134700   0.708  -1.73318   3.54096   6.90730   1.84821   0.03659   1.005E+00   0.000E+00  -5.163E-03
 559  8.61360795   0.708  -1.73315   3.54096   6.90729   1.84817   0.03659   1.005E+00   0.000E+00  -5.114E-03
 560  8.61585720   0.708  -1.73313   3.54096   6.90728   1.84814   0.03659   1.005E+00   0.000E+00  -5.065E-03
 561  8.61809485   0.708  -1.73311   3.54096   6.90727   1.84811   0.03659   1.005E+00   0.000E+00  -5.015E-03
 562  8.62032103   0.708  -1.73309   3.54096   6.90727   1.84807   0.03659   1.005E+00   0.000E+00  -4.966E-03
 563  8.62253586   0.708  -1.73306   3.54096   6.90726   1.84804   0.03659   1.005E+00   0.000E+00  -4.917E-03
 564  8.62473946   0.708  -1.73304   3.54095   6.90725   1.84801   0.03659   1.005E+00   0.000E+00  -4.868E-03
 565  8.62693192   0.708  -1.73302   3.54095   6.90724   1.84797   0.03659   1.005E+00   0.000E+00  -4.819E-03
 566  8.62911338   0.708  -1.73299   3.54095   6.90724   1.84794   0.03659   1.005E+00   0.000E+00  -4.770E-03
 567  8.63128393   0.708  -1.73297   3.54095   6.90723   1.84790   0.03659   1.005E+00   0.000E+00  -4.721E-03
 568  8.63344369   0.708  -1.73295   3.54095   6.90722   1.84787   0.03659   1.005E+00   0.000E+00  -4.672E-03
 569  8.63559276   0.708  -1.73293   3.54095   6.90721   1.84784   0.03659   1.005E+00   0.000E+00  -4.623E-03
 570  8.63773125   0.708  -1.73290   3.54095   6.90721   1.84780   0.03659   1.005E+00   0.000E+00  -4.574E-03
 571  8.63985926   0.708  -1.73288   3.54095   6.90720   1.84777   0.03659   1.005E+00   0.000E+00  -4.525E-03
 572  8.64197689   0.708  -1.73286   3.54095   6.90719   1.84774   0.03659   1.005E+00   0.000E+00  -4.475E-03
 573  8.64408425   0.708  -1.73283   3.54095   6.90718   1.84770   0.03659   1.004E+00   0.000E+00  -4.426E-03
 574  8.64618143   0.708  -1.73281   3.54095   6.90718   1.84767   0.03659   1.004E+00   0.000E+00  -4.377E-03
 575  8.64826854   0.708  -1.73279   3.54095   6.90717   1.84764   0.03659   1.004E+00   0.000E+00  -4.328E-03
 576  8.65034566   0.708  -1.73277   3.54095   6.90716   1.84760   0.03659   1.004E+00   0.000E+00  -4.279E-03
 577  8.65241289   0.708  -1.73274   3.54095   6.90715   1.84757   0.03659   1.004E+00   0.000E+00  -4.230E-03
 578  8.65447033   0.708  -1.73272   3.54095   6.90715   1.84754   0.03659   1.004E+00   0.000E+00  -4.181E-03
 579  8.65651807   0.708  -1.73270   3.54095   6.90714   1.84750   0.03659   1.004E+00   0.000E+00  -4.132E-03
 580  8.65855620   0.708  -1.73267   3.54095   6.90713   1.84747   0.03659   1.004E+00   0.000E+00  -4.083E-03
 581  8.66058481   0.708  -1.73265   3.54095   6.90712   1.84744   0.03659   1.004E+00   0.000E+00  -4.034E-03
 582  8.66260399   0.708  -1.73263   3.54095   6.90712   1.84740   0.03659   1.004E+00   0.000E+00  -4.004E-03
 583  8.66461382   0.708  -1.73262   3.54095   6.90711   1.84737   0.03659   1.004E+00   0.000E+00  -3.992E-03
 584  8.66661440   0.708  -1.73260   3.54095   6.90711   1.84734   0.03659   1.004E+00   0.000E+00  -3.980E-03
 585  8.66860580   0.708  -1.73258   3.54095   6.90710   1.84731   0.03659   1.004E+00   0.000E+00  -3.967E-03
 586  8.67058811   0.708  -1.73257   3.54095   6.90710   1.84728   0.03659   1.004E+00   0.000E+00  -3.955E-03
 587  8.67256142   0.708  -1.73255   3.54095   6.90709   1.84725   0.03659   1.004E+00   0.000E+00  -3.943E-03
 588  8.67452580   0.708  -1.73254   3.54095   6.90709   1.84722   0.03659   1.004E+00   0.000E+00  -3.931E-03
 589  8.67648133   0.708  -1.73252   3.54095   6.90708   1.84719   0.03659   1.004E+00   0.000E+00  -3.919E-03
 590  8.67842810   0.708  -1.73250   3.54095   6.90708   1.84715   0.03659   1.004E+00   0.000E+00  -3.907E-03
 591  8.68036618   0.708  -1.73249   3.54095   6.90707   1.84712   0.03659   1.004E+00   0.000E+00  -3.895E-03
 592  8.68229565   0.708  -1.73247   3.54095   6.90707   1.84709   0.03659   1.004E+00   0.000E+00  -3.883E-03
 593  8.68421658   0.708  -1.73246   3.54095   6.90706   1.84706   0.03659   1.004E+00   0.000E+00  -3.871E-03
 594  8.68612906   0.708  -1.73244   3.54095   6.90705   1.84703   0.03659   1.004E+00   0.000E+00  -3.859E-03
 595  8.68803315   0.708  -1.73242   3.54095   6.90705   1.84700   0.03659   1.004E+00   0.000E+00  -3.847E-03
 596  8.68992893   0.708  -1.73241   3.54095   6.90704   1.84697   0.03659   1.004E+00   0.000E+00  -3.835E-03
 597  8.69181647   0.708  -1.73239   3.54095   6.90704   1.84694   0.03659   1.004E+00   0.000E+00  -3.822E-03
 598  8.69369585   0.708  -1.73238   3.54095   6.90703   1.84690   0.03659   1.004E+00   0.000E+00  -3.810E-03
 599  8.69556712   0.708  -1.73236   3.54095   6.90703   1.84687   0.03659   1.004E+00   0.000E+00  -3.798E-03
 600  8.69743037   0.708  -1.73234   3.54095   6.90702   1.84684   0.03659   1.004E+00   0.000E+00  -3.786E-03
 601  8.69928565   0.708  -1.73233   3.54095   6.90702   1.84681   0.03659   1.004E+00   0.000E+00  -3.774E-03
 602  8.70113305   0.708  -1.73231   3.54095   6.90701   1.84678   0.03659   1.004E+00   0.000E+00  -3.762E-03
 603  8.70297262   0.708  -1.73230   3.54095   6.90701   1.84675   0.03659   1.004E+00   0.000E+00  -3.750E-03
 604  8.70480443   0.708  -1.73228   3.54095   6.90700   1.84672   0.03659   1.004E+00   0.000E+00  -3.738E-03
 605  8.70662855   0.708  -1.73226   3.54095   6.90700   1.84669   0.03659   1.004E+00   0.000E+00  -3.726E-03
 606  8.70844503   0.708  -1.73225   3.54095   6.90699   1.84665   0.03659   1.004E+00   0.000E+00  -3.714E-03
 607  8.71025395   0.708  -1.73223   3.54095   6.90699   1.84662   0.03659   1.004E+00   0.000E+00  -3.702E-03
 608  8.71205537   0.708  -1.73222   3.54095   6.90698   1.84659   0.03659   1.004E+00   0.000E+00  -3.690E-03
 609  8.71384935   0.708  -1.73220   3.54094   6.90698   1.84656   0.03659   1.003E+00   0.000E+00  -3.677E-03
 610  8.71563594   0.708  -1.73218   3.54094   6.90697   1.84653   0.03659   1.003E+00   0.000E+00  -3.665E-03
 611  8.71741522   0.707  -1.73217   3.54094   6.90697   1.84650   0.03659   1.003E+00   0.000E+00  -3.653E-03
 612  8.71918724   0.707  -1.73215   3.54094   6.90696   1.84647   0.03659   1.003E+00   0.000E+00  -3.641E-03
 613  8.72095205   0.707  -1.73214   3.54094   6.90696   1.84644   0.03659   1.003E+00   0.000E+00  -3.629E-03
 614  8.72270973   0.707  -1.73212   3.54094   6.90695   1.84640   0.03659   1.003E+00   0.000E+00  -3.617E-03
 615  8.72446031   0.707  -1.73210   3.54094   6.90695   1.84637   0.03659   1.003E+00   0.000E+00  -3.605E-03
 616  8.72620387   0.707  -1.73209   3.54094   6.90694   1.84634   0.03659   1.003E+00   0.000E+00  -3.593E-03
 617  8.72794046   0.707  -1.73207   3.54094   6.90694   1.84631   0.03659   1.003E+00   0.000E+00  -3.581E-03
 618  8.72967013   0.707  -1.73206   3.54094   6.90693   1.84628   0.03659   1.003E+00   0.000E+00  -3.569E-03
 619  8.73139295   0.707  -1.73204   3.54094   6.90692   1.84625   0.03659   1.003E+00   0.000E+00  -3.557E-03
 620  8.73310895   0.707  -1.73202   3.54094   6.90692   1.84622   0.03659   1.003E+00   0.000E+00  -3.544E-03
 621  8.73481820   0.707  -1.73201   3.54094   6.90691   1.84619   0.03659   1.003E+00   0.000E+00  -3.532E-03
 622  8.73652075   0.707  -1.73199   3.54094   6.90691   1.84615   0.03659   1.003E+00   0.000E+00  -3.520E-03
 623  8.73821665   0.707  -1.73198   3.54094   6.90690   1.84612   0.03659   1.003E+00   0.000E+00  -3.508E-03
 624  8.73990595   0.707  -1.73196   3.54094   6.90690   1.84609   0.03659   1.003E+00   0.000E+00  -3.496E-03
 625  8.74158871   0.707  -1.73194   3.54094   6.90689   1.84606   0.03659   1.003E+00   0.000E+00  -3.484E-03
 626  8.74326497   0.707  -1.73193   3.54094   6.90689   1.84603   0.03659   1.003E+00   0.000E+00  -3.472E-03
 627  8.74493479   0.707  -1.73191   3.54094   6.90688   1.84600   0.03659   1.003E+00   0.000E+00  -3.460E-03
 628  8.74659821   0.707  -1.73190   3.54094   6.90688   1.84597   0.03659   1.003E+00   0.000E+00  -3.448E-03
 629  8.74825529   0.707  -1.73188   3.54094   6.90687   1.84594   0.03659   1.003E+00   0.000E+00  -3.436E-03
 630  8.74990607   0.707  -1.73186   3.54094   6.90687   1.84590   0.03659   1.003E+00   0.000E+00  -3.424E-03
 631  8.75155059   0.707  -1.73185   3.54094   6.90686   1.84587   0.03659   1.003E+00   0.000E+00  -3.412E-03
 632  8.75318892   0.707  -1.73183   3.54094   6.90686   1.84584   0.03659   1.003E+00   0.000E+00  -3.399E-03
 633  8.75482108   0.707  -1.73182   3.54094   6.90685   1.84581   0.03659   1.003E+00   0.000E+00  -3.387E-03
 634  8.75644713   0.707  -1.73180   3.54094   6.90685   1.84578   0.03659   1.003E+00   0.000E+00  -3.375E-03
 635  8.75806712   0.707  -1.73178   3.54094   6.90684   1.84575   0.03659   1.003E+00   0.000E+00  -3.363E-03
 636  8.75968109   0.707  -1.73177   3.54094   6.90684   1.84572   0.03657   1.003E+00   0.000E+00  -3.354E-03
 637  8.76128908   0.707  -1.73176   3.54094   6.90683   1.84570   0.03654   1.003E+00   0.000E+00  -3.345E-03
 638  8.76289115   0.707  -1.73174   3.54094   6.90683   1.84567   0.03652   1.003E+00   0.000E+00  -3.336E-03
 639  8.76448732   0.707  -1.73173   3.54094   6.90683   1.84565   0.03649   1.003E+00   0.000E+00  -3.328E-03
 640  8.76607765   0.707  -1.73172   3.54094   6.90682   1.84563   0.03646   1.003E+00   0.000E+00  -3.319E-03
 641  8.76766217   0.707  -1.73170   3.54094   6.90682   1.84560   0.03644   1.003E+00   0.000E+00  -3.310E-03
 642  8.76924094   0.707  -1.73169   3.54094   6.90682   1.84558   0.03641   1.003E+00   0.000E+00  -3.302E-03
 643  8.77081398   0.707  -1.73168   3.54094   6.90681   1.84555   0.03639   1.003E+00   0.000E+00  -3.293E-03
 644  8.77238135   0.707  -1.73167   3.54094   6.90681   1.84553   0.03636   1.003E+00   0.000E+00  -3.284E-03
 645  8.77394309   0.707  -1.73165   3.54094   6.90681   1.84551   0.03633   1.003E+00   0.000E+00  -3.276E-03
 646  8.77549922   0.707  -1.73164   3.54094   6.90680   1.84548   0.03631   1.003E+00   0.000E+00  -3.267E-03
 647  8.77704981   0.707  -1.73163   3.54094   6.90680   1.84546   0.03628   1.003E+00   0.000E+00  -3.258E-03
 648  8.77859487   0.707  -1.73161   3.54094   6.90679   1.84543   0.03625   1.003E+00   0.000E+00  -3.249E-03
 649  8.78013446   0.707  -1.73160   3.54094   6.90679   1.84541   0.03623   1.003E+00   0.000E+00  -3.241E-03
 650  8.78166861   0.707  -1.73159   3.54094   6.90679   1.84539   0.03620   1.003E+00   0.000E+00  -3.232E-03
 651  8.78319736   0.707  -1.73157   3.54094   6.90678   1.84536   0.03617   1.003E+00   0.000E+00  -3.223E-03
 652  8.78472074   0.707  -1.73156   3.54094   6.90678   1.84534   0.03615   1.003E+00   0.000E+00  -3.215E-03
 653  8.78623880   0.707  -1.73155   3.54094   6.90678   1.84531   0.03612   1.003E+00   0.000E+00  -3.206E-03
 654  8.78775158   0.707  -1.73153   3.54094   6.90677   1.84529   0.03610   1.003E+00   0.000E+00  -3.197E-03
 655  8.78925910   0.707  -1.73152   3.54094   6.90677   1.84527   0.03607   1.003E+00   0.000E+00  -3.189E-03
 656  8.79076141   0.707  -1.73151   3.54093   6.90677   1.84524   0.03604   1.003E+00   0.000E+00  -3.180E-03
 657  8.79225854   0.707  -1.73149   3.54093   6.90676   1.84522   0.03602   1.003E+00   0.000E+00  -3.171E-03
 658  8.79375052   0.707  -1.73148   3.54093   6.90676   1.84519   0.03599   1.003E+00   0.000E+00  -3.163E-03
 659  8.79523740   0.707  -1.73147   3.54093   6.90675   1.84517   0.03596   1.003E+00   0.000E+00  -3.154E-03
 660  8.79671920   0.707  -1.73145   3.54093   6.90675   1.84515   0.03594   1.003E+00   0.000E+00  -3.145E-03
 661  8.79819597   0.707  -1.73144   3.54093   6.90675   1.84512   0.03591   1.003E+00   0.000E+00  -3.137E-03
 662  8.79966773   0.707  -1.73143   3.54093   6.90674   1.84510   0.03588   1.003E+00   0.000E+00  -3.128E-03
 663  8.80113452   0.707  -1.73142   3.54093   6.90674   1.84507   0.03586   1.003E+00   0.000E+00  -3.119E-03
 664  8.80259637   0.707  -1.73140   3.54093   6.90674   1.84505   0.03583   1.003E+00   0.000E+00  -3.111E-03
 665  8.80405332   0.707  -1.73139   3.54093   6.90673   1.84502   0.03580   1.003E+00   0.000E+00  -3.102E-03
 666  8.80550540   0.707  -1.73138   3.54093   6.90673   1.84500   0.03578   1.003E+00   0.000E+00  -3.093E-03
 667  8.80695264   0.707  -1.73136   3.54093   6.90673   1.84498   0.03575   1.003E+00   0.000E+00  -3.085E-03
 668  8.80839507   0.707  -1.73135   3.54093   6.90672   1.84495   0.03573   1.003E+00   0.000E+00  -3.076E-03
 669  8.80983273   0.707  -1.73134   3.54093   6.90672   1.84493   0.03570   1.003E+00   0.000E+00  -3.067E-03
 670  8.81126564   0.707  -1.73132   3.54093   6.90672   1.84490   0.03567   1.003E+00   0.000E+00  -3.059E-03
 671  8.81269384   0.707  -1.73131   3.54093   6.90671   1.84488   0.03565   1.003E+00   0.000E+00  -3.050E-03
 672  8.81411736   0.707  -1.73130   3.54093   6.90671   1.84486   0.03562   1.003E+00   0.000E+00  -3.041E-03
 673  8.81553623   0.707  -1.73128   3.54093   6.90670   1.84483   0.03559   1.003E+00   0.000E+00  -3.033E-03
 674  8.81695048   0.707  -1.73127   3.54093   6.90670   1.84481   0.03557   1.003E+00   0.000E+00  -3.024E-03
 675  8.81836014   0.707  -1.73126   3.54093   6.90670   1.84478   0.03554   1.003E+00   0.000E+00  -3.015E-03
 676  8.81976524   0.707  -1.73124   3.54093   6.90669   1.84476   0.03551   1.003E+00   0.000E+00  -3.007E-03
 677  8.82116580   0.707  -1.73123   3.54093   6.90669   1.84474   0.03549   1.003E+00   0.000E+00  -2.998E-03
 678  8.82256187   0.707  -1.73122   3.54093   6.90669   1.84471   0.03546   1.003E+00   0.000E+00  -2.989E-03
 679  8.82395346   0.707  -1.73121   3.54093   6.90668   1.84469   0.03544   1.003E+00   0.000E+00  -2.981E-03
 680  8.82534060   0.707  -1.73119   3.54093   6.90668   1.84466   0.03541   1.003E+00   0.000E+00  -2.972E-03
 681  8.82672333   0.707  -1.73118   3.54093   6.90668   1.84464   0.03538   1.003E+00   0.000E+00  -2.963E-03
 682  8.82810167   0.707  -1.73117   3.54093   6.90667   1.84462   0.03536   1.003E+00   0.000E+00  -2.954E-03
 683  8.82947565   0.707  -1.73115   3.54093   6.90667   1.84459   0.03533   1.003E+00   0.000E+00  -2.946E-03
 684  8.83084530   0.707  -1.73114   3.54093   6.90666   1.84457   0.03530   1.003E+00   0.000E+00  -2.937E-03
 685  8.83221064   0.707  -1.73113   3.54093   6.90666   1.84454   0.03528   1.003E+00   0.000E+00  -2.928E-03
 686  8.83357170   0.707  -1.73111   3.54093   6.90666   1.84452   0.03525   1.003E+00   0.000E+00  -2.920E-03
 687  8.83492851   0.707  -1.73110   3.54093   6.90665   1.84450   0.03522   1.003E+00   0.000E+00  -2.911E-03
 688  8.83628110   0.707  -1.73109   3.54093   6.90665   1.84447   0.03520   1.003E+00   0.000E+00  -2.902E-03
 689  8.83762948   0.707  -1.73107   3.54093   6.90665   1.84445   0.03517   1.003E+00   0.000E+00  -2.894E-03
 690  8.83897370   0.707  -1.73106   3.54093   6.90664   1.84442   0.03514   1.003E+00   0.000E+00  -2.885E-03
 691  8.84031376   0.707  -1.73105   3.54093   6.90664   1.84440   0.03512   1.003E+00   0.000E+00  -2.876E-03
 692  8.84164970   0.707  -1.73103   3.54093   6.90664   1.84438   0.03509   1.003E+00   0.000E+00  -2.868E-03
 693  8.84298155   0.707  -1.73102   3.54093   6.90663   1.84435   0.03507   1.003E+00   0.000E+00  -2.859E-03
 694  8.84430932   0.707  -1.73101   3.54093   6.90663   1.84433   0.03504   1.003E+00   0.000E+00  -2.850E-03
 695  8.84563304   0.707  -1.73100   3.54093   6.90663   1.84430   0.03501   1.003E+00   0.000E+00  -2.842E-03
 696  8.84695275   0.707  -1.73098   3.54092   6.90662   1.84428   0.03499   1.003E+00   0.000E+00  -2.833E-03
 697  8.84826845   0.707  -1.73097   3.54092   6.90662   1.84426   0.03496   1.003E+00   0.000E+00  -2.824E-03
 698  8.84958018   0.707  -1.73096   3.54092   6.90661   1.84423   0.03493   1.003E+00   0.000E+00  -2.816E-03
 699  8.85088797   0.707  -1.73094   3.54092   6.90661   1.84421   0.03491   1.003E+00   0.000E+00  -2.807E-03
 700  8.85219182   0.706  -1.73093   3.54092   6.90661   1.84418   0.03488   1.003E+00   0.000E+00  -2.798E-03
 701  8.85349177   0.706  -1.73092   3.54092   6.90660   1.84416   0.03485   1.003E+00   0.000E+00  -2.790E-03
 702  8.85478785   0.706  -1.73090   3.54092   6.90660   1.84414   0.03483   1.003E+00   0.000E+00  -2.781E-03
 703  8.85608006   0.706  -1.73089   3.54092   6.90660   1.84411   0.03480   1.003E+00   0.000E+00  -2.772E-03
 704  8.85736844   0.706  -1.73088   3.54092   6.90659   1.84409   0.03478   1.003E+00   0.000E+00  -2.764E-03
 705  8.85865302   0.706  -1.73086   3.54092   6.90659   1.84406   0.03475   1.003E+00   0.000E+00  -2.755E-03
 706  8.85993380   0.706  -1.73085   3.54092   6.90659   1.84404   0.03472   1.003E+00   0.000E+00  -2.746E-03
 707  8.86121082   0.706  -1.73084   3.54092   6.90658   1.84401   0.03470   1.003E+00   0.000E+00  -2.738E-03
 708  8.86248409   0.706  -1.73082   3.54092   6.90658   1.84399   0.03467   1.003E+00   0.000E+00  -2.729E-03
 709  8.86375364   0.706  -1.73081   3.54092   6.90657   1.84397   0.03464   1.003E+00   0.000E+00  -2.720E-03
 710  8.86501949   0.706  -1.73080   3.54092   6.90657   1.84394   0.03462   1.003E+00   0.000E+00  -2.712E-03
 711  8.86628167   0.706  -1.73078   3.54092   6.90657   1.84392   0.03459   1.003E+00   0.000E+00  -2.703E-03
 712  8.86754018   0.706  -1.73077   3.54092   6.90656   1.84389   0.03456   1.003E+00   0.000E+00  -2.694E-03
 713  8.86879506   0.706  -1.73076   3.54092   6.90656   1.84387   0.03454   1.003E+00   0.000E+00  -2.685E-03
 714  8.87004632   0.706  -1.73075   3.54092   6.90656   1.84385   0.03451   1.003E+00   0.000E+00  -2.677E-03
 715  8.87129399   0.706  -1.73073   3.54092   6.90655   1.84382   0.03448   1.003E+00   0.000E+00  -2.668E-03
 716  8.87253808   0.706  -1.73072   3.54092   6.90655   1.84380   0.03446   1.003E+00   0.000E+00  -2.659E-03
 717  8.87377862   0.706  -1.73071   3.54092   6.90655   1.84379   0.03446   1.003E+00   0.000E+00  -2.644E-03
 718  8.87501563   0.706  -1.73070   3.54092   6.90655   1.84379   0.03446   1.003E+00   0.000E+00  -2.630E-03
 719  8.87624912   0.706  -1.73069   3.54092   6.90655   1.84378   0.03446   1.003E+00   0.000E+00  -2.615E-03
 720  8.87747912   0.706  -1.73068   3.54092   6.90654   1.84377   0.03446   1.003E+00   0.000E+00  -2.600E-03
 721  8.87870565   0.706  -1.73068   3.54092   6.90654   1.84376   0.03446   1.003E+00   0.000E+00  -2.585E-03
 722  8.87992872   0.706  -1.73067   3.54092   6.90654   1.84376   0.03446   1.003E+00   0.000E+00  -2.571E-03
 723  8.88114836   0.706  -1.73066   3.54092   6.90654   1.84375   0.03446   1.003E+00   0.000E+00  -2.556E-03
 724  8.88236458   0.706  -1.73065   3.54092   6.90654   1.84374   0.03446   1.003E+00   0.000E+00  -2.541E-03
 725  8.88357741   0.706  -1.73064   3.54092   6.90654   1.84373   0.03446   1.003E+00   0.000E+00  -2.527E-03
 726  8.88478685   0.706  -1.73063   3.54092   6.90654   1.84373   0.03446   1.003E+00   0.000E+00  -2.512E-03
 727  8.88599294   0.706  -1.73062   3.54092   6.90654   1.84372   0.03446   1.003E+00   0.000E+00  -2.497E-03
 728  8.88719569   0.706  -1.73061   3.54092   6.90653   1.84371   0.03446   1.003E+00   0.000E+00  -2.482E-03
 729  8.88839512   0.706  -1.73061   3.54092   6.90653   1.84371   0.03446   1.003E+00   0.000E+00  -2.468E-03
 730  8.88959124   0.706  -1.73060   3.54092   6.90653   1.84370   0.03446   1.003E+00   0.000E+00  -2.453E-03
 731  8.89078408   0.706  -1.73059   3.54092   6.90653   1.84369   0.03446   1.003E+00   0.000E+00  -2.438E-03
 732  8.89197365   0.706  -1.73058   3.54092   6.90653   1.84368   0.03446   1.003E+00   0.000E+00  -2.424E-03
 733  8.89315997   0.706  -1.73057   3.54092   6.90653   1.84368   0.03446   1.003E+00   0.000E+00  -2.409E-03
 734  8.89434306   0.706  -1.73056   3.54092   6.90653   1.84367   0.03446   1.003E+00   0.000E+00  -2.394E-03
 735  8.89552294   0.706  -1.73055   3.54092   6.90653   1.84366   0.03446   1.003E+00   0.000E+00  -2.379E-03
 736  8.89669962   0.706  -1.73054   3.54092   6.90652   1.84365   0.03446   1.003E+00   0.000E+00  -2.365E-03
 737  8.89787312   0.706  -1.73054   3.54092   6.90652   1.84365   0.03446   1.003E+00   0.000E+00  -2.350E-03
 738  8.89904345   0.706  -1.73053   3.54092   6.90652   1.84364   0.03446   1.003E+00   0.000E+00  -2.335E-03
 739  8.90021065   0.706  -1.73052   3.54092   6.90652   1.84363   0.03446   1.003E+00   0.000E+00  -2.321E-03
 740  8.90137471   0.706  -1.73051   3.54092   6.90652   1.84363   0.03446   1.002E+00   0.000E+00  -2.306E-03
 741  8.90253566   0.706  -1.73050   3.54092   6.90652   1.84362   0.03446   1.002E+00   0.000E+00  -2.291E-03
 742  8.90369352   0.706  -1.73049   3.54092   6.90652   1.84361   0.03446   1.002E+00   0.000E+00  -2.276E-03
 743  8.90484829   0.706  -1.73048   3.54092   6.90652   1.84360   0.03446   1.002E+00   0.000E+00  -2.262E-03
 744  8.90600001   0.706  -1.73047   3.54092   6.90651   1.84360   0.03446   1.002E+00   0.000E+00  -2.247E-03
 745  8.90714868   0.706  -1.73047   3.54092   6.90651   1.84359   0.03446   1.002E+00   0.000E+00  -2.232E-03
 746  8.90829432   0.706  -1.73046   3.54092   6.90651   1.84358   0.03446   1.002E+00   0.000E+00  -2.218E-03
 747  8.90943694   0.706  -1.73045   3.54092   6.90651   1.84357   0.03446   1.002E+00   0.000E+00  -2.203E-03
 748  8.91057657   0.706  -1.73044   3.54092   6.90651   1.84357   0.03446   1.002E+00   0.000E+00  -2.188E-03
 749  8.91171321   0.706  -1.73043   3.54092   6.90651   1.84356   0.03446   1.002E+00   0.000E+00  -2.173E-03
 750  8.91284689   0.706  -1.73042   3.54092   6.90651   1.84355   0.03446   1.002E+00   0.000E+00  -2.159E-03
 751  8.91397761   0.706  -1.73041   3.54092   6.90651   1.84355   0.03446   1.002E+00   0.000E+00  -2.144E-03
 752  8.91510540   0.706  -1.73040   3.54092   6.90650   1.84354   0.03446   1.002E+00   0.000E+00  -2.129E-03
 753  8.91623027   0.706  -1.73040   3.54092   6.90650   1.84353   0.03446   1.002E+00   0.000E+00  -2.115E-03
 754  8.91735223   0.706  -1.73039   3.54092   6.90650   1.84352   0.03446   1.002E+00   0.000E+00  -2.100E-03
 755  8.91847130   0.706  -1.73038   3.54092   6.90650   1.84352   0.03446   1.002E+00   0.000E+00  -2.085E-03
 756  8.91958750   0.706  -1.73037   3.54092   6.90650   1.84351   0.03446   1.002E+00   0.000E+00  -2.070E-03
 757  8.92070083   0.706  -1.73036   3.54092   6.90650   1.84350   0.03446   1.002E+00   0.000E+00  -2.056E-03
 758  8.92181132   0.706  -1.73035   3.54092   6.90650   1.84349   0.03446   1.002E+00   0.000E+00  -2.041E-03
 759  8.92291897   0.706  -1.73034   3.54092   6.90649   1.84349   0.03446   1.002E+00   0.000E+00  -2.026E-03
 760  8.92402381   0.706  -1.73033   3.54092   6.90649   1.84348   0.03446   1.002E+00   0.000E+00  -2.011E-03
 761  8.92512584   0.706  -1.73033   3.54092   6.90649   1.84347   0.03446   1.002E+00   0.000E+00  -1.997E-03
 762  8.92622508   0.706  -1.73032   3.54092   6.90649   1.84347   0.03446   1.002E+00   0.000E+00  -1.982E-03
 763  8.92732155   0.706  -1.73031   3.54093   6.90649   1.84346   0.03446   1.002E+00   0.000E+00  -1.967E-03
 764  8.92841526   0.706  -1.73030   3.54093   6.90649   1.84345   0.03446   1.002E+00   0.000E+00  -1.953E-03
 765  8.92950621   0.706  -1.73029   3.54093   6.90649   1.84344   0.03446   1.002E+00   0.000E+00  -1.938E-03
 766  8.93059444   0.706  -1.73028   3.54093   6.90649   1.84344   0.03446   1.002E+00   0.000E+00  -1.923E-03
 767  8.93167995   0.706  -1.73027   3.54093   6.90648   1.84343   0.03446   1.002E+00   0.000E+00  -1.908E-03
 768  8.93276275   0.706  -1.73026   3.54093   6.90648   1.84342   0.03446   1.002E+00   0.000E+00  -1.894E-03
 769  8.93384285   0.706  -1.73026   3.54093   6.90648   1.84342   0.03446   1.002E+00   0.000E+00  -1.879E-03
 770  8.93492028   0.706  -1.73025   3.54093   6.90648   1.84341   0.03446   1.002E+00   0.000E+00  -1.864E-03
 771  8.93599504   0.706  -1.73024   3.54093   6.90648   1.84340   0.03446   1.002E+00   0.000E+00  -1.850E-03
 772  8.93706715   0.706  -1.73023   3.54093   6.90648   1.84339   0.03446   1.002E+00   0.000E+00  -1.835E-03
 773  8.93813661   0.706  -1.73022   3.54093   6.90648   1.84339   0.03446   1.002E+00   0.000E+00  -1.820E-03
 774  8.93920345   0.706  -1.73021   3.54093   6.90648   1.84338   0.03446   1.002E+00   0.000E+00  -1.805E-03
 775  8.94026768   0.706  -1.73020   3.54093   6.90647   1.84337   0.03446   1.002E+00   0.000E+00  -1.791E-03
 776  8.94132930   0.706  -1.73019   3.54093   6.90647   1.84336   0.03446   1.002E+00   0.000E+00  -1.776E-03
 777  8.94238834   0.706  -1.73019   3.54093   6.90647   1.84336   0.03446   1.002E+00   0.000E+00  -1.761E-03
 778  8.94344480   0.706  -1.73018   3.54093   6.90647   1.84335   0.03446   1.002E+00   0.000E+00  -1.747E-03
 779  8.94449869   0.706  -1.73017   3.54093   6.90647   1.84334   0.03446   1.002E+00   0.000E+00  -1.732E-03
 780  8.94555004   0.706  -1.73016   3.54093   6.90647   1.84334   0.03446   1.002E+00   0.000E+00  -1.717E-03
 781  8.94659884   0.706  -1.73015   3.54093   6.90647   1.84333   0.03446   1.002E+00   0.000E+00  -1.702E-03
 782  8.94764512   0.706  -1.73014   3.54093   6.90647   1.84332   0.03446   1.002E+00   0.000E+00  -1.688E-03
 783  8.94868888   0.706  -1.73013   3.54093   6.90646   1.84331   0.03446   1.002E+00   0.000E+00  -1.673E-03
 784  8.94973014   0.706  -1.73012   3.54093   6.90646   1.84331   0.03446   1.002E+00   0.000E+00  -1.658E-03
 785  8.95076891   0.706  -1.73012   3.54093   6.90646   1.84330   0.03446   1.002E+00   0.000E+00  -1.644E-03
 786  8.95180521   0.706  -1.73011   3.54093   6.90646   1.84329   0.03446   1.002E+00   0.000E+00  -1.629E-03
 787  8.95283903   0.706  -1.73010   3.54093   6.90646   1.84328   0.03446   1.001E+00   0.000E+00  -1.614E-03
 788  8.95387040   0.706  -1.73009   3.54093   6.90646   1.84328   0.03446   1.001E+00   0.000E+00  -1.599E-03
 789  8.95489933   0.706  -1.73008   3.54093   6.90646   1.84327   0.03446   1.001E+00   0.000E+00  -1.585E-03
 790  8.95592582   0.705  -1.73007   3.54093   6.90646   1.84326   0.03446   1.001E+00   0.000E+00  -1.570E-03
 791  8.95694990   0.705  -1.73006   3.54093   6.90645   1.84326   0.03446   1.001E+00   0.000E+00  -1.555E-03
 792  8.95797156   0.705  -1.73005   3.54093   6.90645   1.84325   0.03446   1.001E+00   0.000E+00  -1.541E-03
 793  8.95899083   0.705  -1.73005   3.54093   6.90645   1.84324   0.03446   1.001E+00   0.000E+00  -1.526E-03
 794  8.96000771   0.705  -1.73004   3.54093   6.90645   1.84323   0.03446   1.001E+00   0.000E+00  -1.511E-03
 795  8.96102222   0.705  -1.73003   3.54093   6.90645   1.84323   0.03446   1.001E+00   0.000E+00  -1.496E-03
 796  8.96203436   0.705  -1.73002   3.54093   6.90645   1.84322   0.03446   1.001E+00   0.000E+00  -1.482E-03
 797  8.96304414   0.705  -1.73001   3.54093   6.90645   1.84321   0.03446   1.001E+00   0.000E+00  -1.467E-03
 798  8.96405159   0.705  -1.73000   3.54093   6.90644   1.84320   0.03446   1.001E+00   0.000E+00  -1.452E-03
 799  8.96505670   0.705  -1.72999   3.54093   6.90644   1.84320   0.03446   1.001E+00   0.000E+00  -1.438E-03
 800  8.96605950   0.705  -1.72998   3.54093   6.90644   1.84319   0.03446   1.001E+00   0.000E+00  -1.423E-03
 801  8.96705998   0.705  -1.72998   3.54093   6.90644   1.84318   0.03446   1.001E+00   0.000E+00  -1.408E-03
 802  8.96805816   0.705  -1.72997   3.54093   6.90644   1.84318   0.03446   1.001E+00   0.000E+00  -1.393E-03
 803  8.96905406   0.705  -1.72996   3.54093   6.90644   1.84317   0.03446   1.001E+00   0.000E+00  -1.379E-03
 804  8.97004767   0.705  -1.72995   3.54093   6.90644   1.84316   0.03446   1.001E+00   0.000E+00  -1.364E-03
 805  8.97103902   0.705  -1.72994   3.54093   6.90644   1.84315   0.03446   1.001E+00   0.000E+00  -1.349E-03
 806  8.97202811   0.705  -1.72993   3.54093   6.90643   1.84315   0.03446   1.001E+00   0.000E+00  -1.334E-03
 807  8.97301495   0.705  -1.72992   3.54093   6.90643   1.84314   0.03446   1.001E+00   0.000E+00  -1.320E-03
 808  8.97399956   0.705  -1.72991   3.54093   6.90643   1.84313   0.03446   1.001E+00   0.000E+00  -1.305E-03
 809  8.97498193   0.705  -1.72991   3.54093   6.90643   1.84313   0.03446   1.001E+00   0.000E+00  -1.290E-03
 810  8.97596209   0.705  -1.72990   3.54093   6.90643   1.84312   0.03445   1.001E+00   0.000E+00  -1.280E-03
 811  8.97694005   0.705  -1.72989   3.54093   6.90643   1.84311   0.03444   1.001E+00   0.000E+00  -1.279E-03
 812  8.97791580   0.705  -1.72988   3.54093   6.90643   1.84310   0.03442   1.001E+00   0.000E+00  -1.278E-03
 813  8.97888937   0.705  -1.72987   3.54093   6.90643   1.84310   0.03440   1.001E+00   0.000E+00  -1.278E-03
 814  8.97986076   0.705  -1.72986   3.54093   6.90643   1.84309   0.03439   1.001E+00   0.000E+00  -1.277E-03
 815  8.98082999   0.705  -1.72986   3.54093   6.90642   1.84308   0.03437   1.001E+00   0.000E+00  -1.276E-03
 816  8.98179705   0.705  -1.72985   3.54093   6.90642   1.84308   0.03435   1.001E+00   0.000E+00  -1.275E-03
 817  8.98276197   0.705  -1.72984   3.54093   6.90642   1.84307   0.03434   1.001E+00   0.000E+00  -1.275E-03
 818  8.98372475   0.705  -1.72983   3.54093   6.90642   1.84306   0.03432   1.001E+00   0.000E+00  -1.274E-03
 819  8.98468539   0.705  -1.72982   3.54093   6.90642   1.84306   0.03430   1.001E+00   0.000E+00  -1.273E-03
 820  8.98564392   0.705  -1.72981   3.54093   6.90642   1.84305   0.03428   1.001E+00   0.000E+00  -1.272E-03
 821  8.98660034   0.705  -1.72980   3.54093   6.90642   1.84304   0.03427   1.001E+00   0.000E+00  -1.272E-03
 822  8.98755465   0.705  -1.72980   3.54093   6.90642   1.84304   0.03425   1.001E+00   0.000E+00  -1.271E-03
 823  8.98850688   0.705  -1.72979   3.54093   6.90642   1.84303   0.03423   1.001E+00   0.000E+00  -1.270E-03
 824  8.98945702   0.705  -1.72978   3.54093   6.90641   1.84302   0.03422   1.001E+00   0.000E+00  -1.269E-03
 825  8.99040508   0.705  -1.72977   3.54093   6.90641   1.84302   0.03420   1.001E+00   0.000E+00  -1.269E-03
 826  8.99135108   0.705  -1.72976   3.54093   6.90641   1.84301   0.03418   1.001E+00   0.000E+00  -1.268E-03
 827  8.99229502   0.705  -1.72975   3.54093   6.90641   1.84300   0.03416   1.001E+00   0.000E+00  -1.267E-03
 828  8.99323692   0.705  -1.72975   3.54093   6.90641   1.84300   0.03415   1.001E+00   0.000E+00  -1.266E-03
 829  8.99417678   0.705  -1.72974   3.54093   6.90641   1.84299   0.03413   1.001E+00   0.000E+00  -1.266E-03
 830  8.99511461   0.705  -1.72973   3.54093   6.90641   1.84298   0.03411   1.001E+00   0.000E+00  -1.265E-03
 831  8.99605042   0.705  -1.72972   3.54093   6.90641   1.84297   0.03410   1.001E+00   0.000E+00  -1.264E-03
 832  8.99698421   0.705  -1.72971   3.54093   6.90641   1.84297   0.03408   1.001E+00   0.000E+00  -1.263E-03
 833  8.99791601   0.705  -1.72970   3.54093   6.90641   1.84296   0.03406   1.001E+00   0.000E+00  -1.263E-03
 834  8.99884580   0.705  -1.72970   3.54093   6.90640   1.84295   0.03405   1.001E+00   0.000E+00  -1.262E-03
 835  8.99977361   0.705  -1.72969   3.54093   6.90640   1.84295   0.03403   1.001E+00   0.000E+00  -1.261E-03
 836  9.00069945   0.705  -1.72968   3.54093   6.90640   1.84294   0.03401   1.001E+00   0.000E+00  -1.260E-03
 837  9.00162331   0.705  -1.72967   3.54093   6.90640   1.84293   0.03399   1.001E+00   0.000E+00  -1.260E-03
 838  9.00254521   0.705  -1.72966   3.54093   6.90640   1.84293   0.03398   1.001E+00   0.000E+00  -1.259E-03
 839  9.00346516   0.705  -1.72965   3.54093   6.90640   1.84292   0.03396   1.001E+00   0.000E+00  -1.258E-03
 840  9.00438317   0.705  -1.72964   3.54093   6.90640   1.84291   0.03394   1.001E+00   0.000E+00  -1.257E-03
 841  9.00529924   0.705  -1.72964   3.54093   6.90640   1.84291   0.03393   1.001E+00   0.000E+00  -1.257E-03
 842  9.00621338   0.705  -1.72963   3.54093   6.90640   1.84290   0.03391   1.001E+00   0.000E+00  -1.256E-03
 843  9.00712560   0.705  -1.72962   3.54093   6.90639   1.84289   0.03389   1.001E+00   0.000E+00  -1.255E-03
 844  9.00803591   0.705  -1.72961   3.54093   6.90639   1.84289   0.03387   1.001E+00   0.000E+00  -1.254E-03
 845  9.00894431   0.705  -1.72960   3.54093   6.90639   1.84288   0.03386   1.001E+00   0.000E+00  -1.254E-03
 846  9.00985082   0.705  -1.72959   3.54093   6.90639   1.84287   0.03384   1.001E+00   0.000E+00  -1.253E-03
 847  9.01075544   0.705  -1.72959   3.54093   6.90639   1.84287   0.03382   1.001E+00   0.000E+00  -1.252E-03
 848  9.01165818   0.705  -1.72958   3.54093   6.90639   1.84286   0.03381   1.001E+00   0.000E+00  -1.251E-03
 849  9.01255904   0.705  -1.72957   3.54093   6.90639   1.84285   0.03379   1.001E+00   0.000E+00  -1.251E-03
 850  9.01345805   0.705  -1.72956   3.54093   6.90639   1.84284   0.03377   1.001E+00   0.000E+00  -1.250E-03
 851  9.01435519   0.705  -1.72955   3.54093   6.90639   1.84284   0.03376   1.001E+00   0.000E+00  -1.249E-03
 852  9.01525049   0.705  -1.72954   3.54093   6.90638   1.84283   0.03374   1.001E+00   0.000E+00  -1.248E-03
 853  9.01614394   0.705  -1.72954   3.54093   6.90638   1.84282   0.03372   1.001E+00   0.000E+00  -1.248E-03
 854  9.01703556   0.705  -1.72953   3.54093   6.90638   1.84282   0.03370   1.001E+00   0.000E+00  -1.247E-03
 855  9.01792535   0.705  -1.72952   3.54093   6.90638   1.84281   0.03369   1.001E+00   0.000E+00  -1.246E-03
 856  9.01881333   0.705  -1.72951   3.54093   6.90638   1.84280   0.03367   1.001E+00   0.000E+00  -1.245E-03
 857  9.01969949   0.705  -1.72950   3.54094   6.90638   1.84280   0.03365   1.001E+00   0.000E+00  -1.245E-03
 858  9.02058385   0.705  -1.72949   3.54094   6.90638   1.84279   0.03364   1.001E+00   0.000E+00  -1.244E-03
 859  9.02146641   0.705  -1.72948   3.54094   6.90638   1.84278   0.03362   1.001E+00   0.000E+00  -1.243E-03
 860  9.02234718   0.705  -1.72948   3.54094   6.90638   1.84278   0.03360   1.001E+00   0.000E+00  -1.242E-03
 861  9.02322616   0.705  -1.72947   3.54094   6.90638   1.84277   0.03358   1.001E+00   0.000E+00  -1.242E-03
 862  9.02410337   0.705  -1.72946   3.54094   6.90637   1.84276   0.03357   1.001E+00   0.000E+00  -1.241E-03
 863  9.02497882   0.705  -1.72945   3.54094   6.90637   1.84276   0.03355   1.001E+00   0.000E+00  -1.240E-03
 864  9.02585250   0.705  -1.72944   3.54094   6.90637   1.84275   0.03353   1.001E+00   0.000E+00  -1.239E-03
 865  9.02672443   0.705  -1.72943   3.54094   6.90637   1.84274   0.03352   1.001E+00   0.000E+00  -1.239E-03
 866  9.02759461   0.705  -1.72943   3.54094   6.90637   1.84274   0.03350   1.001E+00   0.000E+00  -1.238E-03
 867  9.02846305   0.705  -1.72942   3.54094   6.90637   1.84273   0.03348   1.001E+00   0.000E+00  -1.237E-03
 868  9.02932976   0.705  -1.72941   3.54094   6.90637   1.84272   0.03347   1.001E+00   0.000E+00  -1.236E-03
 869  9.03019474   0.705  -1.72940   3.54094   6.90637   1.84272   0.03345   1.001E+00   0.000E+00  -1.236E-03
 870  9.03105800   0.705  -1.72939   3.54094   6.90637   1.84271   0.03343   1.001E+00   0.000E+00  -1.235E-03
 871  9.03191955   0.705  -1.72938   3.54094   6.90636   1.84270   0.03341   1.001E+00   0.000E+00  -1.234E-03
 872  9.03277940   0.705  -1.72938   3.54094   6.90636   1.84269   0.03340   1.001E+00   0.000E+00  -1.233E-03
 873  9.03363754   0.705  -1.72937   3.54094   6.90636   1.84269   0.03338   1.001E+00   0.000E+00  -1.233E-03
 874  9.03449400   0.705  -1.72936   3.54094   6.90636   1.84268   0.03336   1.001E+00   0.000E+00  -1.232E-03
 875  9.03534876   0.705  -1.72935   3.54094   6.90636   1.84267   0.03335   1.001E+00   0.000E+00  -1.231E-03
 876  9.03620185   0.705  -1.72934   3.54094   6.90636   1.84267   0.03333   1.001E+00   0.000E+00  -1.231E-03
 877  9.03705327   0.705  -1.72933   3.54094   6.90636   1.84266   0.03331   1.001E+00   0.000E+00  -1.230E-03
 878  9.03790302   0.705  -1.72932   3.54094   6.90636   1.84265   0.03329   1.001E+00   0.000E+00  -1.229E-03
 879  9.03875111   0.705  -1.72932   3.54094   6.90636   1.84265   0.03328   1.001E+00   0.000E+00  -1.228E-03
 880  9.03959755   0.705  -1.72931   3.54094   6.90636   1.84264   0.03326   1.001E+00   0.000E+00  -1.228E-03
 881  9.04044234   0.704  -1.72930   3.54094   6.90635   1.84263   0.03324   1.001E+00   0.000E+00  -1.227E-03
 882  9.04128549   0.704  -1.72929   3.54094   6.90635   1.84263   0.03323   1.001E+00   0.000E+00  -1.226E-03
 883  9.04212701   0.704  -1.72928   3.54094   6.90635   1.84262   0.03321   1.001E+00   0.000E+00  -1.225E-03
 884  9.04296690   0.704  -1.72927   3.54094   6.90635   1.84261   0.03319   1.001E+00   0.000E+00  -1.225E-03
 885  9.04380516   0.704  -1.72927   3.54094   6.90635   1.84261   0.03318   1.001E+00   0.000E+00  -1.224E-03
 886  9.04464182   0.704  -1.72926   3.54094   6.90635   1.84260   0.03316   1.001E+00   0.000E+00  -1.223E-03
 887  9.04547686   0.704  -1.72925   3.54094   6.90635   1.84259   0.03314   1.001E+00   0.000E+00  -1.222E-03
 888  9.04631031   0.704  -1.72924   3.54094   6.90635   1.84259   0.03312   1.001E+00   0.000E+00  -1.222E-03
 889  9.04714215   0.704  -1.72923   3.54094   6.90635   1.84258   0.03311   1.001E+00   0.000E+00  -1.221E-03
 890  9.04797241   0.704  -1.72922   3.54094   6.90634   1.84257   0.03309   1.001E+00   0.000E+00  -1.220E-03
 891  9.04880108   0.704  -1.72922   3.54094   6.90634   1.84257   0.03307   1.001E+00   0.000E+00  -1.219E-03
 892  9.04962817   0.704  -1.72921   3.54094   6.90634   1.84256   0.03306   1.001E+00   0.000E+00  -1.219E-03
 893  9.05045370   0.704  -1.72920   3.54094   6.90634   1.84255   0.03304   1.001E+00   0.000E+00  -1.218E-03
 894  9.05127765   0.704  -1.72919   3.54094   6.90634   1.84254   0.03302   1.001E+00   0.000E+00  -1.217E-03
 895  9.05210005   0.704  -1.72918   3.54094   6.90634   1.84254   0.03300   1.001E+00   0.000E+00  -1.216E-03
 896  9.05292089   0.704  -1.72917   3.54094   6.90634   1.84253   0.03299   1.001E+00   0.000E+00  -1.216E-03
 897  9.05374018   0.704  -1.72916   3.54094   6.90634   1.84252   0.03297   1.001E+00   0.000E+00  -1.215E-03
 898  9.05455793   0.704  -1.72916   3.54094   6.90634   1.84252   0.03295   1.001E+00   0.000E+00  -1.214E-03
 899  9.05537414   0.704  -1.72915   3.54094   6.90633   1.84251   0.03294   1.001E+00   0.000E+00  -1.213E-03
 900  9.05618882   0.704  -1.72914   3.54094   6.90633   1.84250   0.03292   1.001E+00   0.000E+00  -1.213E-03
 901  9.05700198   0.704  -1.72913   3.54094   6.90633   1.84250   0.03290   1.001E+00   0.000E+00  -1.212E-03
 902  9.05781361   0.704  -1.72912   3.54094   6.90633   1.84249   0.03289   1.001E+00   0.000E+00  -1.211E-03
 903  9.05862374   0.704  -1.72911   3.54094   6.90633   1.84248   0.03287   1.001E+00   0.000E+00  -1.210E-03
 904  9.05943235   0.704  -1.72911   3.54094   6.90633   1.84248   0.03285   1.001E+00   0.000E+00  -1.207E-03
 905  9.06023946   0.704  -1.72910   3.54094   6.90633   1.84248   0.03284   1.001E+00   0.000E+00  -1.201E-03
 906  9.06104508   0.704  -1.72909   3.54094   6.90633   1.84248   0.03282   1.001E+00   0.000E+00  -1.196E-03
 907  9.06184920   0.704  -1.72909   3.54094   6.90633   1.84248   0.03280   1.001E+00   0.000E+00  -1.190E-03
 908  9.06265183   0.704  -1.72908   3.54094   6.90633   1.84248   0.03279   1.001E+00   0.000E+00  -1.185E-03
 909  9.06345299   0.704  -1.72907   3.54094   6.90633   1.84248   0.03277   1.001E+00   0.000E+00  -1.179E-03
 910  9.06425267   0.704  -1.72906   3.54094   6.90633   1.84248   0.03276   1.001E+00   0.000E+00  -1.173E-03
 911  9.06505088   0.704  -1.72906   3.54094   6.90633   1.84248   0.03274   1.001E+00   0.000E+00  -1.168E-03
 912  9.06584763   0.704  -1.72905   3.54094   6.90633   1.84248   0.03272   1.001E+00   0.000E+00  -1.162E-03
 913  9.06664291   0.704  -1.72904   3.54094   6.90633   1.84248   0.03271   1.001E+00   0.000E+00  -1.157E-03
 914  9.06743675   0.704  -1.72904   3.54094   6.90633   1.84248   0.03269   1.001E+00   0.000E+00  -1.151E-03
 915  9.06822913   0.704  -1.72903   3.54094   6.90633   1.84248   0.03268   1.001E+00   0.000E+00  -1.146E-03
 916  9.06902008   0.704  -1.72902   3.54094   6.90633   1.84248   0.03266   1.001E+00   0.000E+00  -1.140E-03
 917  9.06980958   0.704  -1.72902   3.54094   6.90633   1.84248   0.03264   1.001E+00   0.000E+00  -1.134E-03
 918  9.07059765   0.704  -1.72901   3.54094   6.90633   1.84248   0.03263   1.001E+00   0.000E+00  -1.129E-03
 919  9.07138430   0.704  -1.72900   3.54094   6.90633   1.84248   0.03261   1.001E+00   0.000E+00  -1.123E-03
 920  9.07216952   0.704  -1.72900   3.54094   6.90632   1.84248   0.03260   1.001E+00   0.000E+00  -1.118E-03
 921  9.07295332   0.704  -1.72899   3.54094   6.90632   1.84248   0.03258   1.001E+00   0.000E+00  -1.112E-03
 922  9.07373571   0.704  -1.72898   3.54094   6.90632   1.84248   0.03257   1.001E+00   0.000E+00  -1.106E-03
 923  9.07451670   0.704  -1.72897   3.54094   6.90632   1.84248   0.03255   1.001E+00   0.000E+00  -1.101E-03
 924  9.07529628   0.704  -1.72897   3.54094   6.90632   1.84248   0.03253   1.001E+00   0.000E+00  -1.095E-03
 925  9.07607447   0.704  -1.72896   3.54094   6.90632   1.84248   0.03252   1.001E+00   0.000E+00  -1.090E-03
 926  9.07685127   0.704  -1.72895   3.54094   6.90632   1.84248   0.03250   1.001E+00   0.000E+00  -1.084E-03
 927  9.07762667   0.704  -1.72895   3.54095   6.90632   1.84248   0.03249   1.001E+00   0.000E+00  -1.078E-03
 928  9.07840070   0.704  -1.72894   3.54095   6.90632   1.84248   0.03247   1.001E+00   0.000E+00  -1.073E-03
 929  9.07917335   0.704  -1.72893   3.54095   6.90632   1.84248   0.03245   1.001E+00   0.000E+00  -1.067E-03
 930  9.07994463   0.704  -1.72893   3.54095   6.90632   1.84248   0.03244   1.001E+00   0.000E+00  -1.062E-03
 931  9.08071454   0.704  -1.72892   3.54095   6.90632   1.84248   0.03242   1.001E+00   0.000E+00  -1.056E-03
 932  9.08148308   0.704  -1.72891   3.54095   6.90632   1.84248   0.03241   1.001E+00   0.000E+00  -1.051E-03
 933  9.08225027   0.704  -1.72891   3.54095   6.90632   1.84248   0.03239   1.001E+00   0.000E+00  -1.045E-03
 934  9.08301611   0.704  -1.72890   3.54095   6.90632   1.84248   0.03237   1.001E+00   0.000E+00  -1.039E-03
 935  9.08378060   0.704  -1.72889   3.54095   6.90632   1.84248   0.03236   1.001E+00   0.000E+00  -1.034E-03
 936  9.08454374   0.704  -1.72888   3.54095   6.90632   1.84248   0.03234   1.001E+00   0.000E+00  -1.028E-03
 937  9.08530555   0.704  -1.72888   3.54095   6.90632   1.84248   0.03233   1.001E+00   0.000E+00  -1.023E-03
 938  9.08606602   0.704  -1.72887   3.54095   6.90632   1.84248   0.03231   1.001E+00   0.000E+00  -1.017E-03
 939  9.08682516   0.704  -1.72886   3.54095   6.90632   1.84248   0.03230   1.001E+00   0.000E+00  -1.011E-03
 940  9.08758298   0.704  -1.72886   3.54095   6.90632   1.84248   0.03228   1.001E+00   0.000E+00  -1.006E-03
 941  9.08833948   0.704  -1.72885   3.54095   6.90632   1.84248   0.03226   1.001E+00   0.000E+00  -1.000E-03
 942  9.08909466   0.704  -1.72884   3.54095   6.90632   1.84248   0.03225   1.001E+00   0.000E+00  -9.947E-04
 943  9.08984854   0.704  -1.72884   3.54095   6.90632   1.84248   0.03223   1.001E+00   0.000E+00  -9.891E-04
 944  9.09060110   0.704  -1.72883   3.54095   6.90632   1.84248   0.03222   1.001E+00   0.000E+00  -9.835E-04
 945  9.09135237   0.704  -1.72882   3.54095   6.90632   1.84248   0.03220   1.001E+00   0.000E+00  -9.779E-04
 946  9.09210233   0.704  -1.72882   3.54095   6.90632   1.84248   0.03218   1.001E+00   0.000E+00  -9.723E-04
 947  9.09285101   0.704  -1.72881   3.54095   6.90632   1.84248   0.03217   1.001E+00   0.000E+00  -9.667E-04
 948  9.09359839   0.704  -1.72880   3.54095   6.90632   1.84248   0.03215   1.001E+00   0.000E+00  -9.611E-04
 949  9.09434449   0.704  -1.72879   3.54095   6.90632   1.84248   0.03214   1.001E+00   0.000E+00  -9.556E-04
 950  9.09508932   0.704  -1.72879   3.54095   6.90632   1.84248   0.03212   1.001E+00   0.000E+00  -9.500E-04
 951  9.09583286   0.704  -1.72878   3.54095   6.90631   1.84247   0.03210   1.001E+00   0.000E+00  -9.444E-04
 952  9.09657514   0.704  -1.72877   3.54095   6.90631   1.84247   0.03209   1.001E+00   0.000E+00  -9.388E-04
 953  9.09731615   0.704  -1.72877   3.54095   6.90631   1.84247   0.03207   1.001E+00   0.000E+00  -9.332E-04
 954  9.09805589   0.704  -1.72876   3.54095   6.90631   1.84247   0.03206   1.001E+00   0.000E+00  -9.276E-04
 955  9.09879438   0.704  -1.72875   3.54095   6.90631   1.84247   0.03204   1.001E+00   0.000E+00  -9.220E-04
 956  9.09953162   0.704  -1.72875   3.54095   6.90631   1.84247   0.03203   1.001E+00   0.000E+00  -9.164E-04
 957  9.10026761   0.704  -1.72874   3.54095   6.90631   1.84247   0.03201   1.001E+00   0.000E+00  -9.108E-04
 958  9.10100235   0.704  -1.72873   3.54095   6.90631   1.84247   0.03199   1.001E+00   0.000E+00  -9.053E-04
 959  9.10173585   0.704  -1.72873   3.54095   6.90631   1.84247   0.03198   1.001E+00   0.000E+00  -8.997E-04
 960  9.10246811   0.704  -1.72872   3.54095   6.90631   1.84247   0.03196   1.001E+00   0.000E+00  -8.941E-04
 961  9.10319914   0.704  -1.72871   3.54095   6.90631   1.84247   0.03195   1.001E+00   0.000E+00  -8.885E-04
 962  9.10392894   0.704  -1.72870   3.54095   6.90631   1.84247   0.03193   1.001E+00   0.000E+00  -8.829E-04
 963  9.10465752   0.704  -1.72870   3.54095   6.90631   1.84247   0.03191   1.001E+00   0.000E+00  -8.773E-04
 964  9.10538488   0.704  -1.72869   3.54095   6.90631   1.84247   0.03190   1.001E+00   0.000E+00  -8.717E-04
 965  9.10611102   0.704  -1.72868   3.54095   6.90631   1.84247   0.03188   1.001E+00   0.000E+00  -8.661E-04
 966  9.10683595   0.704  -1.72868   3.54095   6.90631   1.84247   0.03187   1.001E+00   0.000E+00  -8.605E-04
 967  9.10755967   0.704  -1.72867   3.54095   6.90631   1.84247   0.03185   1.001E+00   0.000E+00  -8.550E-04
 968  9.10828219   0.704  -1.72866   3.54095   6.90631   1.84247   0.03183   1.001E+00   0.000E+00  -8.494E-04
 969  9.10900351   0.704  -1.72866   3.54095   6.90631   1.84247   0.03182   1.001E+00   0.000E+00  -8.438E-04
 970  9.10972363   0.704  -1.72865   3.54095   6.90631   1.84247   0.03180   1.001E+00   0.000E+00  -8.382E-04
 971  9.11044256   0.704  -1.72864   3.54095   6.90631   1.84247   0.03179   1.001E+00   0.000E+00  -8.326E-04
 972  9.11116030   0.703  -1.72863   3.54095   6.90631   1.84247   0.03177   1.001E+00   0.000E+00  -8.270E-04
 973  9.11187686   0.703  -1.72863   3.54095   6.90631   1.84247   0.03176   1.001E+00   0.000E+00  -8.214E-04
 974  9.11259223   0.703  -1.72862   3.54096   6.90631   1.84247   0.03174   1.001E+00   0.000E+00  -8.158E-04
 975  9.11330643   0.703  -1.72861   3.54096   6.90631   1.84247   0.03172   1.001E+00   0.000E+00  -8.103E-04
 976  9.11401946   0.703  -1.72861   3.54096   6.90631   1.84247   0.03171   1.001E+00   0.000E+00  -8.047E-04
 977  9.11473132   0.703  -1.72860   3.54096   6.90631   1.84247   0.03169   1.001E+00   0.000E+00  -7.991E-04
 978  9.11544201   0.703  -1.72859   3.54096   6.90631   1.84247   0.03168   1.001E+00   0.000E+00  -7.935E-04
 979  9.11615155   0.703  -1.72859   3.54096   6.90631   1.84247   0.03166   1.001E+00   0.000E+00  -7.879E-04
 980  9.11685992   0.703  -1.72858   3.54096   6.90631   1.84247   0.03164   1.001E+00   0.000E+00  -7.823E-04
 981  9.11756714   0.703  -1.72857   3.54096   6.90631   1.84247   0.03163   1.001E+00   0.000E+00  -7.767E-04
 982  9.11827322   0.703  -1.72857   3.54096   6.90630   1.84247   0.03161   1.001E+00   0.000E+00  -7.711E-04
 983  9.11897814   0.703  -1.72856   3.54096   6.90630   1.84247   0.03160   1.001E+00   0.000E+00  -7.655E-04
 984  9.11968193   0.703  -1.72855   3.54096   6.90630   1.84247   0.03158   1.001E+00   0.000E+00  -7.600E-04
 985  9.12038457   0.703  -1.72854   3.54096   6.90630   1.84247   0.03156   1.001E+00   0.000E+00  -7.544E-04
 986  9.12108608   0.703  -1.72854   3.54096   6.90630   1.84247   0.03155   1.001E+00   0.000E+00  -7.488E-04
 987  9.12178646   0.703  -1.72853   3.54096   6.90630   1.84247   0.03153   1.001E+00   0.000E+00  -7.432E-04
 988  9.12248571   0.703  -1.72852   3.54096   6.90630   1.84247   0.03152   1.001E+00   0.000E+00  -7.376E-04
 989  9.12318384   0.703  -1.72852   3.54096   6.90630   1.84247   0.03150   1.001E+00   0.000E+00  -7.320E-04
 990  9.12388085   0.703  -1.72851   3.54096   6.90630   1.84247   0.03148   1.001E+00   0.000E+00  -7.264E-04
 991  9.12457674   0.703  -1.72850   3.54096   6.90630   1.84247   0.03147   1.001E+00   0.000E+00  -7.208E-04
 992  9.12527151   0.703  -1.72850   3.54096   6.90630   1.84247   0.03145   1.001E+00   0.000E+00  -7.153E-04
 993  9.12596518   0.703  -1.72849   3.54096   6.90630   1.84247   0.03144   1.001E+00   0.000E+00  -7.097E-04
 994  9.12665774   0.703  -1.72848   3.54096   6.90630   1.84247   0.03142   1.001E+00   0.000E+00  -7.041E-04
 995  9.12734920   0.703  -1.72848   3.54096   6.90630   1.84247   0.03141   1.001E+00   0.000E+00  -6.985E-04
 996  9.12803956   0.703  -1.72847   3.54096   6.90630   1.84247   0.03139   1.001E+00   0.000E+00  -6.929E-04
 997  9.12872882   0.703  -1.72846   3.54096   6.90630   1.84247   0.03137   1.001E+00   0.000E+00  -6.873E-04
 998  9.12941699   0.703  -1.72846   3.54096   6.90630   1.84247   0.03136   1.001E+00   0.000E+00  -6.821E-04
 999  9.13010407   0.703  -1.72845   3.54096   6.90630   1.84248   0.03134   1.001E+00   0.000E+00  -6.771E-04
1000  9.13079007   0.703  -1.72844   3.54096   6.90630   1.84249   0.03133   1.001E+00   0.000E+00  -6.720E-04
1001  9.13147499   0.703  -1.72844   3.54096   6.90630   1.84249   0.03131   1.001E+00   0.000E+00  -6.670E-04
1002  9.13215882   0.703  -1.72843   3.54096   6.90630   1.84250   0.03129   1.001E+00   0.000E+00  -6.619E-04
1003  9.13284158   0.703  -1.72843   3.54096   6.90630   1.84251   0.03128   1.001E+00   0.000E+00  -6.569E-04
1004  9.13352327   0.703  -1.72842   3.54096   6.90630   1.84251   0.03126   1.001E+00   0.000E+00  -6.518E-04
1005  9.13420390   0.703  -1.72842   3.54096   6.90630   1.84252   0.03125   1.001E+00   0.000E+00  -6.467E-04
1006  9.13488345   0.703  -1.72841   3.54096   6.90630   1.84252   0.03123   1.001E+00   0.000E+00  -6.417E-04
1007  9.13556195   0.703  -1.72840   3.54096   6.90630   1.84253   0.03122   1.001E+00   0.000E+00  -6.366E-04
1008  9.13623938   0.703  -1.72840   3.54096   6.90630   1.84254   0.03120   1.001E+00   0.000E+00  -6.316E-04
1009  9.13691577   0.703  -1.72839   3.54096   6.90631   1.84254   0.03118   1.001E+00   0.000E+00  -6.265E-04
1010  9.13759109   0.703  -1.72839   3.54096   6.90631   1.84255   0.03117   1.001E+00   0.000E+00  -6.215E-04
1011  9.13826538   0.703  -1.72838   3.54096   6.90631   1.84255   0.03115   1.001E+00   0.000E+00  -6.164E-04
1012  9.13893861   0.703  -1.72838   3.54096   6.90631   1.84256   0.03114   1.001E+00   0.000E+00  -6.114E-04
1013  9.13961081   0.703  -1.72837   3.54097   6.90631   1.84257   0.03112   1.001E+00   0.000E+00  -6.063E-04
1014  9.14028196   0.703  -1.72837   3.54097   6.90631   1.84257   0.03111   1.001E+00   0.000E+00  -6.012E-04
1015  9.14095208   0.703  -1.72836   3.54097   6.90631   1.84258   0.03109   1.001E+00   0.000E+00  -5.962E-04
1016  9.14162117   0.703  -1.72835   3.54097   6.90631   1.84258   0.03107   1.001E+00   0.000E+00  -5.911E-04
1017  9.14228923   0.703  -1.72835   3.54097   6.90631   1.84259   0.03106   1.001E+00   0.000E+00  -5.861E-04
1018  9.14295626   0.703  -1.72834   3.54097   6.90631   1.84260   0.03104   1.001E+00   0.000E+00  -5.810E-04
1019  9.14362227   0.703  -1.72834   3.54097   6.90631   1.84260   0.03103   1.001E+00   0.000E+00  -5.760E-04
1020  9.14428726   0.703  -1.72833   3.54097   6.90631   1.84261   0.03101   1.001E+00   0.000E+00  -5.709E-04
1021  9.14495123   0.703  -1.72833   3.54097   6.90631   1.84261   0.03099   1.001E+00   0.000E+00  -5.659E-04
1022  9.14561419   0.703  -1.72832   3.54097   6.90631   1.84262   0.03098   1.001E+00   0.000E+00  -5.608E-04
1023  9.14627614   0.703  -1.72831   3.54097   6.90631   1.84263   0.03096   1.001E+00   0.000E+00  -5.557E-04
1024  9.14693708   0.703  -1.72831   3.54097   6.90631   1.84263   0.03095   1.001E+00   0.000E+00  -5.507E-04
1025  9.14759701   0.703  -1.72830   3.54097   6.90631   1.84264   0.03093   1.001E+00   0.000E+00  -5.456E-04
1026  9.14825595   0.703  -1.72830   3.54097   6.90631   1.84264   0.03092   1.001E+00   0.000E+00  -5.406E-04
1027  9.14891389   0.703  -1.72829   3.54097   6.90631   1.84265   0.03090   1.001E+00   0.000E+00  -5.355E-04
1028  9.14957083   0.703  -1.72829   3.54097   6.90631   1.84266   0.03088   1.001E+00   0.000E+00  -5.305E-04
1029  9.15022678   0.703  -1.72828   3.54097   6.90631   1.84266   0.03087   1.001E+00   0.000E+00  -5.254E-04
1030  9.15088174   0.703  -1.72827   3.54097   6.90631   1.84267   0.03085   1.001E+00   0.000E+00  -5.204E-04
1031  9.15153571   0.703  -1.72827   3.54097   6.90631   1.84268   0.03084   1.001E+00   0.000E+00  -5.153E-04
1032  9.15218870   0.703  -1.72826   3.54097   6.90631   1.84268   0.03082   1.001E+00   0.000E+00  -5.103E-04
1033  9.15284071   0.703  -1.72826   3.54097   6.90632   1.84269   0.03081   1.001E+00   0.000E+00  -5.052E-04
1034  9.15349175   0.703  -1.72825   3.54097   6.90632   1.84269   0.03079   1.001E+00   0.000E+00  -5.001E-04
1035  9.15414181   0.703  -1.72825   3.54097   6.90632   1.84270   0.03077   1.001E+00   0.000E+00  -4.951E-04
1036  9.15479089   0.703  -1.72824   3.54097   6.90632   1.84271   0.03076   1.001E+00   0.000E+00  -4.900E-04
1037  9.15543901   0.703  -1.72824   3.54097   6.90632   1.84271   0.03074   1.001E+00   0.000E+00  -4.850E-04
1038  9.15608616   0.703  -1.72823   3.54097   6.90632   1.84272   0.03073   1.001E+00   0.000E+00  -4.799E-04
1039  9.15673235   0.703  -1.72822   3.54097   6.90632   1.84272   0.03071   1.001E+00   0.000E+00  -4.749E-04
1040  9.15737758   0.703  -1.72822   3.54097   6.90632   1.84273   0.03069   1.001E+00   0.000E+00  -4.698E-04
1041  9.15802186   0.703  -1.72821   3.54097   6.90632   1.84274   0.03068   1.001E+00   0.000E+00  -4.648E-04
1042  9.15866517   0.703  -1.72821   3.54097   6.90632   1.84274   0.03066   1.001E+00   0.000E+00  -4.597E-04
1043  9.15930754   0.703  -1.72820   3.54097   6.90632   1.84275   0.03065   1.001E+00   0.000E+00  -4.546E-04
1044  9.15994896   0.703  -1.72820   3.54097   6.90632   1.84275   0.03063   1.001E+00   0.000E+00  -4.496E-04
1045  9.16058943   0.703  -1.72819   3.54098   6.90632   1.84276   0.03062   1.000E+00   0.000E+00  -4.445E-04
1046  9.16122896   0.703  -1.72818   3.54098   6.90632   1.84277   0.03060   1.000E+00   0.000E+00  -4.395E-04
1047  9.16186755   0.703  -1.72818   3.54098   6.90632   1.84277   0.03058   1.000E+00   0.000E+00  -4.344E-04
1048  9.16250520   0.703  -1.72817   3.54098   6.90632   1.84278   0.03057   1.000E+00   0.000E+00  -4.294E-04
1049  9.16314191   0.703  -1.72817   3.54098   6.90632   1.84278   0.03055   1.000E+00   0.000E+00  -4.243E-04
1050  9.16377770   0.703  -1.72816   3.54098   6.90632   1.84279   0.03054   1.000E+00   0.000E+00  -4.193E-04
1051  9.16441255   0.703  -1.72816   3.54098   6.90632   1.84280   0.03052   1.000E+00   0.000E+00  -4.142E-04
1052  9.16504648   0.703  -1.72815   3.54098   6.90632   1.84280   0.03051   1.000E+00   0.000E+00  -4.092E-04
1053  9.16567948   0.703  -1.72814   3.54098   6.90632   1.84281   0.03049   1.000E+00   0.000E+00  -4.041E-04
1054  9.16631157   0.703  -1.72814   3.54098   6.90632   1.84282   0.03047   1.000E+00   0.000E+00  -3.990E-04
1055  9.16694273   0.703  -1.72813   3.54098   6.90632   1.84282   0.03046   1.000E+00   0.000E+00  -3.940E-04
1056  9.16757298   0.703  -1.72813   3.54098   6.90633   1.84283   0.03044   1.000E+00   0.000E+00  -3.889E-04
1057  9.16820231   0.703  -1.72812   3.54098   6.90633   1.84283   0.03043   1.000E+00   0.000E+00  -3.839E-04
1058  9.16883074   0.703  -1.72812   3.54098   6.90633   1.84284   0.03041   1.000E+00   0.000E+00  -3.788E-04
1059  9.16945825   0.703  -1.72811   3.54098   6.90633   1.84285   0.03040   1.000E+00   0.000E+00  -3.738E-04
1060  9.17008486   0.702  -1.72811   3.54098   6.90633   1.84285   0.03038   1.000E+00   0.000E+00  -3.687E-04
1061  9.17071057   0.702  -1.72810   3.54098   6.90633   1.84286   0.03036   1.000E+00   0.000E+00  -3.637E-04
1062  9.17133538   0.702  -1.72809   3.54098   6.90633   1.84286   0.03035   1.000E+00   0.000E+00  -3.586E-04
1063  9.17195929   0.702  -1.72809   3.54098   6.90633   1.84287   0.03033   1.000E+00   0.000E+00  -3.535E-04
1064  9.17258230   0.702  -1.72808   3.54098   6.90633   1.84288   0.03032   1.000E+00   0.000E+00  -3.485E-04
1065  9.17320443   0.702  -1.72808   3.54098   6.90633   1.84288   0.03030   1.000E+00   0.000E+00  -3.434E-04
1066  9.17382566   0.702  -1.72807   3.54098   6.90633   1.84289   0.03028   1.000E+00   0.000E+00  -3.384E-04
1067  9.17444600   0.702  -1.72807   3.54098   6.90633   1.84289   0.03027   1.000E+00   0.000E+00  -3.333E-04
1068  9.17506547   0.702  -1.72806   3.54098   6.90633   1.84290   0.03025   1.000E+00   0.000E+00  -3.283E-04
1069  9.17568404   0.702  -1.72805   3.54098   6.90633   1.84291   0.03024   1.000E+00   0.000E+00  -3.232E-04
1070  9.17630174   0.702  -1.72805   3.54098   6.90633   1.84291   0.03022   1.000E+00   0.000E+00  -3.182E-04
1071  9.17691856   0.702  -1.72804   3.54098   6.90633   1.84292   0.03021   1.000E+00   0.000E+00  -3.131E-04
1072  9.17753451   0.702  -1.72804   3.54098   6.90633   1.84292   0.03019   1.000E+00   0.000E+00  -3.080E-04
1073  9.17814958   0.702  -1.72803   3.54098   6.90633   1.84293   0.03017   1.000E+00   0.000E+00  -3.030E-04
1074  9.17876379   0.702  -1.72803   3.54098   6.90633   1.84294   0.03016   1.000E+00   0.000E+00  -2.979E-04
1075  9.17937712   0.702  -1.72802   3.54098   6.90633   1.84294   0.03014   1.000E+00   0.000E+00  -2.929E-04
1076  9.17998960   0.702  -1.72801   3.54099   6.90633   1.84295   0.03013   1.000E+00   0.000E+00  -2.878E-04
1077  9.18060120   0.702  -1.72801   3.54099   6.90633   1.84295   0.03011   1.000E+00   0.000E+00  -2.828E-04
1078  9.18121195   0.702  -1.72800   3.54099   6.90633   1.84296   0.03010   1.000E+00   0.000E+00  -2.777E-04
1079  9.18182184   0.702  -1.72800   3.54099   6.90633   1.84297   0.03008   1.000E+00   0.000E+00  -2.727E-04
1080  9.18243088   0.702  -1.72799   3.54099   6.90634   1.84297   0.03006   1.000E+00   0.000E+00  -2.676E-04
1081  9.18303906   0.702  -1.72799   3.54099   6.90634   1.84298   0.03005   1.000E+00   0.000E+00  -2.626E-04
1082  9.18364640   0.702  -1.72798   3.54099   6.90634   1.84299   0.03003   1.000E+00   0.000E+00  -2.575E-04
1083  9.18425288   0.702  -1.72798   3.54099   6.90634   1.84299   0.03002   1.000E+00   0.000E+00  -2.524E-04
1084  9.18485852   0.702  -1.72797   3.54099   6.90634   1.84300   0.03000   1.000E+00   0.000E+00  -2.474E-04
1085  9.18546331   0.702  -1.72796   3.54099   6.90634   1.84300   0.02998   1.000E+00   0.000E+00  -2.423E-04
1086  9.18606727   0.702  -1.72796   3.54099   6.90634   1.84301   0.02997   1.000E+00   0.000E+00  -2.373E-04
1087  9.18667038   0.702  -1.72795   3.54099   6.90634   1.84302   0.02995   1.000E+00   0.000E+00  -2.322E-04
1088  9.18727266   0.702  -1.72795   3.54099   6.90634   1.84302   0.02994   1.000E+00   0.000E+00  -2.272E-04
1089  9.18787411   0.702  -1.72794   3.54099   6.90634   1.84303   0.02992   1.000E+00   0.000E+00  -2.221E-04
1090  9.18847472   0.702  -1.72794   3.54099   6.90634   1.84303   0.02991   1.000E+00   0.000E+00  -2.171E-04
1091  9.18907451   0.702  -1.72793   3.54099   6.90634   1.84304   0.02989   1.000E+00   0.000E+00  -2.120E-04
