 # M = 0.25 Mo, Y = 0.2700, Z = 2.00000E-02, alpha = 1.68, X_D = 4.0E-05
 # Solar Mixture: Asplund et al. (2005)         
 # ------------------------------------------------------------------------------------------------------------
 # NMD   LOG AGE    Xc      LOG L     LOG TE    LOG Tc   LOG RHOc    M-CC       L-PP       L-CNO       L-GRA
 #        (yr)              (Lo)        (K)       (K)   (gr/cm^3)    (Mo)        (L)         (L)         (L)
 # ------------------------------------------------------------------------------------------------------------
   1  5.23072206   0.710  -0.33682   3.51377   5.98341  -0.60458   0.00000   1.028E+00   0.000E+00  -2.840E-02
   2  5.55613176   0.710  -0.34593   3.51377   5.98772  -0.59163   0.00000   9.458E-01   0.000E+00   5.441E-02
   3  5.74005466   0.710  -0.35645   3.51376   5.99270  -0.57667   0.00000   9.430E-01   0.000E+00   5.684E-02
   4  5.86885688   0.710  -0.36546   3.51377   5.99697  -0.56383   0.00000   9.474E-01   0.000E+00   5.235E-02
   5  5.96806860   0.710  -0.37359   3.51377   6.00083  -0.55222   0.00000   9.516E-01   0.000E+00   4.813E-02
   6  6.04877756   0.710  -0.38080   3.51377   6.00425  -0.54191   0.00000   9.552E-01   0.000E+00   4.465E-02
   7  6.11681230   0.710  -0.38784   3.51377   6.00760  -0.53185   0.00000   9.582E-01   0.000E+00   4.181E-02
   8  6.17561842   0.710  -0.39434   3.51377   6.01068  -0.52256   0.00000   9.589E-01   0.000E+00   4.102E-02
   9  6.22740314   0.710  -0.40084   3.51377   6.01376  -0.51327   0.00000   9.596E-01   0.000E+00   4.023E-02
  10  6.27366572   0.710  -0.40731   3.51377   6.01684  -0.50401   0.00000   9.597E-01   0.000E+00   4.012E-02
  11  6.31547123   0.710  -0.41374   3.51378   6.01990  -0.49479   0.00000   9.590E-01   0.000E+00   4.080E-02
  12  6.35360351   0.710  -0.42017   3.51379   6.02296  -0.48557   0.00000   9.584E-01   0.000E+00   4.148E-02
  13  6.38865624   0.710  -0.42678   3.51379   6.02611  -0.47610   0.00000   9.573E-01   0.000E+00   4.264E-02
  14  6.42108988   0.710  -0.43368   3.51379   6.02939  -0.46622   0.00000   9.553E-01   0.000E+00   4.457E-02
  15  6.45126875   0.710  -0.44057   3.51380   6.03267  -0.45635   0.00000   9.534E-01   0.000E+00   4.650E-02
  16  6.47948607   0.710  -0.44774   3.51380   6.03609  -0.44607   0.00000   9.510E-01   0.000E+00   4.893E-02
  17  6.50598136   0.710  -0.45561   3.51380   6.03985  -0.43477   0.00000   9.472E-01   0.000E+00   5.265E-02
  18  6.53095275   0.710  -0.46348   3.51381   6.04360  -0.42347   0.00000   9.434E-01   0.000E+00   5.637E-02
  19  6.55456605   0.710  -0.47194   3.51381   6.04764  -0.41131   0.00000   9.385E-01   0.000E+00   6.126E-02
  20  6.57696140   0.710  -0.48136   3.51382   6.05214  -0.39774   0.00000   9.318E-01   0.000E+00   6.807E-02
  21  6.59825829   0.710  -0.49078   3.51383   6.05664  -0.38417   0.00000   9.251E-01   0.000E+00   7.488E-02
  22  6.61855947   0.710  -0.50209   3.51384   6.06205  -0.36787   0.00000   9.138E-01   0.000E+00   8.623E-02
  23  6.63795389   0.710  -0.51377   3.51386   6.06763  -0.35104   0.00000   9.015E-01   0.000E+00   9.848E-02
  24  6.65651911   0.710  -0.52765   3.51387   6.07428  -0.33102   0.00000   8.818E-01   0.000E+00   1.182E-01
  25  6.67432313   0.710  -0.54242   3.51388   6.08135  -0.30971   0.00000   8.590E-01   0.000E+00   1.410E-01
  26  6.69142592   0.710  -0.56116   3.51390   6.09035  -0.28259   0.00000   8.191E-01   0.000E+00   1.809E-01
  27  6.70788064   0.710  -0.58299   3.51393   6.10082  -0.25100   0.00000   7.614E-01   0.000E+00   2.386E-01
  28  6.72373460   0.710  -0.60951   3.51396   6.11356  -0.21259   0.00000   6.717E-01   0.000E+00   3.283E-01
  29  6.73903014   0.710  -0.64208   3.51400   6.12922  -0.16538   0.00000   5.364E-01   0.000E+00   4.636E-01
  30  6.75380526   0.710  -0.68184   3.51405   6.14836  -0.10761   0.00000   3.527E-01   0.000E+00   6.473E-01
  31  6.76809421   0.710  -0.72575   3.51410   6.16956  -0.04364   0.00000   1.754E-01   0.000E+00   8.227E-01
  32  6.78192797   0.710  -0.76636   3.51417   6.18922   0.01576   0.00000   1.523E-01   0.000E+00   8.477E-01
  33  6.79533465   0.710  -0.80319   3.51425   6.20710   0.06978   0.00000   1.204E-01   0.000E+00   8.796E-01
  34  6.80833982   0.710  -0.83688   3.51434   6.22347   0.11928   0.00000   8.779E-02   0.000E+00   9.122E-01
  35  6.82096684   0.710  -0.86791   3.51445   6.23858   0.16502   0.00000   6.012E-02   0.000E+00   9.399E-01
  36  6.83323709   0.710  -0.89664   3.51456   6.25263   0.20755   0.00000   3.873E-02   0.000E+00   9.613E-01
  37  6.84517016   0.710  -0.92293   3.51467   6.26560   0.24673   0.00000   2.498E-02   0.000E+00   9.750E-01
  38  6.85678410   0.710  -0.94732   3.51479   6.27757   0.28303   0.00000   1.523E-02   0.000E+00   9.848E-01
  39  6.86809553   0.710  -0.96997   3.51490   6.28870   0.31677   0.00000   9.668E-03   0.000E+00   9.903E-01
  40  6.87911982   0.710  -0.99101   3.51502   6.29906   0.34819   0.00000   5.183E-03   0.000E+00   9.948E-01
  41  6.88987116   0.710  -1.01062   3.51514   6.30872   0.37753   0.00000   3.000E-03   0.000E+00   9.970E-01
  42  6.89979386   0.710  -1.02793   3.51525   6.31727   0.40348   0.00000   2.076E-03   0.000E+00   9.979E-01
  43  6.90949491   0.710  -1.04424   3.51536   6.32531   0.42796   0.00000   1.205E-03   0.000E+00   9.988E-01
  44  6.91898399   0.710  -1.05965   3.51546   6.33294   0.45116   0.00000   1.000E-03   0.000E+00   9.990E-01
  45  6.92827016   0.710  -1.07430   3.51557   6.34020   0.47323   0.00000   5.989E-04   0.000E+00   9.994E-01
  46  6.93736192   0.710  -1.08831   3.51567   6.34715   0.49436   0.00000   0.000E+00   0.000E+00   1.000E+00
  47  6.94626724   0.710  -1.10159   3.51578   6.35374   0.51442   0.00000   0.000E+00   0.000E+00   1.000E+00
  48  6.95499362   0.710  -1.11419   3.51588   6.36000   0.53348   0.00000   0.000E+00   0.000E+00   1.000E+00
  49  6.96354811   0.710  -1.12638   3.51598   6.36606   0.55195   0.00000   0.000E+00   0.000E+00   1.000E+00
  50  6.97193735   0.710  -1.13801   3.51608   6.37185   0.56958   0.00000   0.000E+00   0.000E+00   1.000E+00
  51  6.98016760   0.710  -1.14912   3.51617   6.37739   0.58646   0.00000   0.000E+00   0.000E+00   1.000E+00
  52  6.98824478   0.710  -1.15999   3.51627   6.38282   0.60299   0.00000   0.000E+00   0.000E+00   1.000E+00
  53  6.99617447   0.710  -1.17019   3.51636   6.38791   0.61851   0.00000   0.000E+00   0.000E+00   1.000E+00
  54  7.00396197   0.710  -1.18029   3.51646   6.39294   0.63388   0.00000   0.000E+00   0.000E+00   1.000E+00
  55  7.01161228   0.710  -1.18980   3.51655   6.39770   0.64839   0.00000   0.000E+00   0.000E+00   1.000E+00
  56  7.01913016   0.710  -1.19923   3.51663   6.40241   0.66275   0.00000   0.000E+00   0.000E+00   1.000E+00
  57  7.02652011   0.710  -1.20815   3.51672   6.40686   0.67635   0.00000   0.000E+00   0.000E+00   1.000E+00
  58  7.03378642   0.710  -1.21704   3.51680   6.41130   0.68990   0.00000   0.000E+00   0.000E+00   1.000E+00
  59  7.04093315   0.710  -1.22538   3.51689   6.41547   0.70264   0.00000   0.000E+00   0.000E+00   1.000E+00
  60  7.04796417   0.710  -1.23372   3.51697   6.41965   0.71538   0.00000   0.000E+00   0.000E+00   1.000E+00
  61  7.05488318   0.710  -1.24164   3.51704   6.42360   0.72746   0.00000   0.000E+00   0.000E+00   1.000E+00
  62  7.06169368   0.710  -1.24947   3.51711   6.42750   0.73941   0.00000   0.000E+00   0.000E+00   1.000E+00
  63  7.06839903   0.710  -1.25708   3.51718   6.43130   0.75103   0.00000   0.000E+00   0.000E+00   1.000E+00
  64  7.07500242   0.710  -1.26441   3.51725   6.43496   0.76222   0.00000   0.000E+00   0.000E+00   1.000E+00
  65  7.08150691   0.710  -1.27174   3.51732   6.43862   0.77340   0.00000   0.000E+00   0.000E+00   1.000E+00
  66  7.08791542   0.710  -1.27867   3.51738   6.44207   0.78398   0.00000   0.000E+00   0.000E+00   1.000E+00
  67  7.09423073   0.710  -1.28554   3.51745   6.44550   0.79445   0.00000   0.000E+00   0.000E+00   1.000E+00
  68  7.10045553   0.710  -1.29235   3.51751   6.44889   0.80484   0.00000   0.000E+00   0.000E+00   1.000E+00
  69  7.10659236   0.710  -1.29879   3.51756   6.45209   0.81465   0.00000   0.000E+00   0.000E+00   1.000E+00
  70  7.11264369   0.710  -1.30523   3.51762   6.45530   0.82447   0.00000   0.000E+00   0.000E+00   1.000E+00
  71  7.11861185   0.710  -1.31158   3.51767   6.45846   0.83415   0.00000   0.000E+00   0.000E+00   1.000E+00
  72  7.12449911   0.710  -1.31762   3.51772   6.46146   0.84334   0.00000   0.000E+00   0.000E+00   1.000E+00
  73  7.13030763   0.710  -1.32366   3.51777   6.46446   0.85254   0.00000   0.000E+00   0.000E+00   1.000E+00
  74  7.13603949   0.710  -1.32966   3.51783   6.46743   0.86167   0.00000   0.000E+00   0.000E+00   1.000E+00
  75  7.14169668   0.710  -1.33532   3.51787   6.47024   0.87028   0.00000   0.000E+00   0.000E+00   1.000E+00
  76  7.14728112   0.710  -1.34099   3.51792   6.47305   0.87889   0.00000   0.000E+00   0.000E+00   1.000E+00
  77  7.15279467   0.710  -1.34665   3.51796   6.47586   0.88751   0.00000   0.000E+00   0.000E+00   1.000E+00
  78  7.15823910   0.710  -1.35203   3.51800   6.47853   0.89567   0.00000   0.000E+00   0.000E+00   1.000E+00
  79  7.16361612   0.710  -1.35734   3.51804   6.48115   0.90373   0.00000   0.000E+00   0.000E+00   1.000E+00
  80  7.16892738   0.710  -1.36265   3.51808   6.48378   0.91179   0.00000   0.000E+00   0.000E+00   1.000E+00
  81  7.17417447   0.710  -1.36787   3.51812   6.48635   0.91970   0.00000   0.000E+00   0.000E+00   1.000E+00
  82  7.17935892   0.710  -1.37284   3.51815   6.48881   0.92725   0.00000   0.000E+00   0.000E+00   1.000E+00
  83  7.18448221   0.710  -1.37782   3.51819   6.49127   0.93479   0.00000   0.000E+00   0.000E+00   1.000E+00
  84  7.18954576   0.710  -1.38280   3.51822   6.49373   0.94234   0.00000   0.000E+00   0.000E+00   1.000E+00
  85  7.19455096   0.710  -1.38762   3.51826   6.49611   0.94964   0.00000   0.000E+00   0.000E+00   1.000E+00
  86  7.19949913   0.710  -1.39229   3.51829   6.49840   0.95670   0.00000   0.000E+00   0.000E+00   1.000E+00
  87  7.20439156   0.710  -1.39695   3.51832   6.50070   0.96376   0.00000   0.000E+00   0.000E+00   1.000E+00
  88  7.20922948   0.710  -1.40162   3.51834   6.50300   0.97083   0.00000   0.000E+00   0.000E+00   1.000E+00
  89  7.21401411   0.710  -1.40614   3.51837   6.50522   0.97767   0.00000   0.000E+00   0.000E+00   1.000E+00
  90  7.21874660   0.710  -1.41052   3.51840   6.50737   0.98428   0.00000   0.000E+00   0.000E+00   1.000E+00
  91  7.22342807   0.710  -1.41489   3.51843   6.50952   0.99089   0.00000   0.000E+00   0.000E+00   1.000E+00
  92  7.22805962   0.710  -1.41927   3.51846   6.51167   0.99750   0.00000   0.000E+00   0.000E+00   1.000E+00
  93  7.23264229   0.710  -1.42359   3.51848   6.51379   1.00402   0.00000   0.000E+00   0.000E+00   1.000E+00
  94  7.23717711   0.710  -1.42769   3.51851   6.51580   1.01022   0.00000   0.000E+00   0.000E+00   1.000E+00
  95  7.24166507   0.710  -1.43180   3.51853   6.51781   1.01641   0.00000   0.000E+00   0.000E+00   1.000E+00
  96  7.24610713   0.710  -1.43590   3.51855   6.51982   1.02260   0.00000   0.000E+00   0.000E+00   1.000E+00
  97  7.25050421   0.710  -1.44000   3.51857   6.52183   1.02880   0.00000   0.000E+00   0.000E+00   1.000E+00
  98  7.25485722   0.710  -1.44394   3.51859   6.52376   1.03474   0.00000   0.000E+00   0.000E+00   1.000E+00
  99  7.25916703   0.710  -1.44779   3.51861   6.52565   1.04055   0.00000   0.000E+00   0.000E+00   1.000E+00
 100  7.26343449   0.710  -1.45164   3.51863   6.52753   1.04636   0.00000   0.000E+00   0.000E+00   1.000E+00
 101  7.26766042   0.710  -1.45548   3.51865   6.52941   1.05216   0.00000   0.000E+00   0.000E+00   1.000E+00
 102  7.27184563   0.710  -1.45933   3.51868   6.53130   1.05797   0.00000   0.000E+00   0.000E+00   1.000E+00
 103  7.27599089   0.710  -1.46300   3.51869   6.53308   1.06350   0.00000   0.000E+00   0.000E+00   1.000E+00
 104  7.28009697   0.710  -1.46661   3.51871   6.53485   1.06894   0.00000   0.000E+00   0.000E+00   1.000E+00
 105  7.28416458   0.710  -1.47022   3.51873   6.53661   1.07439   0.00000   0.000E+00   0.000E+00   1.000E+00
 106  7.28819445   0.710  -1.47383   3.51875   6.53837   1.07983   0.00000   0.000E+00   0.000E+00   1.000E+00
 107  7.29218727   0.710  -1.47744   3.51876   6.54013   1.08528   0.00000   0.000E+00   0.000E+00   1.000E+00
 108  7.29614371   0.710  -1.48093   3.51878   6.54182   1.09052   0.00000   0.000E+00   0.000E+00   1.000E+00
 109  7.30006444   0.710  -1.48432   3.51879   6.54347   1.09561   0.00000   0.000E+00   0.000E+00   1.000E+00
 110  7.30395008   0.710  -1.48771   3.51880   6.54512   1.10070   0.00000   0.000E+00   0.000E+00   1.000E+00
 111  7.30780127   0.710  -1.49111   3.51882   6.54677   1.10579   0.00000   0.000E+00   0.000E+00   1.000E+00
 112  7.31161861   0.710  -1.49450   3.51883   6.54842   1.11089   0.00000   0.000E+00   0.000E+00   1.000E+00
 113  7.31540269   0.710  -1.49789   3.51884   6.55007   1.11597   0.00000   0.000E+00   0.000E+00   1.000E+00
 114  7.31915408   0.710  -1.50106   3.51885   6.55162   1.12073   0.00000   0.000E+00   0.000E+00   1.000E+00
 115  7.32287334   0.710  -1.50424   3.51886   6.55316   1.12550   0.00000   0.000E+00   0.000E+00   1.000E+00
 116  7.32656102   0.710  -1.50742   3.51888   6.55471   1.13027   0.00000   0.000E+00   0.000E+00   1.000E+00
 117  7.33021766   0.710  -1.51060   3.51889   6.55625   1.13503   0.00000   0.000E+00   0.000E+00   1.000E+00
 118  7.33384376   0.710  -1.51378   3.51890   6.55780   1.13980   0.00000   0.000E+00   0.000E+00   1.000E+00
 119  7.33743983   0.710  -1.51693   3.51891   6.55933   1.14453   0.00000   0.000E+00   0.000E+00   1.000E+00
 120  7.34100638   0.710  -1.51992   3.51892   6.56077   1.14899   0.00000   0.000E+00   0.000E+00   1.000E+00
 121  7.34454387   0.710  -1.52290   3.51893   6.56222   1.15346   0.00000   0.000E+00   0.000E+00   1.000E+00
 122  7.34805278   0.710  -1.52589   3.51894   6.56366   1.15793   0.00000   0.000E+00   0.000E+00   1.000E+00
 123  7.35153357   0.710  -1.52887   3.51895   6.56511   1.16240   0.00000   0.000E+00   0.000E+00   1.000E+00
 124  7.35498669   0.710  -1.53186   3.51896   6.56655   1.16687   0.00000   0.000E+00   0.000E+00   1.000E+00
 125  7.35841256   0.710  -1.53484   3.51897   6.56800   1.17134   0.00000   0.000E+00   0.000E+00   1.000E+00
 126  7.36181162   0.710  -1.53767   3.51898   6.56937   1.17557   0.00000   1.255E-04   0.000E+00   9.999E-01
 127  7.36518428   0.710  -1.54048   3.51898   6.57072   1.17976   0.00000   2.747E-04   0.000E+00   9.997E-01
 128  7.36853095   0.710  -1.54328   3.51899   6.57207   1.18395   0.00000   4.240E-04   0.000E+00   9.996E-01
 129  7.37185203   0.710  -1.54608   3.51900   6.57342   1.18814   0.00000   5.733E-04   0.000E+00   9.994E-01
 130  7.37514791   0.710  -1.54888   3.51901   6.57478   1.19233   0.00000   7.226E-04   0.000E+00   9.993E-01
 131  7.37841896   0.710  -1.55168   3.51901   6.57613   1.19652   0.00000   8.719E-04   0.000E+00   9.991E-01
 132  7.38166556   0.710  -1.55446   3.51902   6.57747   1.20068   0.00000   1.000E-03   0.000E+00   9.990E-01
 133  7.38488807   0.710  -1.55709   3.51903   6.57874   1.20460   0.00000   1.000E-03   0.000E+00   9.990E-01
 134  7.38808685   0.710  -1.55973   3.51903   6.58000   1.20853   0.00000   1.000E-03   0.000E+00   9.990E-01
 135  7.39126223   0.710  -1.56236   3.51904   6.58127   1.21246   0.00000   1.000E-03   0.000E+00   9.990E-01
 136  7.39441457   0.710  -1.56499   3.51904   6.58253   1.21639   0.00000   1.000E-03   0.000E+00   9.990E-01
 137  7.39754419   0.710  -1.56762   3.51905   6.58380   1.22031   0.00000   1.000E-03   0.000E+00   9.990E-01
 138  7.40065142   0.710  -1.57025   3.51905   6.58507   1.22424   0.00000   1.000E-03   0.000E+00   9.990E-01
 139  7.40373657   0.710  -1.57288   3.51906   6.58633   1.22817   0.00000   1.000E-03   0.000E+00   9.990E-01
 140  7.40679997   0.710  -1.57536   3.51906   6.58752   1.23185   0.00000   1.000E-03   0.000E+00   9.990E-01
 141  7.40984190   0.710  -1.57783   3.51907   6.58870   1.23553   0.00000   1.000E-03   0.000E+00   9.990E-01
 142  7.41286268   0.710  -1.58030   3.51907   6.58989   1.23922   0.00000   1.000E-03   0.000E+00   9.990E-01
 143  7.41586259   0.710  -1.58277   3.51907   6.59108   1.24290   0.00000   1.000E-03   0.000E+00   9.990E-01
 144  7.41884193   0.710  -1.58524   3.51907   6.59226   1.24658   0.00000   1.000E-03   0.000E+00   9.990E-01
 145  7.42180096   0.710  -1.58772   3.51908   6.59345   1.25026   0.00000   1.000E-03   0.000E+00   9.990E-01
 146  7.42473997   0.710  -1.59019   3.51908   6.59463   1.25395   0.00000   1.000E-03   0.000E+00   9.990E-01
 147  7.42765922   0.710  -1.59260   3.51908   6.59579   1.25754   0.00000   1.000E-03   0.000E+00   9.990E-01
 148  7.43055898   0.710  -1.59492   3.51908   6.59690   1.26099   0.00000   1.000E-03   0.000E+00   9.990E-01
 149  7.43343950   0.710  -1.59724   3.51909   6.59801   1.26444   0.00000   1.000E-03   0.000E+00   9.990E-01
 150  7.43630105   0.710  -1.59957   3.51909   6.59912   1.26790   0.00000   1.000E-03   0.000E+00   9.990E-01
 151  7.43914387   0.710  -1.60189   3.51909   6.60023   1.27135   0.00000   1.000E-03   0.000E+00   9.990E-01
 152  7.44196820   0.710  -1.60421   3.51909   6.60134   1.27480   0.00000   1.000E-03   0.000E+00   9.990E-01
 153  7.44477428   0.710  -1.60653   3.51910   6.60245   1.27825   0.00000   1.000E-03   0.000E+00   9.990E-01
 154  7.44756234   0.710  -1.60885   3.51910   6.60356   1.28171   0.00000   1.000E-03   0.000E+00   9.990E-01
 155  7.45033262   0.710  -1.61113   3.51910   6.60464   1.28509   0.00000   1.036E-03   0.000E+00   9.990E-01
 156  7.45308534   0.710  -1.61331   3.51910   6.60568   1.28832   0.00000   1.152E-03   0.000E+00   9.988E-01
 157  7.45582073   0.710  -1.61549   3.51910   6.60672   1.29155   0.00000   1.268E-03   0.000E+00   9.987E-01
 158  7.45853899   0.710  -1.61767   3.51910   6.60776   1.29478   0.00000   1.384E-03   0.000E+00   9.986E-01
 159  7.46124034   0.710  -1.61985   3.51910   6.60880   1.29801   0.00000   1.501E-03   0.000E+00   9.985E-01
 160  7.46392500   0.710  -1.62203   3.51910   6.60984   1.30123   0.00000   1.617E-03   0.000E+00   9.984E-01
 161  7.46659316   0.710  -1.62421   3.51910   6.61088   1.30446   0.00000   1.733E-03   0.000E+00   9.983E-01
 162  7.46924503   0.710  -1.62639   3.51910   6.61192   1.30769   0.00000   1.849E-03   0.000E+00   9.982E-01
 163  7.47188081   0.710  -1.62857   3.51910   6.61296   1.31092   0.00000   1.965E-03   0.000E+00   9.980E-01
 164  7.47450068   0.710  -1.63066   3.51910   6.61396   1.31401   0.00000   2.000E-03   0.000E+00   9.980E-01
 165  7.47710485   0.710  -1.63271   3.51910   6.61493   1.31703   0.00000   2.000E-03   0.000E+00   9.980E-01
 166  7.47969349   0.710  -1.63475   3.51910   6.61590   1.32006   0.00000   2.000E-03   0.000E+00   9.980E-01
 167  7.48226680   0.710  -1.63680   3.51910   6.61687   1.32308   0.00000   2.000E-03   0.000E+00   9.980E-01
 168  7.48482494   0.710  -1.63885   3.51909   6.61785   1.32610   0.00000   2.000E-03   0.000E+00   9.980E-01
 169  7.48736811   0.710  -1.64090   3.51909   6.61882   1.32913   0.00000   2.000E-03   0.000E+00   9.980E-01
 170  7.48989647   0.710  -1.64295   3.51909   6.61979   1.33215   0.00000   2.000E-03   0.000E+00   9.980E-01
 171  7.49241020   0.710  -1.64499   3.51909   6.62076   1.33517   0.00000   2.000E-03   0.000E+00   9.980E-01
 172  7.49490946   0.710  -1.64704   3.51909   6.62174   1.33820   0.00000   2.000E-03   0.000E+00   9.980E-01
 173  7.49739442   0.710  -1.64902   3.51909   6.62268   1.34112   0.00000   2.054E-03   0.000E+00   9.979E-01
 174  7.49986524   0.710  -1.65095   3.51909   6.62358   1.34396   0.00000   2.156E-03   0.000E+00   9.978E-01
 175  7.50232209   0.710  -1.65287   3.51908   6.62449   1.34679   0.00000   2.258E-03   0.000E+00   9.977E-01
 176  7.50476511   0.710  -1.65479   3.51908   6.62540   1.34963   0.00000   2.361E-03   0.000E+00   9.976E-01
 177  7.50719447   0.710  -1.65671   3.51908   6.62631   1.35246   0.00000   2.463E-03   0.000E+00   9.975E-01
 178  7.50961031   0.710  -1.65863   3.51908   6.62722   1.35530   0.00000   2.566E-03   0.000E+00   9.974E-01
 179  7.51201279   0.710  -1.66056   3.51908   6.62813   1.35813   0.00000   2.668E-03   0.000E+00   9.973E-01
 180  7.51440206   0.710  -1.66248   3.51907   6.62904   1.36097   0.00000   2.770E-03   0.000E+00   9.972E-01
 181  7.51677825   0.710  -1.66440   3.51907   6.62995   1.36380   0.00000   2.873E-03   0.000E+00   9.971E-01
 182  7.51914151   0.710  -1.66632   3.51907   6.63086   1.36664   0.00000   2.975E-03   0.000E+00   9.970E-01
 183  7.52149198   0.710  -1.66815   3.51907   6.63172   1.36934   0.00000   3.073E-03   0.000E+00   9.969E-01
 184  7.52382980   0.710  -1.66996   3.51906   6.63258   1.37200   0.00000   3.169E-03   0.000E+00   9.968E-01
 185  7.52615510   0.710  -1.67176   3.51906   6.63343   1.37466   0.00000   3.265E-03   0.000E+00   9.967E-01
 186  7.52846801   0.710  -1.67356   3.51906   6.63428   1.37732   0.00000   3.361E-03   0.000E+00   9.966E-01
 187  7.53076868   0.710  -1.67536   3.51906   6.63513   1.37998   0.00000   3.457E-03   0.000E+00   9.965E-01
 188  7.53305722   0.710  -1.67716   3.51905   6.63598   1.38264   0.00000   3.553E-03   0.000E+00   9.964E-01
 189  7.53533376   0.710  -1.67897   3.51905   6.63683   1.38530   0.00000   3.649E-03   0.000E+00   9.964E-01
 190  7.53759843   0.710  -1.68077   3.51905   6.63768   1.38796   0.00000   3.745E-03   0.000E+00   9.963E-01
 191  7.53985136   0.710  -1.68257   3.51904   6.63854   1.39062   0.00000   3.842E-03   0.000E+00   9.962E-01
 192  7.54209265   0.710  -1.68437   3.51904   6.63939   1.39328   0.00000   3.938E-03   0.000E+00   9.961E-01
 193  7.54432244   0.710  -1.68613   3.51904   6.64022   1.39588   0.00000   4.032E-03   0.000E+00   9.960E-01
 194  7.54654084   0.710  -1.68782   3.51904   6.64102   1.39837   0.00000   4.122E-03   0.000E+00   9.959E-01
 195  7.54874797   0.710  -1.68951   3.51903   6.64181   1.40087   0.00000   4.212E-03   0.000E+00   9.958E-01
 196  7.55094394   0.710  -1.69120   3.51903   6.64261   1.40336   0.00000   4.302E-03   0.000E+00   9.957E-01
 197  7.55312885   0.710  -1.69289   3.51903   6.64341   1.40586   0.00000   4.392E-03   0.000E+00   9.956E-01
 198  7.55530283   0.710  -1.69458   3.51903   6.64420   1.40835   0.00000   4.482E-03   0.000E+00   9.955E-01
 199  7.55746599   0.710  -1.69627   3.51902   6.64500   1.41084   0.00000   4.572E-03   0.000E+00   9.954E-01
 200  7.55961842   0.710  -1.69796   3.51902   6.64580   1.41334   0.00000   4.663E-03   0.000E+00   9.953E-01
 201  7.56176023   0.710  -1.69965   3.51902   6.64659   1.41583   0.00000   4.753E-03   0.000E+00   9.952E-01
 202  7.56389154   0.710  -1.70134   3.51901   6.64739   1.41833   0.00000   4.843E-03   0.000E+00   9.952E-01
 203  7.56601244   0.710  -1.70303   3.51901   6.64819   1.42082   0.00000   4.933E-03   0.000E+00   9.951E-01
 204  7.56812303   0.710  -1.70469   3.51901   6.64897   1.42328   0.00000   5.022E-03   0.000E+00   9.950E-01
 205  7.57022341   0.710  -1.70628   3.51901   6.64972   1.42561   0.00000   5.106E-03   0.000E+00   9.949E-01
 206  7.57231368   0.710  -1.70786   3.51900   6.65046   1.42794   0.00000   5.191E-03   0.000E+00   9.948E-01
 207  7.57439394   0.710  -1.70944   3.51900   6.65121   1.43027   0.00000   5.275E-03   0.000E+00   9.947E-01
 208  7.57646429   0.710  -1.71103   3.51900   6.65195   1.43260   0.00000   5.360E-03   0.000E+00   9.946E-01
 209  7.57852481   0.710  -1.71261   3.51900   6.65270   1.43493   0.00000   5.444E-03   0.000E+00   9.946E-01
 210  7.58057560   0.710  -1.71420   3.51899   6.65344   1.43726   0.00000   5.529E-03   0.000E+00   9.945E-01
 211  7.58261675   0.710  -1.71578   3.51899   6.65419   1.43959   0.00000   5.613E-03   0.000E+00   9.944E-01
 212  7.58464835   0.710  -1.71736   3.51899   6.65493   1.44193   0.00000   5.698E-03   0.000E+00   9.943E-01
 213  7.58667050   0.710  -1.71895   3.51899   6.65568   1.44426   0.00000   5.782E-03   0.000E+00   9.942E-01
 214  7.58868327   0.710  -1.72053   3.51898   6.65642   1.44659   0.00000   5.867E-03   0.000E+00   9.941E-01
 215  7.59068676   0.710  -1.72211   3.51898   6.65717   1.44892   0.00000   5.951E-03   0.000E+00   9.940E-01
 216  7.59268105   0.710  -1.72365   3.51898   6.65789   1.45119   0.00000   6.033E-03   0.000E+00   9.940E-01
 217  7.59466622   0.710  -1.72514   3.51898   6.65859   1.45337   0.00000   6.112E-03   0.000E+00   9.939E-01
 218  7.59664235   0.710  -1.72662   3.51897   6.65929   1.45555   0.00000   6.192E-03   0.000E+00   9.938E-01
 219  7.59860954   0.710  -1.72810   3.51897   6.65999   1.45773   0.00000   6.271E-03   0.000E+00   9.937E-01
 220  7.60056786   0.710  -1.72958   3.51897   6.66068   1.45991   0.00000   6.350E-03   0.000E+00   9.937E-01
 221  7.60251738   0.710  -1.73106   3.51897   6.66138   1.46209   0.00000   6.429E-03   0.000E+00   9.936E-01
 222  7.60445820   0.710  -1.73254   3.51896   6.66208   1.46427   0.00000   6.508E-03   0.000E+00   9.935E-01
 223  7.60639038   0.710  -1.73402   3.51896   6.66277   1.46646   0.00000   6.587E-03   0.000E+00   9.934E-01
 224  7.60831400   0.710  -1.73551   3.51896   6.66347   1.46864   0.00000   6.666E-03   0.000E+00   9.933E-01
 225  7.61022914   0.710  -1.73699   3.51896   6.66417   1.47082   0.00000   6.746E-03   0.000E+00   9.933E-01
 226  7.61213587   0.710  -1.73847   3.51896   6.66487   1.47300   0.00000   6.825E-03   0.000E+00   9.932E-01
 227  7.61403426   0.710  -1.73995   3.51895   6.66556   1.47518   0.00000   6.904E-03   0.000E+00   9.931E-01
 228  7.61592439   0.710  -1.74143   3.51895   6.66626   1.47736   0.00000   6.983E-03   0.000E+00   9.930E-01
 229  7.61780634   0.710  -1.74284   3.51895   6.66692   1.47943   0.00000   7.116E-03   0.000E+00   9.929E-01
 230  7.61968016   0.710  -1.74422   3.51895   6.66757   1.48148   0.00000   7.264E-03   0.000E+00   9.927E-01
 231  7.62154593   0.710  -1.74561   3.51894   6.66822   1.48352   0.00000   7.413E-03   0.000E+00   9.926E-01
 232  7.62340372   0.710  -1.74699   3.51894   6.66887   1.48557   0.00000   7.561E-03   0.000E+00   9.924E-01
 233  7.62525360   0.710  -1.74838   3.51894   6.66953   1.48761   0.00000   7.709E-03   0.000E+00   9.923E-01
 234  7.62709563   0.710  -1.74976   3.51894   6.67018   1.48965   0.00000   7.857E-03   0.000E+00   9.921E-01
 235  7.62892988   0.710  -1.75115   3.51893   6.67083   1.49170   0.00000   8.005E-03   0.000E+00   9.920E-01
 236  7.63075642   0.710  -1.75253   3.51893   6.67148   1.49374   0.00000   8.153E-03   0.000E+00   9.918E-01
 237  7.63257531   0.710  -1.75392   3.51893   6.67213   1.49579   0.00000   8.302E-03   0.000E+00   9.917E-01
 238  7.63438661   0.710  -1.75530   3.51893   6.67278   1.49783   0.00000   8.450E-03   0.000E+00   9.916E-01
 239  7.63619039   0.710  -1.75669   3.51893   6.67343   1.49987   0.00000   8.598E-03   0.000E+00   9.914E-01
 240  7.63798670   0.710  -1.75808   3.51892   6.67408   1.50192   0.00000   8.746E-03   0.000E+00   9.913E-01
 241  7.63977562   0.710  -1.75946   3.51892   6.67473   1.50396   0.00000   8.894E-03   0.000E+00   9.911E-01
 242  7.64155720   0.710  -1.76082   3.51892   6.67537   1.50597   0.00000   9.059E-03   0.000E+00   9.909E-01
 243  7.64333150   0.710  -1.76212   3.51892   6.67598   1.50788   0.00000   9.267E-03   0.000E+00   9.907E-01
 244  7.64509858   0.710  -1.76341   3.51892   6.67659   1.50979   0.00000   9.475E-03   0.000E+00   9.905E-01
 245  7.64685851   0.710  -1.76471   3.51892   6.67720   1.51171   0.00000   9.683E-03   0.000E+00   9.903E-01
 246  7.64861132   0.710  -1.76600   3.51891   6.67781   1.51362   0.00000   9.891E-03   0.000E+00   9.901E-01
 247  7.65035709   0.710  -1.76730   3.51891   6.67842   1.51553   0.00000   1.010E-02   0.000E+00   9.899E-01
 248  7.65209588   0.710  -1.76859   3.51891   6.67902   1.51745   0.00000   1.031E-02   0.000E+00   9.897E-01
 249  7.65382773   0.710  -1.76989   3.51891   6.67963   1.51936   0.00000   1.051E-02   0.000E+00   9.895E-01
 250  7.65555270   0.710  -1.77119   3.51891   6.68024   1.52127   0.00000   1.072E-02   0.000E+00   9.893E-01
 251  7.65727084   0.710  -1.77248   3.51891   6.68085   1.52319   0.00000   1.093E-02   0.000E+00   9.891E-01
 252  7.65898222   0.710  -1.77378   3.51891   6.68146   1.52510   0.00000   1.114E-02   0.000E+00   9.889E-01
 253  7.66068687   0.710  -1.77507   3.51890   6.68207   1.52701   0.00000   1.135E-02   0.000E+00   9.887E-01
 254  7.66238487   0.710  -1.77637   3.51890   6.68267   1.52892   0.00000   1.155E-02   0.000E+00   9.884E-01
 255  7.66407625   0.710  -1.77767   3.51890   6.68328   1.53084   0.00000   1.176E-02   0.000E+00   9.882E-01
 256  7.66576106   0.710  -1.77896   3.51890   6.68389   1.53275   0.00000   1.197E-02   0.000E+00   9.880E-01
 257  7.66743937   0.710  -1.78018   3.51890   6.68447   1.53456   0.00000   1.217E-02   0.000E+00   9.878E-01
 258  7.66911122   0.710  -1.78139   3.51890   6.68503   1.53635   0.00000   1.236E-02   0.000E+00   9.876E-01
 259  7.67077665   0.710  -1.78260   3.51890   6.68560   1.53814   0.00000   1.255E-02   0.000E+00   9.874E-01
 260  7.67243573   0.710  -1.78381   3.51890   6.68617   1.53993   0.00000   1.275E-02   0.000E+00   9.873E-01
 261  7.67408849   0.710  -1.78502   3.51889   6.68674   1.54172   0.00000   1.294E-02   0.000E+00   9.871E-01
 262  7.67573498   0.710  -1.78623   3.51889   6.68730   1.54351   0.00000   1.314E-02   0.000E+00   9.869E-01
 263  7.67737525   0.710  -1.78744   3.51889   6.68787   1.54530   0.00000   1.333E-02   0.000E+00   9.867E-01
 264  7.67900936   0.710  -1.78865   3.51889   6.68844   1.54709   0.00000   1.353E-02   0.000E+00   9.865E-01
 265  7.68063733   0.710  -1.78985   3.51889   6.68901   1.54888   0.00000   1.372E-02   0.000E+00   9.863E-01
 266  7.68225923   0.710  -1.79106   3.51889   6.68958   1.55067   0.00000   1.391E-02   0.000E+00   9.861E-01
 267  7.68387510   0.710  -1.79227   3.51889   6.69014   1.55246   0.00000   1.411E-02   0.000E+00   9.859E-01
 268  7.68548497   0.710  -1.79348   3.51888   6.69071   1.55426   0.00000   1.430E-02   0.000E+00   9.857E-01
 269  7.68708890   0.710  -1.79469   3.51888   6.69128   1.55605   0.00000   1.450E-02   0.000E+00   9.855E-01
 270  7.68868692   0.710  -1.79590   3.51888   6.69185   1.55784   0.00000   1.469E-02   0.000E+00   9.853E-01
 271  7.69027909   0.710  -1.79711   3.51888   6.69242   1.55963   0.00000   1.489E-02   0.000E+00   9.851E-01
 272  7.69186544   0.710  -1.79829   3.51888   6.69297   1.56137   0.00000   1.510E-02   0.000E+00   9.849E-01
 273  7.69344602   0.710  -1.79941   3.51888   6.69350   1.56304   0.00000   1.534E-02   0.000E+00   9.847E-01
 274  7.69502087   0.710  -1.80054   3.51888   6.69403   1.56472   0.00000   1.558E-02   0.000E+00   9.844E-01
 275  7.69659002   0.710  -1.80167   3.51888   6.69456   1.56639   0.00000   1.583E-02   0.000E+00   9.842E-01
 276  7.69815353   0.710  -1.80280   3.51887   6.69509   1.56806   0.00000   1.607E-02   0.000E+00   9.839E-01
 277  7.69971143   0.710  -1.80393   3.51887   6.69562   1.56974   0.00000   1.631E-02   0.000E+00   9.837E-01
 278  7.70126376   0.710  -1.80506   3.51887   6.69615   1.57141   0.00000   1.655E-02   0.000E+00   9.834E-01
 279  7.70281056   0.710  -1.80619   3.51887   6.69668   1.57308   0.00000   1.679E-02   0.000E+00   9.832E-01
 280  7.70435187   0.710  -1.80732   3.51887   6.69721   1.57476   0.00000   1.704E-02   0.000E+00   9.830E-01
 281  7.70588773   0.710  -1.80845   3.51887   6.69774   1.57643   0.00000   1.728E-02   0.000E+00   9.827E-01
 282  7.70741818   0.710  -1.80958   3.51887   6.69827   1.57810   0.00000   1.752E-02   0.000E+00   9.825E-01
 283  7.70894326   0.710  -1.81071   3.51887   6.69880   1.57978   0.00000   1.776E-02   0.000E+00   9.822E-01
 284  7.71046300   0.710  -1.81184   3.51886   6.69933   1.58145   0.00000   1.800E-02   0.000E+00   9.820E-01
 285  7.71197743   0.710  -1.81296   3.51886   6.69986   1.58312   0.00000   1.824E-02   0.000E+00   9.818E-01
 286  7.71348661   0.710  -1.81409   3.51886   6.70039   1.58480   0.00000   1.849E-02   0.000E+00   9.815E-01
 287  7.71499056   0.710  -1.81522   3.51886   6.70092   1.58647   0.00000   1.873E-02   0.000E+00   9.813E-01
 288  7.71648932   0.710  -1.81635   3.51886   6.70146   1.58815   0.00000   1.897E-02   0.000E+00   9.810E-01
 289  7.71798292   0.710  -1.81741   3.51886   6.70195   1.58972   0.00000   1.925E-02   0.000E+00   9.808E-01
 290  7.71947141   0.710  -1.81846   3.51886   6.70245   1.59128   0.00000   1.953E-02   0.000E+00   9.805E-01
 291  7.72095481   0.710  -1.81952   3.51886   6.70294   1.59284   0.00000   1.981E-02   0.000E+00   9.802E-01
 292  7.72243316   0.710  -1.82057   3.51886   6.70344   1.59440   0.00000   2.009E-02   0.000E+00   9.799E-01
 293  7.72390650   0.710  -1.82162   3.51886   6.70393   1.59596   0.00000   2.038E-02   0.000E+00   9.796E-01
 294  7.72537485   0.710  -1.82267   3.51886   6.70443   1.59751   0.00000   2.066E-02   0.000E+00   9.793E-01
 295  7.72683826   0.710  -1.82372   3.51886   6.70492   1.59907   0.00000   2.094E-02   0.000E+00   9.791E-01
 296  7.72829675   0.710  -1.82478   3.51886   6.70542   1.60063   0.00000   2.122E-02   0.000E+00   9.788E-01
 297  7.72975036   0.710  -1.82583   3.51886   6.70591   1.60219   0.00000   2.151E-02   0.000E+00   9.785E-01
 298  7.73119913   0.710  -1.82688   3.51886   6.70640   1.60375   0.00000   2.179E-02   0.000E+00   9.782E-01
 299  7.73264307   0.710  -1.82793   3.51886   6.70690   1.60531   0.00000   2.207E-02   0.000E+00   9.779E-01
 300  7.73408223   0.710  -1.82898   3.51886   6.70739   1.60687   0.00000   2.235E-02   0.000E+00   9.776E-01
 301  7.73551664   0.710  -1.83003   3.51886   6.70789   1.60843   0.00000   2.263E-02   0.000E+00   9.774E-01
 302  7.73694632   0.710  -1.83109   3.51886   6.70838   1.60999   0.00000   2.292E-02   0.000E+00   9.771E-01
 303  7.73837132   0.710  -1.83214   3.51886   6.70888   1.61155   0.00000   2.320E-02   0.000E+00   9.768E-01
 304  7.73979165   0.710  -1.83319   3.51886   6.70937   1.61311   0.00000   2.348E-02   0.000E+00   9.765E-01
 305  7.74120735   0.710  -1.83424   3.51886   6.70987   1.61467   0.00000   2.376E-02   0.000E+00   9.762E-01
 306  7.74261846   0.710  -1.83528   3.51886   6.71036   1.61621   0.00000   2.405E-02   0.000E+00   9.759E-01
 307  7.74402499   0.710  -1.83626   3.51886   6.71081   1.61766   0.00000   2.437E-02   0.000E+00   9.756E-01
 308  7.74542698   0.710  -1.83724   3.51886   6.71127   1.61911   0.00000   2.468E-02   0.000E+00   9.753E-01
 309  7.74682446   0.710  -1.83822   3.51886   6.71173   1.62057   0.00000   2.500E-02   0.000E+00   9.750E-01
 310  7.74821746   0.710  -1.83920   3.51886   6.71219   1.62202   0.00000   2.531E-02   0.000E+00   9.747E-01
 311  7.74960601   0.710  -1.84018   3.51886   6.71265   1.62347   0.00000   2.563E-02   0.000E+00   9.744E-01
 312  7.75099013   0.710  -1.84115   3.51886   6.71311   1.62493   0.00000   2.594E-02   0.000E+00   9.741E-01
 313  7.75236985   0.710  -1.84213   3.51886   6.71357   1.62638   0.00000   2.626E-02   0.000E+00   9.737E-01
 314  7.75374520   0.710  -1.84311   3.51886   6.71403   1.62783   0.00000   2.658E-02   0.000E+00   9.734E-01
 315  7.75511622   0.710  -1.84409   3.51886   6.71449   1.62929   0.00000   2.689E-02   0.000E+00   9.731E-01
 316  7.75648291   0.710  -1.84507   3.51885   6.71495   1.63074   0.00000   2.721E-02   0.000E+00   9.728E-01
 317  7.75784532   0.710  -1.84605   3.51885   6.71541   1.63219   0.00000   2.752E-02   0.000E+00   9.725E-01
 318  7.75920347   0.710  -1.84703   3.51885   6.71587   1.63365   0.00000   2.784E-02   0.000E+00   9.722E-01
 319  7.76055739   0.710  -1.84801   3.51885   6.71633   1.63510   0.00000   2.815E-02   0.000E+00   9.718E-01
 320  7.76190709   0.710  -1.84899   3.51885   6.71679   1.63655   0.00000   2.847E-02   0.000E+00   9.715E-01
 321  7.76325262   0.710  -1.84997   3.51885   6.71725   1.63801   0.00000   2.878E-02   0.000E+00   9.712E-01
 322  7.76459399   0.710  -1.85094   3.51885   6.71771   1.63946   0.00000   2.910E-02   0.000E+00   9.709E-01
 323  7.76593123   0.710  -1.85192   3.51885   6.71817   1.64091   0.00000   2.941E-02   0.000E+00   9.706E-01
 324  7.76726436   0.710  -1.85290   3.51885   6.71863   1.64237   0.00000   2.973E-02   0.000E+00   9.703E-01
 325  7.76859342   0.710  -1.85387   3.51885   6.71908   1.64381   0.00000   3.005E-02   0.000E+00   9.700E-01
 326  7.76991842   0.710  -1.85478   3.51885   6.71951   1.64516   0.00000   3.039E-02   0.000E+00   9.696E-01
 327  7.77123939   0.710  -1.85569   3.51885   6.71994   1.64651   0.00000   3.074E-02   0.000E+00   9.693E-01
 328  7.77255635   0.710  -1.85660   3.51885   6.72036   1.64787   0.00000   3.108E-02   0.000E+00   9.689E-01
 329  7.77386934   0.710  -1.85751   3.51885   6.72079   1.64922   0.00000   3.142E-02   0.000E+00   9.686E-01
 330  7.77517836   0.710  -1.85842   3.51885   6.72122   1.65057   0.00000   3.176E-02   0.000E+00   9.682E-01
 331  7.77648345   0.710  -1.85933   3.51885   6.72164   1.65193   0.00000   3.211E-02   0.000E+00   9.679E-01
 332  7.77778463   0.710  -1.86024   3.51885   6.72207   1.65328   0.00000   3.245E-02   0.000E+00   9.676E-01
 333  7.77908193   0.710  -1.86115   3.51885   6.72250   1.65463   0.00000   3.279E-02   0.000E+00   9.672E-01
 334  7.78037536   0.710  -1.86206   3.51885   6.72292   1.65599   0.00000   3.313E-02   0.000E+00   9.669E-01
 335  7.78166495   0.710  -1.86297   3.51885   6.72335   1.65734   0.00000   3.348E-02   0.000E+00   9.665E-01
 336  7.78295072   0.710  -1.86388   3.51886   6.72378   1.65869   0.00000   3.382E-02   0.000E+00   9.662E-01
 337  7.78423270   0.710  -1.86479   3.51886   6.72420   1.66004   0.00000   3.416E-02   0.000E+00   9.658E-01
 338  7.78551090   0.710  -1.86570   3.51886   6.72463   1.66140   0.00000   3.450E-02   0.000E+00   9.655E-01
 339  7.78678535   0.710  -1.86661   3.51886   6.72506   1.66275   0.00000   3.485E-02   0.000E+00   9.652E-01
 340  7.78805608   0.710  -1.86752   3.51886   6.72549   1.66410   0.00000   3.519E-02   0.000E+00   9.648E-01
 341  7.78932309   0.710  -1.86843   3.51886   6.72591   1.66546   0.00000   3.553E-02   0.000E+00   9.645E-01
 342  7.79058642   0.710  -1.86934   3.51886   6.72634   1.66681   0.00000   3.588E-02   0.000E+00   9.641E-01
 343  7.79184609   0.710  -1.87025   3.51886   6.72677   1.66816   0.00000   3.622E-02   0.000E+00   9.638E-01
 344  7.79310211   0.710  -1.87116   3.51886   6.72719   1.66952   0.00000   3.656E-02   0.000E+00   9.634E-01
 345  7.79435452   0.710  -1.87207   3.51886   6.72762   1.67087   0.00000   3.690E-02   0.000E+00   9.631E-01
 346  7.79560332   0.710  -1.87293   3.51886   6.72802   1.67216   0.00000   3.733E-02   0.000E+00   9.627E-01
 347  7.79684853   0.710  -1.87377   3.51886   6.72842   1.67341   0.00000   3.778E-02   0.000E+00   9.622E-01
 348  7.79809019   0.710  -1.87461   3.51886   6.72882   1.67467   0.00000   3.824E-02   0.000E+00   9.618E-01
 349  7.79932831   0.710  -1.87546   3.51886   6.72921   1.67593   0.00000   3.869E-02   0.000E+00   9.613E-01
 350  7.80056291   0.710  -1.87630   3.51886   6.72961   1.67719   0.00000   3.915E-02   0.000E+00   9.609E-01
 351  7.80179401   0.710  -1.87714   3.51886   6.73000   1.67845   0.00000   3.960E-02   0.000E+00   9.604E-01
 352  7.80302163   0.710  -1.87798   3.51886   6.73040   1.67971   0.00000   4.006E-02   0.000E+00   9.599E-01
 353  7.80424579   0.710  -1.87883   3.51886   6.73079   1.68097   0.00000   4.051E-02   0.000E+00   9.595E-01
 354  7.80546651   0.710  -1.87967   3.51886   6.73119   1.68222   0.00000   4.096E-02   0.000E+00   9.590E-01
 355  7.80668381   0.710  -1.88051   3.51886   6.73158   1.68348   0.00000   4.142E-02   0.000E+00   9.586E-01
 356  7.80789770   0.710  -1.88136   3.51886   6.73198   1.68474   0.00000   4.187E-02   0.000E+00   9.581E-01
 357  7.80910822   0.710  -1.88220   3.51887   6.73238   1.68600   0.00000   4.233E-02   0.000E+00   9.577E-01
 358  7.81031536   0.710  -1.88304   3.51887   6.73277   1.68726   0.00000   4.278E-02   0.000E+00   9.572E-01
 359  7.81151916   0.710  -1.88389   3.51887   6.73317   1.68852   0.00000   4.324E-02   0.000E+00   9.568E-01
 360  7.81271964   0.710  -1.88473   3.51887   6.73356   1.68978   0.00000   4.369E-02   0.000E+00   9.563E-01
 361  7.81391680   0.710  -1.88557   3.51887   6.73396   1.69103   0.00000   4.415E-02   0.000E+00   9.559E-01
 362  7.81511067   0.710  -1.88641   3.51887   6.73435   1.69229   0.00000   4.460E-02   0.000E+00   9.554E-01
 363  7.81630127   0.710  -1.88726   3.51887   6.73475   1.69355   0.00000   4.506E-02   0.000E+00   9.549E-01
 364  7.81748862   0.710  -1.88810   3.51887   6.73514   1.69481   0.00000   4.551E-02   0.000E+00   9.545E-01
 365  7.81867273   0.710  -1.88894   3.51887   6.73554   1.69607   0.00000   4.597E-02   0.000E+00   9.540E-01
 366  7.81985361   0.710  -1.88979   3.51887   6.73594   1.69733   0.00000   4.642E-02   0.000E+00   9.536E-01
 367  7.82103130   0.710  -1.89063   3.51887   6.73633   1.69858   0.00000   4.688E-02   0.000E+00   9.531E-01
 368  7.82220580   0.710  -1.89143   3.51887   6.73671   1.69978   0.00000   4.737E-02   0.000E+00   9.526E-01
 369  7.82337713   0.710  -1.89220   3.51887   6.73707   1.70094   0.00000   4.787E-02   0.000E+00   9.521E-01
 370  7.82454532   0.710  -1.89298   3.51887   6.73744   1.70211   0.00000   4.838E-02   0.000E+00   9.516E-01
 371  7.82571036   0.710  -1.89376   3.51887   6.73780   1.70327   0.00000   4.888E-02   0.000E+00   9.511E-01
 372  7.82687230   0.710  -1.89454   3.51887   6.73817   1.70444   0.00000   4.939E-02   0.000E+00   9.506E-01
 373  7.82803113   0.710  -1.89532   3.51887   6.73854   1.70560   0.00000   4.990E-02   0.000E+00   9.501E-01
 374  7.82918687   0.710  -1.89610   3.51888   6.73890   1.70677   0.00000   5.040E-02   0.000E+00   9.496E-01
 375  7.83033955   0.710  -1.89688   3.51888   6.73927   1.70793   0.00000   5.091E-02   0.000E+00   9.491E-01
 376  7.83148918   0.710  -1.89766   3.51888   6.73964   1.70910   0.00000   5.141E-02   0.000E+00   9.486E-01
 377  7.83263578   0.710  -1.89844   3.51888   6.74000   1.71026   0.00000   5.192E-02   0.000E+00   9.481E-01
 378  7.83377935   0.710  -1.89922   3.51888   6.74037   1.71143   0.00000   5.242E-02   0.000E+00   9.476E-01
 379  7.83491992   0.710  -1.90000   3.51888   6.74073   1.71259   0.00000   5.293E-02   0.000E+00   9.471E-01
 380  7.83605750   0.710  -1.90078   3.51888   6.74110   1.71376   0.00000   5.344E-02   0.000E+00   9.466E-01
 381  7.83719211   0.710  -1.90156   3.51888   6.74147   1.71492   0.00000   5.394E-02   0.000E+00   9.461E-01
 382  7.83832377   0.710  -1.90234   3.51888   6.74183   1.71609   0.00000   5.445E-02   0.000E+00   9.456E-01
 383  7.83945248   0.710  -1.90312   3.51888   6.74220   1.71725   0.00000   5.495E-02   0.000E+00   9.450E-01
 384  7.84057827   0.710  -1.90389   3.51888   6.74257   1.71842   0.00000   5.546E-02   0.000E+00   9.445E-01
 385  7.84170115   0.710  -1.90467   3.51888   6.74293   1.71958   0.00000   5.597E-02   0.000E+00   9.440E-01
 386  7.84282113   0.710  -1.90545   3.51889   6.74330   1.72075   0.00000   5.647E-02   0.000E+00   9.435E-01
 387  7.84393823   0.710  -1.90623   3.51889   6.74366   1.72191   0.00000   5.698E-02   0.000E+00   9.430E-01
 388  7.84505246   0.710  -1.90701   3.51889   6.74403   1.72308   0.00000   5.748E-02   0.000E+00   9.425E-01
 389  7.84616385   0.710  -1.90779   3.51889   6.74440   1.72424   0.00000   5.799E-02   0.000E+00   9.420E-01
 390  7.84727239   0.710  -1.90857   3.51889   6.74476   1.72541   0.00000   5.849E-02   0.000E+00   9.415E-01
 391  7.84837812   0.710  -1.90935   3.51889   6.74513   1.72657   0.00000   5.900E-02   0.000E+00   9.410E-01
 392  7.92934967   0.710  -1.96244   3.51899   6.77002   1.80606   0.00000   1.135E-01   0.000E+00   8.865E-01
 393  7.99757075   0.710  -2.00377   3.51910   6.78930   1.86806   0.00000   1.877E-01   0.000E+00   8.123E-01
 394  8.05651597   0.710  -2.03628   3.51920   6.80436   1.91682   0.00000   2.758E-01   0.000E+00   7.242E-01
 395  8.10840848   0.710  -2.06111   3.51929   6.81588   1.95423   0.00000   3.730E-01   0.000E+00   6.270E-01
 396  8.15475705   0.710  -2.08054   3.51936   6.82488   1.98359   0.00000   4.697E-01   0.000E+00   5.303E-01
 397  8.19663275   0.710  -2.09529   3.51942   6.83166   2.00587   0.00000   5.594E-01   0.000E+00   4.406E-01
 398  8.23482342   0.710  -2.10643   3.51946   6.83677   2.02271   0.00000   6.374E-01   0.000E+00   3.626E-01
 399  8.26992547   0.710  -2.11549   3.51949   6.84095   2.03644   0.00000   7.069E-01   0.000E+00   2.931E-01
 400  8.30240133   0.710  -2.12121   3.51951   6.84357   2.04511   0.00000   7.573E-01   0.000E+00   2.427E-01
 401  8.33261675   0.710  -2.12693   3.51953   6.84619   2.05378   0.00000   8.077E-01   0.000E+00   1.923E-01
 402  8.36086602   0.710  -2.12986   3.51954   6.84754   2.05820   0.00000   8.368E-01   0.000E+00   1.631E-01
 403  8.38738947   0.710  -2.13272   3.51955   6.84886   2.06249   0.00000   8.654E-01   0.000E+00   1.344E-01
 404  8.41238588   0.710  -2.13558   3.51957   6.85017   2.06679   0.00000   8.940E-01   0.000E+00   1.058E-01
 405  8.43602155   0.710  -2.13707   3.51957   6.85086   2.06904   0.00000   9.097E-01   0.000E+00   8.999E-02
 406  8.45843701   0.710  -2.13819   3.51958   6.85138   2.07074   0.00000   9.221E-01   0.000E+00   7.768E-02
 407  8.47975210   0.710  -2.13932   3.51958   6.85190   2.07243   0.00000   9.344E-01   0.000E+00   6.538E-02
 408  8.50006980   0.710  -2.14045   3.51959   6.85242   2.07413   0.00000   9.468E-01   0.000E+00   5.307E-02
 409  8.51947931   0.710  -2.14156   3.51959   6.85294   2.07582   0.00000   9.590E-01   0.000E+00   4.086E-02
 410  8.53805835   0.710  -2.14190   3.51959   6.85310   2.07633   0.00000   9.630E-01   0.000E+00   3.691E-02
 411  8.55587508   0.710  -2.14224   3.51959   6.85326   2.07684   0.00000   9.669E-01   0.000E+00   3.296E-02
 412  8.57298960   0.710  -2.14258   3.51959   6.85342   2.07735   0.00000   9.708E-01   0.000E+00   2.901E-02
 413  8.58945518   0.710  -2.14292   3.51960   6.85358   2.07786   0.00000   9.747E-01   0.000E+00   2.506E-02
 414  8.60531922   0.710  -2.14326   3.51960   6.85374   2.07838   0.00000   9.786E-01   0.000E+00   2.111E-02
 415  8.62062414   0.710  -2.14360   3.51960   6.85390   2.07889   0.00000   9.825E-01   0.000E+00   1.716E-02
 416  8.63540801   0.710  -2.14394   3.51960   6.85406   2.07940   0.00000   9.864E-01   0.000E+00   1.321E-02
 417  8.64970515   0.710  -2.14405   3.51960   6.85411   2.07957   0.00000   9.878E-01   0.000E+00   1.181E-02
 418  8.66354658   0.710  -2.14411   3.51960   6.85415   2.07968   0.00000   9.887E-01   0.000E+00   1.088E-02
 419  8.67696046   0.710  -2.14418   3.51960   6.85419   2.07978   0.00000   9.896E-01   0.000E+00   9.951E-03
 420  8.68997241   0.710  -2.14425   3.51960   6.85422   2.07989   0.00000   9.906E-01   0.000E+00   9.020E-03
 421  8.70260583   0.710  -2.14431   3.51960   6.85426   2.07999   0.00000   9.915E-01   0.000E+00   8.089E-03
 422  8.71488211   0.710  -2.14438   3.51961   6.85430   2.08010   0.00000   9.924E-01   0.000E+00   7.157E-03
 423  8.72682089   0.710  -2.14445   3.51961   6.85433   2.08021   0.00000   9.934E-01   0.000E+00   6.226E-03
 424  8.73844024   0.710  -2.14452   3.51961   6.85437   2.08031   0.00000   9.943E-01   0.000E+00   5.295E-03
 425  8.74975680   0.710  -2.14458   3.51961   6.85441   2.08042   0.00000   9.952E-01   0.000E+00   4.364E-03
 426  8.76078595   0.710  -2.14465   3.51961   6.85445   2.08052   0.00000   9.962E-01   0.000E+00   3.433E-03
 427  8.77154194   0.710  -2.14471   3.51961   6.85448   2.08062   0.00000   9.970E-01   0.000E+00   2.572E-03
 428  8.78203796   0.710  -2.14471   3.51961   6.85449   2.08062   0.00000   9.972E-01   0.000E+00   2.386E-03
 429  8.79228628   0.710  -2.14471   3.51961   6.85449   2.08062   0.00000   9.975E-01   0.000E+00   2.201E-03
 430  8.80229834   0.710  -2.14471   3.51961   6.85450   2.08063   0.00000   9.977E-01   0.000E+00   2.015E-03
 431  8.81208478   0.710  -2.14470   3.51961   6.85450   2.08063   0.00000   9.979E-01   0.000E+00   1.829E-03
 432  8.82165553   0.710  -2.14470   3.51961   6.85451   2.08063   0.00000   9.981E-01   0.000E+00   1.643E-03
 433  8.83101991   0.710  -2.14470   3.51961   6.85451   2.08063   0.00000   9.983E-01   0.000E+00   1.457E-03
 434  8.84018663   0.710  -2.14470   3.51962   6.85452   2.08064   0.00000   9.985E-01   0.000E+00   1.271E-03
 435  8.84916386   0.710  -2.14470   3.51962   6.85452   2.08064   0.00000   9.988E-01   0.000E+00   1.085E-03
 436  8.85795927   0.710  -2.14470   3.51962   6.85453   2.08064   0.00000   9.990E-01   0.000E+00   8.993E-04
 437  8.86658009   0.710  -2.14470   3.51962   6.85453   2.08064   0.00000   9.992E-01   0.000E+00   7.134E-04
 438  8.87503311   0.710  -2.14469   3.51962   6.85454   2.08064   0.00000   9.994E-01   0.000E+00   5.276E-04
 439  8.88332473   0.709  -2.14469   3.51962   6.85454   2.08065   0.00000   9.996E-01   0.000E+00   3.417E-04
 440  8.89146101   0.709  -2.14469   3.51962   6.85455   2.08065   0.00000   9.998E-01   0.000E+00   1.558E-04
 441  8.89944767   0.709  -2.14469   3.51962   6.85455   2.08064   0.00000   1.000E+00   0.000E+00   6.608E-06
 442  8.90729009   0.709  -2.14467   3.51962   6.85455   2.08062   0.00000   1.000E+00   0.000E+00  -3.800E-05
 443  8.91499341   0.709  -2.14465   3.51962   6.85455   2.08060   0.00000   1.000E+00   0.000E+00  -8.261E-05
 444  8.92256247   0.709  -2.14463   3.51962   6.85454   2.08058   0.00000   1.000E+00   0.000E+00  -1.272E-04
 445  8.93000186   0.709  -2.14461   3.51962   6.85454   2.08056   0.00000   1.000E+00   0.000E+00  -1.718E-04
 446  8.93731597   0.709  -2.14459   3.51962   6.85454   2.08054   0.00000   1.000E+00   0.000E+00  -2.164E-04
 447  8.94450893   0.709  -2.14458   3.51962   6.85454   2.08051   0.00000   1.000E+00   0.000E+00  -2.611E-04
 448  8.95158470   0.709  -2.14456   3.51963   6.85453   2.08049   0.00000   1.001E+00   0.000E+00  -3.057E-04
 449  8.95854703   0.709  -2.14454   3.51963   6.85453   2.08047   0.00000   1.001E+00   0.000E+00  -3.503E-04
 450  8.96539951   0.709  -2.14452   3.51963   6.85453   2.08045   0.00000   1.001E+00   0.000E+00  -3.949E-04
 451  8.97214554   0.709  -2.14450   3.51963   6.85453   2.08043   0.00000   1.001E+00   0.000E+00  -4.395E-04
 452  8.97878838   0.709  -2.14449   3.51963   6.85453   2.08041   0.00000   1.001E+00   0.000E+00  -4.841E-04
 453  8.98533115   0.709  -2.14447   3.51963   6.85452   2.08038   0.00000   1.001E+00   0.000E+00  -5.287E-04
 454  8.99177680   0.709  -2.14445   3.51963   6.85452   2.08036   0.00000   1.001E+00   0.000E+00  -5.733E-04
 455  8.99812820   0.709  -2.14443   3.51963   6.85452   2.08034   0.00000   1.001E+00   0.000E+00  -6.064E-04
 456  9.00438804   0.709  -2.14440   3.51963   6.85451   2.08030   0.00000   1.001E+00   0.000E+00  -6.237E-04
 457  9.01055893   0.709  -2.14438   3.51963   6.85451   2.08027   0.00000   1.001E+00   0.000E+00  -6.411E-04
 458  9.01664337   0.709  -2.14436   3.51963   6.85450   2.08024   0.00000   1.001E+00   0.000E+00  -6.584E-04
 459  9.02264374   0.709  -2.14433   3.51963   6.85449   2.08021   0.00000   1.001E+00   0.000E+00  -6.758E-04
 460  9.02856234   0.709  -2.14431   3.51963   6.85449   2.08018   0.00000   1.001E+00   0.000E+00  -6.931E-04
 461  9.03440136   0.709  -2.14428   3.51963   6.85448   2.08015   0.00000   1.001E+00   0.000E+00  -7.104E-04
 462  9.04016292   0.709  -2.14426   3.51964   6.85448   2.08011   0.00000   1.001E+00   0.000E+00  -7.278E-04
 463  9.04584904   0.709  -2.14423   3.51964   6.85447   2.08008   0.00000   1.001E+00   0.000E+00  -7.451E-04
 464  9.05146168   0.709  -2.14421   3.51964   6.85447   2.08005   0.00000   1.001E+00   0.000E+00  -7.625E-04
 465  9.05700270   0.709  -2.14418   3.51964   6.85446   2.08002   0.00000   1.001E+00   0.000E+00  -7.798E-04
 466  9.06247392   0.709  -2.14416   3.51964   6.85445   2.07999   0.00000   1.001E+00   0.000E+00  -7.972E-04
 467  9.06787707   0.709  -2.14413   3.51964   6.85445   2.07995   0.00000   1.001E+00   0.000E+00  -8.145E-04
 468  9.07321382   0.709  -2.14411   3.51964   6.85444   2.07992   0.00000   1.001E+00   0.000E+00  -8.319E-04
 469  9.07848579   0.709  -2.14408   3.51964   6.85444   2.07989   0.00000   1.001E+00   0.000E+00  -8.459E-04
 470  9.08369453   0.709  -2.14406   3.51964   6.85443   2.07985   0.00000   1.001E+00   0.000E+00  -8.575E-04
 471  9.08884153   0.709  -2.14403   3.51964   6.85442   2.07981   0.00000   1.001E+00   0.000E+00  -8.691E-04
 472  9.09392825   0.709  -2.14400   3.51964   6.85441   2.07977   0.00000   1.001E+00   0.000E+00  -8.808E-04
 473  9.09895608   0.709  -2.14397   3.51964   6.85441   2.07973   0.00000   1.001E+00   0.000E+00  -8.924E-04
 474  9.10392637   0.709  -2.14394   3.51964   6.85440   2.07970   0.00000   1.001E+00   0.000E+00  -9.040E-04
 475  9.10884042   0.709  -2.14391   3.51964   6.85439   2.07966   0.00000   1.001E+00   0.000E+00  -9.157E-04
 476  9.11369949   0.709  -2.14389   3.51965   6.85439   2.07962   0.00000   1.001E+00   0.000E+00  -9.273E-04
 477  9.11850479   0.709  -2.14386   3.51965   6.85438   2.07958   0.00000   1.001E+00   0.000E+00  -9.390E-04
 478  9.12325751   0.709  -2.14383   3.51965   6.85437   2.07954   0.00000   1.001E+00   0.000E+00  -9.506E-04
 479  9.12795878   0.709  -2.14380   3.51965   6.85436   2.07950   0.00000   1.001E+00   0.000E+00  -9.622E-04
 480  9.13260970   0.709  -2.14377   3.51965   6.85436   2.07947   0.00000   1.001E+00   0.000E+00  -9.739E-04
 481  9.13721134   0.709  -2.14375   3.51965   6.85435   2.07943   0.00000   1.001E+00   0.000E+00  -9.855E-04
 482  9.14176473   0.709  -2.14372   3.51965   6.85434   2.07939   0.00000   1.001E+00   0.000E+00  -9.971E-04
 483  9.14627088   0.709  -2.14368   3.51965   6.85433   2.07934   0.00000   1.001E+00   0.000E+00  -1.009E-03
 484  9.15073075   0.709  -2.14365   3.51965   6.85432   2.07930   0.00000   1.001E+00   0.000E+00  -1.020E-03
 485  9.15514529   0.709  -2.14362   3.51965   6.85431   2.07925   0.00000   1.001E+00   0.000E+00  -1.032E-03
 486  9.15951541   0.709  -2.14359   3.51965   6.85430   2.07920   0.00000   1.001E+00   0.000E+00  -1.043E-03
 487  9.16384199   0.709  -2.14355   3.51965   6.85429   2.07915   0.00000   1.001E+00   0.000E+00  -1.055E-03
 488  9.16812589   0.709  -2.14352   3.51965   6.85428   2.07911   0.00000   1.001E+00   0.000E+00  -1.067E-03
 489  9.17236795   0.709  -2.14349   3.51965   6.85427   2.07906   0.00000   1.001E+00   0.000E+00  -1.078E-03
 490  9.17656897   0.709  -2.14345   3.51966   6.85426   2.07901   0.00000   1.001E+00   0.000E+00  -1.090E-03
 491  9.18072974   0.709  -2.14342   3.51966   6.85425   2.07896   0.00000   1.001E+00   0.000E+00  -1.101E-03
 492  9.18485103   0.709  -2.14339   3.51966   6.85423   2.07891   0.00000   1.001E+00   0.000E+00  -1.113E-03
 493  9.18893358   0.709  -2.14335   3.51966   6.85422   2.07887   0.00000   1.001E+00   0.000E+00  -1.124E-03
 494  9.19297811   0.709  -2.14332   3.51966   6.85421   2.07882   0.00000   1.001E+00   0.000E+00  -1.136E-03
 495  9.19698532   0.709  -2.14329   3.51966   6.85420   2.07877   0.00000   1.001E+00   0.000E+00  -1.147E-03
 496  9.20095589   0.709  -2.14325   3.51966   6.85419   2.07872   0.00000   1.001E+00   0.000E+00  -1.159E-03
 497  9.20489049   0.709  -2.14322   3.51966   6.85418   2.07867   0.00000   1.001E+00   0.000E+00  -1.167E-03
 498  9.20878976   0.709  -2.14318   3.51966   6.85417   2.07863   0.00000   1.001E+00   0.000E+00  -1.175E-03
 499  9.21265434   0.709  -2.14315   3.51966   6.85416   2.07858   0.00000   1.001E+00   0.000E+00  -1.183E-03
 500  9.21648483   0.709  -2.14311   3.51966   6.85415   2.07853   0.00000   1.001E+00   0.000E+00  -1.191E-03
 501  9.22028183   0.709  -2.14308   3.51966   6.85414   2.07848   0.00000   1.001E+00   0.000E+00  -1.199E-03
 502  9.22404592   0.709  -2.14304   3.51966   6.85413   2.07843   0.00000   1.001E+00   0.000E+00  -1.207E-03
 503  9.22777766   0.709  -2.14300   3.51967   6.85412   2.07838   0.00000   1.001E+00   0.000E+00  -1.215E-03
 504  9.23147762   0.709  -2.14297   3.51967   6.85411   2.07833   0.00000   1.001E+00   0.000E+00  -1.223E-03
 505  9.23514631   0.709  -2.14293   3.51967   6.85410   2.07828   0.00000   1.001E+00   0.000E+00  -1.231E-03
 506  9.23878428   0.709  -2.14290   3.51967   6.85409   2.07823   0.00000   1.001E+00   0.000E+00  -1.239E-03
 507  9.24239203   0.709  -2.14286   3.51967   6.85408   2.07818   0.00000   1.001E+00   0.000E+00  -1.247E-03
 508  9.24597005   0.709  -2.14283   3.51967   6.85407   2.07813   0.00000   1.001E+00   0.000E+00  -1.255E-03
 509  9.24951883   0.709  -2.14279   3.51967   6.85406   2.07809   0.00000   1.001E+00   0.000E+00  -1.263E-03
 510  9.25303885   0.709  -2.14276   3.51967   6.85405   2.07804   0.00000   1.001E+00   0.000E+00  -1.271E-03
 511  9.25653057   0.709  -2.14272   3.51967   6.85404   2.07798   0.00000   1.001E+00   0.000E+00  -1.278E-03
 512  9.25999444   0.709  -2.14268   3.51967   6.85402   2.07793   0.00000   1.001E+00   0.000E+00  -1.285E-03
 513  9.26343090   0.709  -2.14264   3.51967   6.85401   2.07788   0.00000   1.001E+00   0.000E+00  -1.292E-03
 514  9.26684038   0.709  -2.14260   3.51967   6.85400   2.07782   0.00000   1.001E+00   0.000E+00  -1.300E-03
 515  9.27022331   0.709  -2.14256   3.51967   6.85399   2.07777   0.00000   1.001E+00   0.000E+00  -1.307E-03
 516  9.27358009   0.709  -2.14252   3.51967   6.85398   2.07771   0.00000   1.001E+00   0.000E+00  -1.314E-03
 517  9.27691112   0.709  -2.14248   3.51968   6.85396   2.07766   0.00000   1.001E+00   0.000E+00  -1.321E-03
 518  9.28021679   0.709  -2.14244   3.51968   6.85395   2.07761   0.00000   1.001E+00   0.000E+00  -1.328E-03
 519  9.28349749   0.709  -2.14241   3.51968   6.85394   2.07755   0.00000   1.001E+00   0.000E+00  -1.336E-03
 520  9.28675360   0.709  -2.14237   3.51968   6.85393   2.07750   0.00000   1.001E+00   0.000E+00  -1.343E-03
 521  9.28998548   0.709  -2.14233   3.51968   6.85391   2.07745   0.00000   1.001E+00   0.000E+00  -1.350E-03
 522  9.29319348   0.709  -2.14229   3.51968   6.85390   2.07739   0.00000   1.001E+00   0.000E+00  -1.357E-03
 523  9.29637796   0.708  -2.14225   3.51968   6.85389   2.07734   0.00000   1.001E+00   0.000E+00  -1.365E-03
 524  9.29953926   0.708  -2.14221   3.51968   6.85388   2.07729   0.00000   1.001E+00   0.000E+00  -1.372E-03
 525  9.30267771   0.708  -2.14217   3.51968   6.85386   2.07723   0.00000   1.001E+00   0.000E+00  -1.379E-03
 526  9.30579365   0.708  -2.14213   3.51968   6.85385   2.07717   0.00000   1.001E+00   0.000E+00  -1.386E-03
 527  9.30888739   0.708  -2.14209   3.51968   6.85384   2.07711   0.00000   1.001E+00   0.000E+00  -1.393E-03
 528  9.31195925   0.708  -2.14204   3.51968   6.85382   2.07705   0.00000   1.001E+00   0.000E+00  -1.401E-03
 529  9.31500953   0.708  -2.14200   3.51968   6.85381   2.07700   0.00000   1.001E+00   0.000E+00  -1.408E-03
 530  9.31803854   0.708  -2.14196   3.51968   6.85380   2.07694   0.00000   1.001E+00   0.000E+00  -1.415E-03
 531  9.32104656   0.708  -2.14192   3.51969   6.85379   2.07688   0.00000   1.001E+00   0.000E+00  -1.422E-03
 532  9.32403390   0.708  -2.14188   3.51969   6.85377   2.07682   0.00000   1.001E+00   0.000E+00  -1.430E-03
 533  9.32700083   0.708  -2.14184   3.51969   6.85376   2.07677   0.00000   1.001E+00   0.000E+00  -1.437E-03
 534  9.32994763   0.708  -2.14180   3.51969   6.85375   2.07671   0.00000   1.001E+00   0.000E+00  -1.444E-03
 535  9.33287456   0.708  -2.14176   3.51969   6.85373   2.07665   0.00000   1.001E+00   0.000E+00  -1.451E-03
 536  9.33578190   0.708  -2.14172   3.51969   6.85372   2.07659   0.00000   1.001E+00   0.000E+00  -1.459E-03
 537  9.33866991   0.708  -2.14167   3.51969   6.85371   2.07653   0.00000   1.001E+00   0.000E+00  -1.466E-03
 538  9.34153884   0.708  -2.14163   3.51969   6.85369   2.07647   0.00000   1.001E+00   0.000E+00  -1.473E-03
 539  9.34438895   0.708  -2.14159   3.51969   6.85368   2.07641   0.00000   1.001E+00   0.000E+00  -1.479E-03
 540  9.34722047   0.708  -2.14154   3.51969   6.85367   2.07635   0.00000   1.001E+00   0.000E+00  -1.486E-03
 541  9.35003365   0.708  -2.14150   3.51969   6.85365   2.07629   0.00000   1.001E+00   0.000E+00  -1.492E-03
 542  9.35282872   0.708  -2.14146   3.51969   6.85364   2.07623   0.00000   1.001E+00   0.000E+00  -1.499E-03
 543  9.35560592   0.708  -2.14141   3.51969   6.85362   2.07617   0.00000   1.001E+00   0.000E+00  -1.505E-03
 544  9.35836547   0.708  -2.14137   3.51969   6.85361   2.07611   0.00000   1.001E+00   0.000E+00  -1.512E-03
 545  9.36110760   0.708  -2.14132   3.51969   6.85359   2.07604   0.00000   1.002E+00   0.000E+00  -1.518E-03
 546  9.36383253   0.708  -2.14128   3.51969   6.85358   2.07598   0.00000   1.002E+00   0.000E+00  -1.525E-03
 547  9.36654046   0.708  -2.14123   3.51969   6.85356   2.07592   0.00000   1.002E+00   0.000E+00  -1.531E-03
 548  9.36923161   0.708  -2.14119   3.51969   6.85355   2.07586   0.00000   1.002E+00   0.000E+00  -1.538E-03
 549  9.37190619   0.708  -2.14115   3.51969   6.85354   2.07580   0.00000   1.002E+00   0.000E+00  -1.544E-03
 550  9.37456440   0.708  -2.14110   3.51969   6.85352   2.07574   0.00000   1.002E+00   0.000E+00  -1.551E-03
 551  9.37720644   0.708  -2.14106   3.51969   6.85351   2.07568   0.00000   1.002E+00   0.000E+00  -1.557E-03
 552  9.37983251   0.708  -2.14101   3.51969   6.85349   2.07561   0.00000   1.002E+00   0.000E+00  -1.563E-03
 553  9.38244278   0.708  -2.14097   3.51969   6.85348   2.07555   0.00000   1.002E+00   0.000E+00  -1.569E-03
 554  9.38503747   0.708  -2.14092   3.51969   6.85346   2.07548   0.00000   1.002E+00   0.000E+00  -1.575E-03
 555  9.38761674   0.708  -2.14088   3.51969   6.85345   2.07542   0.00000   1.002E+00   0.000E+00  -1.581E-03
 556  9.39018079   0.708  -2.14083   3.51969   6.85343   2.07536   0.00000   1.002E+00   0.000E+00  -1.586E-03
 557  9.39272979   0.708  -2.14079   3.51969   6.85342   2.07529   0.00000   1.002E+00   0.000E+00  -1.592E-03
 558  9.39526391   0.708  -2.14074   3.51969   6.85340   2.07523   0.00000   1.002E+00   0.000E+00  -1.598E-03
 559  9.39778333   0.708  -2.14069   3.51970   6.85338   2.07516   0.00000   1.002E+00   0.000E+00  -1.604E-03
 560  9.40028822   0.708  -2.14065   3.51970   6.85337   2.07510   0.00000   1.002E+00   0.000E+00  -1.610E-03
 561  9.40277875   0.708  -2.14060   3.51970   6.85335   2.07503   0.00000   1.002E+00   0.000E+00  -1.615E-03
 562  9.40525507   0.708  -2.14056   3.51970   6.85334   2.07497   0.00000   1.002E+00   0.000E+00  -1.621E-03
 563  9.40771736   0.708  -2.14051   3.51970   6.85332   2.07491   0.00000   1.002E+00   0.000E+00  -1.627E-03
 564  9.41016576   0.708  -2.14047   3.51970   6.85331   2.07484   0.00000   1.002E+00   0.000E+00  -1.633E-03
 565  9.41260044   0.708  -2.14042   3.51970   6.85329   2.07478   0.00000   1.002E+00   0.000E+00  -1.639E-03
 566  9.41502155   0.708  -2.14037   3.51970   6.85328   2.07471   0.00000   1.002E+00   0.000E+00  -1.643E-03
 567  9.41742923   0.708  -2.14033   3.51970   6.85326   2.07464   0.00000   1.002E+00   0.000E+00  -1.648E-03
 568  9.41982364   0.708  -2.14028   3.51970   6.85324   2.07458   0.00000   1.002E+00   0.000E+00  -1.652E-03
 569  9.42220492   0.708  -2.14023   3.51970   6.85323   2.07451   0.00000   1.002E+00   0.000E+00  -1.656E-03
 570  9.42457321   0.708  -2.14018   3.51970   6.85321   2.07444   0.00000   1.002E+00   0.000E+00  -1.661E-03
 571  9.42692866   0.708  -2.14014   3.51970   6.85319   2.07437   0.00000   1.002E+00   0.000E+00  -1.665E-03
 572  9.42927140   0.708  -2.14009   3.51970   6.85318   2.07431   0.00000   1.002E+00   0.000E+00  -1.669E-03
 573  9.43160158   0.708  -2.14004   3.51971   6.85316   2.07424   0.00000   1.002E+00   0.000E+00  -1.674E-03
 574  9.43391931   0.708  -2.13999   3.51971   6.85314   2.07417   0.00000   1.002E+00   0.000E+00  -1.678E-03
 575  9.43622475   0.708  -2.13995   3.51971   6.85313   2.07411   0.00000   1.002E+00   0.000E+00  -1.682E-03
 576  9.43851801   0.708  -2.13990   3.51971   6.85311   2.07404   0.00000   1.002E+00   0.000E+00  -1.687E-03
 577  9.44079922   0.708  -2.13985   3.51971   6.85309   2.07397   0.00000   1.002E+00   0.000E+00  -1.691E-03
 578  9.44306852   0.708  -2.13980   3.51971   6.85308   2.07390   0.00000   1.002E+00   0.000E+00  -1.695E-03
 579  9.44532602   0.708  -2.13975   3.51971   6.85306   2.07384   0.00000   1.002E+00   0.000E+00  -1.700E-03
 580  9.44757184   0.708  -2.13971   3.51971   6.85304   2.07377   0.00000   1.002E+00   0.000E+00  -1.703E-03
 581  9.44980611   0.708  -2.13966   3.51971   6.85303   2.07370   0.00000   1.002E+00   0.000E+00  -1.707E-03
 582  9.45202895   0.708  -2.13961   3.51971   6.85301   2.07363   0.00000   1.002E+00   0.000E+00  -1.711E-03
 583  9.45424046   0.708  -2.13956   3.51971   6.85300   2.07356   0.00000   1.002E+00   0.000E+00  -1.714E-03
 584  9.45644077   0.708  -2.13951   3.51971   6.85298   2.07349   0.00000   1.002E+00   0.000E+00  -1.718E-03
 585  9.45862999   0.708  -2.13946   3.51971   6.85296   2.07342   0.00000   1.002E+00   0.000E+00  -1.721E-03
 586  9.46080823   0.708  -2.13941   3.51971   6.85295   2.07335   0.00000   1.002E+00   0.000E+00  -1.725E-03
 587  9.46297560   0.708  -2.13936   3.51972   6.85293   2.07328   0.00000   1.002E+00   0.000E+00  -1.729E-03
 588  9.46513221   0.708  -2.13931   3.51972   6.85291   2.07321   0.00000   1.002E+00   0.000E+00  -1.732E-03
 589  9.46727816   0.708  -2.13926   3.51972   6.85290   2.07314   0.00000   1.002E+00   0.000E+00  -1.736E-03
 590  9.46941356   0.708  -2.13921   3.51972   6.85288   2.07307   0.00000   1.002E+00   0.000E+00  -1.739E-03
 591  9.47153851   0.708  -2.13916   3.51972   6.85286   2.07300   0.00000   1.002E+00   0.000E+00  -1.743E-03
 592  9.47365311   0.708  -2.13912   3.51972   6.85285   2.07293   0.00000   1.002E+00   0.000E+00  -1.747E-03
 593  9.47575747   0.708  -2.13907   3.51972   6.85283   2.07286   0.00000   1.002E+00   0.000E+00  -1.750E-03
 594  9.47785168   0.708  -2.13902   3.51972   6.85281   2.07279   0.00000   1.002E+00   0.000E+00  -1.754E-03
 595  9.47993584   0.708  -2.13897   3.51972   6.85279   2.07272   0.00000   1.002E+00   0.000E+00  -1.757E-03
 596  9.48201004   0.708  -2.13891   3.51972   6.85277   2.07265   0.00000   1.002E+00   0.000E+00  -1.761E-03
 597  9.48407439   0.708  -2.13886   3.51972   6.85275   2.07258   0.00000   1.002E+00   0.000E+00  -1.765E-03
 598  9.48612897   0.708  -2.13881   3.51972   6.85273   2.07250   0.00000   1.002E+00   0.000E+00  -1.768E-03
 599  9.48817388   0.708  -2.13876   3.51972   6.85272   2.07243   0.00000   1.002E+00   0.000E+00  -1.772E-03
 600  9.49020920   0.708  -2.13871   3.51973   6.85270   2.07236   0.00000   1.002E+00   0.000E+00  -1.776E-03
 601  9.49223503   0.708  -2.13866   3.51973   6.85268   2.07229   0.00000   1.002E+00   0.000E+00  -1.779E-03
 602  9.49425145   0.708  -2.13861   3.51973   6.85266   2.07221   0.00000   1.002E+00   0.000E+00  -1.783E-03
 603  9.49625855   0.708  -2.13856   3.51973   6.85264   2.07214   0.00000   1.002E+00   0.000E+00  -1.786E-03
 604  9.49825643   0.708  -2.13851   3.51973   6.85262   2.07207   0.00000   1.002E+00   0.000E+00  -1.790E-03
 605  9.50024515   0.708  -2.13846   3.51973   6.85260   2.07200   0.00000   1.002E+00   0.000E+00  -1.794E-03
 606  9.50222480   0.708  -2.13841   3.51973   6.85258   2.07193   0.00000   1.002E+00   0.000E+00  -1.797E-03
 607  9.50419548   0.708  -2.13836   3.51973   6.85257   2.07185   0.00000   1.002E+00   0.000E+00  -1.801E-03
 608  9.50615725   0.708  -2.13831   3.51973   6.85255   2.07178   0.00000   1.002E+00   0.000E+00  -1.803E-03
 609  9.50811020   0.707  -2.13826   3.51973   6.85253   2.07171   0.00000   1.002E+00   0.000E+00  -1.805E-03
 610  9.51005441   0.707  -2.13820   3.51973   6.85251   2.07163   0.00000   1.002E+00   0.000E+00  -1.807E-03
 611  9.51198995   0.707  -2.13815   3.51973   6.85249   2.07156   0.00000   1.002E+00   0.000E+00  -1.809E-03
 612  9.51391690   0.707  -2.13810   3.51973   6.85248   2.07149   0.00000   1.002E+00   0.000E+00  -1.811E-03
 613  9.51583535   0.707  -2.13805   3.51973   6.85246   2.07141   0.00000   1.002E+00   0.000E+00  -1.814E-03
 614  9.51774535   0.707  -2.13800   3.51973   6.85244   2.07134   0.00000   1.002E+00   0.000E+00  -1.816E-03
 615  9.51964699   0.707  -2.13795   3.51973   6.85242   2.07127   0.00000   1.002E+00   0.000E+00  -1.818E-03
 616  9.52154034   0.707  -2.13790   3.51973   6.85240   2.07120   0.00000   1.002E+00   0.000E+00  -1.820E-03
 617  9.52342548   0.707  -2.13784   3.51973   6.85239   2.07112   0.00000   1.002E+00   0.000E+00  -1.822E-03
 618  9.52530246   0.707  -2.13779   3.51973   6.85237   2.07105   0.00000   1.002E+00   0.000E+00  -1.824E-03
 619  9.52717137   0.707  -2.13774   3.51973   6.85235   2.07098   0.00000   1.002E+00   0.000E+00  -1.827E-03
 620  9.52903227   0.707  -2.13769   3.51973   6.85233   2.07090   0.00000   1.002E+00   0.000E+00  -1.829E-03
 621  9.53088523   0.707  -2.13764   3.51973   6.85231   2.07083   0.00000   1.002E+00   0.000E+00  -1.831E-03
 622  9.53273032   0.707  -2.13759   3.51973   6.85229   2.07076   0.00000   1.002E+00   0.000E+00  -1.832E-03
 623  9.53456760   0.707  -2.13754   3.51973   6.85228   2.07068   0.00000   1.002E+00   0.000E+00  -1.833E-03
 624  9.53639714   0.707  -2.13748   3.51973   6.85226   2.07061   0.00000   1.002E+00   0.000E+00  -1.835E-03
 625  9.53821901   0.707  -2.13743   3.51973   6.85224   2.07054   0.00000   1.002E+00   0.000E+00  -1.836E-03
 626  9.54003327   0.707  -2.13738   3.51973   6.85222   2.07046   0.00000   1.002E+00   0.000E+00  -1.838E-03
 627  9.54183998   0.707  -2.13733   3.51973   6.85220   2.07039   0.00000   1.002E+00   0.000E+00  -1.839E-03
 628  9.54363920   0.707  -2.13727   3.51974   6.85219   2.07031   0.00000   1.002E+00   0.000E+00  -1.841E-03
 629  9.54543100   0.707  -2.13722   3.51974   6.85217   2.07024   0.00000   1.002E+00   0.000E+00  -1.842E-03
 630  9.54721544   0.707  -2.13717   3.51974   6.85215   2.07017   0.00000   1.002E+00   0.000E+00  -1.844E-03
 631  9.54899258   0.707  -2.13712   3.51974   6.85213   2.07009   0.00000   1.002E+00   0.000E+00  -1.845E-03
 632  9.55076247   0.707  -2.13707   3.51974   6.85211   2.07002   0.00000   1.002E+00   0.000E+00  -1.846E-03
 633  9.55252518   0.707  -2.13701   3.51974   6.85210   2.06995   0.00000   1.002E+00   0.000E+00  -1.848E-03
 634  9.55428077   0.707  -2.13696   3.51974   6.85208   2.06987   0.00000   1.002E+00   0.000E+00  -1.849E-03
 635  9.55602929   0.707  -2.13691   3.51974   6.85206   2.06980   0.00000   1.002E+00   0.000E+00  -1.850E-03
 636  9.55777079   0.707  -2.13686   3.51974   6.85204   2.06972   0.00000   1.002E+00   0.000E+00  -1.851E-03
 637  9.55950534   0.707  -2.13680   3.51974   6.85202   2.06965   0.00000   1.002E+00   0.000E+00  -1.852E-03
 638  9.56123299   0.707  -2.13675   3.51974   6.85200   2.06957   0.00000   1.002E+00   0.000E+00  -1.853E-03
 639  9.56295380   0.707  -2.13670   3.51974   6.85198   2.06950   0.00000   1.002E+00   0.000E+00  -1.853E-03
 640  9.56466781   0.707  -2.13665   3.51974   6.85197   2.06942   0.00000   1.002E+00   0.000E+00  -1.854E-03
 641  9.56637509   0.707  -2.13659   3.51974   6.85195   2.06935   0.00000   1.002E+00   0.000E+00  -1.855E-03
 642  9.56807568   0.707  -2.13654   3.51975   6.85193   2.06927   0.00000   1.002E+00   0.000E+00  -1.855E-03
 643  9.56976963   0.707  -2.13649   3.51975   6.85191   2.06920   0.00000   1.002E+00   0.000E+00  -1.856E-03
 644  9.57145701   0.707  -2.13644   3.51975   6.85189   2.06912   0.00000   1.002E+00   0.000E+00  -1.857E-03
 645  9.57313785   0.707  -2.13638   3.51975   6.85187   2.06905   0.00000   1.002E+00   0.000E+00  -1.858E-03
 646  9.57481222   0.707  -2.13633   3.51975   6.85185   2.06897   0.00000   1.002E+00   0.000E+00  -1.858E-03
 647  9.57648015   0.707  -2.13628   3.51975   6.85183   2.06890   0.00000   1.002E+00   0.000E+00  -1.859E-03
 648  9.57814170   0.707  -2.13622   3.51975   6.85182   2.06882   0.00000   1.002E+00   0.000E+00  -1.860E-03
 649  9.57979692   0.707  -2.13617   3.51975   6.85180   2.06874   0.00000   1.002E+00   0.000E+00  -1.861E-03
 650  9.58144586   0.707  -2.13612   3.51975   6.85178   2.06867   0.00000   1.002E+00   0.000E+00  -1.861E-03
 651  9.58308855   0.707  -2.13607   3.51975   6.85176   2.06859   0.00000   1.002E+00   0.000E+00  -1.862E-03
 652  9.58472506   0.707  -2.13601   3.51975   6.85174   2.06852   0.00000   1.002E+00   0.000E+00  -1.863E-03
 653  9.58635543   0.707  -2.13596   3.51975   6.85172   2.06844   0.00000   1.002E+00   0.000E+00  -1.863E-03
 654  9.58797969   0.707  -2.13591   3.51975   6.85170   2.06837   0.00000   1.002E+00   0.000E+00  -1.864E-03
 655  9.58959791   0.707  -2.13585   3.51975   6.85168   2.06829   0.00000   1.002E+00   0.000E+00  -1.865E-03
 656  9.59121012   0.707  -2.13580   3.51976   6.85166   2.06821   0.00000   1.002E+00   0.000E+00  -1.866E-03
 657  9.59281636   0.707  -2.13575   3.51976   6.85164   2.06814   0.00000   1.002E+00   0.000E+00  -1.866E-03
 658  9.59441669   0.707  -2.13570   3.51976   6.85162   2.06806   0.00000   1.002E+00   0.000E+00  -1.867E-03
 659  9.59601114   0.707  -2.13564   3.51976   6.85160   2.06799   0.00000   1.002E+00   0.000E+00  -1.868E-03
 660  9.59759976   0.707  -2.13559   3.51976   6.85158   2.06791   0.00000   1.002E+00   0.000E+00  -1.868E-03
 661  9.59918258   0.707  -2.13554   3.51976   6.85156   2.06783   0.00000   1.002E+00   0.000E+00  -1.869E-03
 662  9.60075967   0.707  -2.13549   3.51976   6.85154   2.06776   0.00000   1.002E+00   0.000E+00  -1.870E-03
 663  9.60233104   0.707  -2.13543   3.51976   6.85152   2.06768   0.00000   1.002E+00   0.000E+00  -1.870E-03
 664  9.60389675   0.707  -2.13538   3.51976   6.85150   2.06761   0.00000   1.002E+00   0.000E+00  -1.870E-03
 665  9.60545683   0.707  -2.13533   3.51976   6.85148   2.06753   0.00000   1.002E+00   0.000E+00  -1.870E-03
 666  9.60701133   0.707  -2.13527   3.51976   6.85146   2.06746   0.00000   1.002E+00   0.000E+00  -1.870E-03
 667  9.60856029   0.707  -2.13522   3.51976   6.85144   2.06738   0.00000   1.002E+00   0.000E+00  -1.870E-03
 668  9.61010374   0.707  -2.13516   3.51976   6.85142   2.06731   0.00000   1.002E+00   0.000E+00  -1.870E-03
 669  9.61164173   0.707  -2.13511   3.51976   6.85141   2.06723   0.00000   1.002E+00   0.000E+00  -1.870E-03
 670  9.61317429   0.707  -2.13506   3.51976   6.85139   2.06716   0.00000   1.002E+00   0.000E+00  -1.870E-03
 671  9.61470145   0.707  -2.13500   3.51976   6.85137   2.06708   0.00000   1.002E+00   0.000E+00  -1.870E-03
 672  9.61622327   0.707  -2.13495   3.51976   6.85135   2.06701   0.00000   1.002E+00   0.000E+00  -1.870E-03
 673  9.61773978   0.707  -2.13490   3.51976   6.85133   2.06693   0.00000   1.002E+00   0.000E+00  -1.870E-03
 674  9.61925100   0.707  -2.13484   3.51976   6.85131   2.06686   0.00000   1.002E+00   0.000E+00  -1.870E-03
 675  9.62075699   0.707  -2.13479   3.51976   6.85129   2.06678   0.00000   1.002E+00   0.000E+00  -1.870E-03
 676  9.62225777   0.707  -2.13474   3.51976   6.85127   2.06671   0.00000   1.002E+00   0.000E+00  -1.870E-03
 677  9.62375338   0.707  -2.13468   3.51976   6.85125   2.06663   0.00000   1.002E+00   0.000E+00  -1.870E-03
 678  9.62524387   0.707  -2.13463   3.51976   6.85123   2.06655   0.00000   1.002E+00   0.000E+00  -1.870E-03
 679  9.62672925   0.707  -2.13458   3.51976   6.85121   2.06648   0.00000   1.002E+00   0.000E+00  -1.870E-03
 680  9.62820957   0.707  -2.13453   3.51976   6.85119   2.06640   0.00000   1.002E+00   0.000E+00  -1.870E-03
 681  9.62968486   0.707  -2.13447   3.51976   6.85117   2.06633   0.00000   1.002E+00   0.000E+00  -1.870E-03
 682  9.63115516   0.707  -2.13442   3.51976   6.85116   2.06625   0.00000   1.002E+00   0.000E+00  -1.870E-03
 683  9.63262049   0.707  -2.13437   3.51977   6.85114   2.06617   0.00000   1.002E+00   0.000E+00  -1.870E-03
 684  9.63408090   0.707  -2.13431   3.51977   6.85112   2.06610   0.00000   1.002E+00   0.000E+00  -1.870E-03
 685  9.63553641   0.707  -2.13426   3.51977   6.85110   2.06602   0.00000   1.002E+00   0.000E+00  -1.870E-03
 686  9.63698707   0.707  -2.13421   3.51977   6.85108   2.06595   0.00000   1.002E+00   0.000E+00  -1.870E-03
 687  9.63843289   0.707  -2.13416   3.51977   6.85106   2.06587   0.00000   1.002E+00   0.000E+00  -1.870E-03
 688  9.63987392   0.707  -2.13410   3.51977   6.85104   2.06579   0.00000   1.002E+00   0.000E+00  -1.870E-03
 689  9.64131017   0.707  -2.13405   3.51977   6.85102   2.06572   0.00000   1.002E+00   0.000E+00  -1.870E-03
 690  9.64274170   0.707  -2.13400   3.51977   6.85101   2.06564   0.00000   1.002E+00   0.000E+00  -1.870E-03
 691  9.64416852   0.707  -2.13394   3.51977   6.85099   2.06557   0.00000   1.002E+00   0.000E+00  -1.869E-03
 692  9.64559067   0.707  -2.13389   3.51977   6.85097   2.06549   0.00000   1.002E+00   0.000E+00  -1.868E-03
 693  9.64700818   0.707  -2.13384   3.51977   6.85095   2.06542   0.00000   1.002E+00   0.000E+00  -1.868E-03
 694  9.64842108   0.707  -2.13378   3.51977   6.85093   2.06534   0.00000   1.002E+00   0.000E+00  -1.867E-03
 695  9.64982939   0.707  -2.13373   3.51977   6.85091   2.06526   0.00000   1.002E+00   0.000E+00  -1.866E-03
 696  9.65123316   0.707  -2.13368   3.51977   6.85089   2.06519   0.00000   1.002E+00   0.000E+00  -1.866E-03
 697  9.65263240   0.707  -2.13362   3.51978   6.85087   2.06511   0.00000   1.002E+00   0.000E+00  -1.865E-03
 698  9.65402714   0.707  -2.13357   3.51978   6.85085   2.06504   0.00000   1.002E+00   0.000E+00  -1.864E-03
 699  9.65541742   0.707  -2.13352   3.51978   6.85083   2.06496   0.00000   1.002E+00   0.000E+00  -1.863E-03
 700  9.65680327   0.707  -2.13346   3.51978   6.85081   2.06488   0.00000   1.002E+00   0.000E+00  -1.863E-03
 701  9.65818471   0.706  -2.13341   3.51978   6.85079   2.06481   0.00000   1.002E+00   0.000E+00  -1.862E-03
 702  9.65956176   0.706  -2.13336   3.51978   6.85077   2.06473   0.00000   1.002E+00   0.000E+00  -1.861E-03
 703  9.66093447   0.706  -2.13330   3.51978   6.85075   2.06466   0.00000   1.002E+00   0.000E+00  -1.860E-03
 704  9.66230285   0.706  -2.13325   3.51978   6.85073   2.06458   0.00000   1.002E+00   0.000E+00  -1.860E-03
 705  9.66366693   0.706  -2.13320   3.51978   6.85071   2.06451   0.00000   1.002E+00   0.000E+00  -1.859E-03
 706  9.66502674   0.706  -2.13314   3.51978   6.85070   2.06443   0.00000   1.002E+00   0.000E+00  -1.858E-03
 707  9.66638230   0.706  -2.13309   3.51978   6.85068   2.06436   0.00000   1.002E+00   0.000E+00  -1.858E-03
 708  9.66773365   0.706  -2.13304   3.51978   6.85066   2.06428   0.00000   1.002E+00   0.000E+00  -1.857E-03
 709  9.66908081   0.706  -2.13299   3.51978   6.85064   2.06420   0.00000   1.002E+00   0.000E+00  -1.856E-03
 710  9.67042380   0.706  -2.13293   3.51978   6.85062   2.06413   0.00000   1.002E+00   0.000E+00  -1.855E-03
 711  9.67176264   0.706  -2.13288   3.51978   6.85060   2.06405   0.00000   1.002E+00   0.000E+00  -1.855E-03
 712  9.67309738   0.706  -2.13283   3.51978   6.85058   2.06398   0.00000   1.002E+00   0.000E+00  -1.854E-03
 713  9.67442803   0.706  -2.13277   3.51978   6.85056   2.06390   0.00000   1.002E+00   0.000E+00  -1.853E-03
 714  9.67575461   0.706  -2.13272   3.51978   6.85054   2.06383   0.00000   1.002E+00   0.000E+00  -1.852E-03
 715  9.67707715   0.706  -2.13267   3.51978   6.85053   2.06375   0.00000   1.002E+00   0.000E+00  -1.852E-03
 716  9.67839567   0.706  -2.13262   3.51978   6.85051   2.06368   0.00000   1.002E+00   0.000E+00  -1.851E-03
 717  9.67971021   0.706  -2.13256   3.51978   6.85049   2.06360   0.00000   1.002E+00   0.000E+00  -1.850E-03
 718  9.68102078   0.706  -2.13251   3.51978   6.85047   2.06353   0.00000   1.002E+00   0.000E+00  -1.850E-03
 719  9.68232740   0.706  -2.13246   3.51978   6.85045   2.06345   0.00000   1.002E+00   0.000E+00  -1.849E-03
 720  9.68363011   0.706  -2.13241   3.51978   6.85043   2.06338   0.00000   1.002E+00   0.000E+00  -1.848E-03
 721  9.68492892   0.706  -2.13235   3.51978   6.85041   2.06330   0.00000   1.002E+00   0.000E+00  -1.847E-03
 722  9.68622385   0.706  -2.13230   3.51978   6.85039   2.06323   0.00000   1.002E+00   0.000E+00  -1.847E-03
 723  9.68751494   0.706  -2.13225   3.51978   6.85037   2.06315   0.00000   1.002E+00   0.000E+00  -1.846E-03
 724  9.68880220   0.706  -2.13219   3.51978   6.85035   2.06308   0.00000   1.002E+00   0.000E+00  -1.845E-03
 725  9.69008566   0.706  -2.13214   3.51979   6.85033   2.06300   0.00000   1.002E+00   0.000E+00  -1.845E-03
 726  9.69136533   0.706  -2.13209   3.51979   6.85031   2.06293   0.00000   1.002E+00   0.000E+00  -1.844E-03
 727  9.69264125   0.706  -2.13204   3.51979   6.85029   2.06285   0.00000   1.002E+00   0.000E+00  -1.843E-03
 728  9.69391343   0.706  -2.13198   3.51979   6.85027   2.06278   0.00000   1.002E+00   0.000E+00  -1.842E-03
 729  9.69518189   0.706  -2.13193   3.51979   6.85025   2.06270   0.00000   1.002E+00   0.000E+00  -1.842E-03
 730  9.69644665   0.706  -2.13188   3.51979   6.85024   2.06263   0.00000   1.002E+00   0.000E+00  -1.841E-03
 731  9.69770775   0.706  -2.13182   3.51979   6.85022   2.06255   0.00000   1.002E+00   0.000E+00  -1.840E-03
 732  9.69896519   0.706  -2.13177   3.51979   6.85020   2.06248   0.00000   1.002E+00   0.000E+00  -1.839E-03
 733  9.70021901   0.706  -2.13172   3.51979   6.85018   2.06240   0.00000   1.002E+00   0.000E+00  -1.838E-03
 734  9.70146921   0.706  -2.13167   3.51979   6.85016   2.06233   0.00000   1.002E+00   0.000E+00  -1.836E-03
 735  9.70271583   0.706  -2.13162   3.51979   6.85014   2.06226   0.00000   1.002E+00   0.000E+00  -1.835E-03
 736  9.70395887   0.706  -2.13156   3.51979   6.85012   2.06218   0.00000   1.002E+00   0.000E+00  -1.833E-03
 737  9.70519837   0.706  -2.13151   3.51979   6.85010   2.06211   0.00000   1.002E+00   0.000E+00  -1.832E-03
 738  9.70643435   0.706  -2.13146   3.51979   6.85008   2.06203   0.00000   1.002E+00   0.000E+00  -1.830E-03
 739  9.70766681   0.706  -2.13141   3.51980   6.85006   2.06196   0.00000   1.002E+00   0.000E+00  -1.829E-03
 740  9.70889579   0.706  -2.13136   3.51980   6.85005   2.06189   0.00000   1.002E+00   0.000E+00  -1.827E-03
 741  9.71012130   0.706  -2.13130   3.51980   6.85003   2.06181   0.00000   1.002E+00   0.000E+00  -1.826E-03
 742  9.71134336   0.706  -2.13125   3.51980   6.85001   2.06174   0.00000   1.002E+00   0.000E+00  -1.825E-03
 743  9.71256199   0.706  -2.13120   3.51980   6.84999   2.06167   0.00000   1.002E+00   0.000E+00  -1.823E-03
 744  9.71377721   0.706  -2.13115   3.51980   6.84997   2.06159   0.00000   1.002E+00   0.000E+00  -1.822E-03
 745  9.71498904   0.706  -2.13110   3.51980   6.84995   2.06152   0.00000   1.002E+00   0.000E+00  -1.820E-03
 746  9.71619750   0.706  -2.13104   3.51980   6.84993   2.06144   0.00000   1.002E+00   0.000E+00  -1.819E-03
 747  9.71740261   0.706  -2.13099   3.51980   6.84991   2.06137   0.00000   1.002E+00   0.000E+00  -1.817E-03
 748  9.71860438   0.706  -2.13094   3.51980   6.84990   2.06130   0.00000   1.002E+00   0.000E+00  -1.816E-03
 749  9.71980283   0.706  -2.13089   3.51980   6.84988   2.06122   0.00000   1.002E+00   0.000E+00  -1.814E-03
 750  9.72099799   0.706  -2.13084   3.51980   6.84986   2.06115   0.00000   1.002E+00   0.000E+00  -1.813E-03
 751  9.72218986   0.706  -2.13078   3.51980   6.84984   2.06108   0.00000   1.002E+00   0.000E+00  -1.811E-03
 752  9.72337848   0.706  -2.13073   3.51980   6.84982   2.06100   0.00000   1.002E+00   0.000E+00  -1.810E-03
 753  9.72456385   0.706  -2.13068   3.51980   6.84980   2.06093   0.00000   1.002E+00   0.000E+00  -1.809E-03
 754  9.72574599   0.706  -2.13063   3.51980   6.84978   2.06086   0.00000   1.002E+00   0.000E+00  -1.807E-03
 755  9.72692493   0.706  -2.13058   3.51980   6.84976   2.06078   0.00000   1.002E+00   0.000E+00  -1.806E-03
 756  9.72810067   0.706  -2.13052   3.51980   6.84975   2.06071   0.00000   1.002E+00   0.000E+00  -1.804E-03
 757  9.72927324   0.706  -2.13047   3.51980   6.84973   2.06063   0.00000   1.002E+00   0.000E+00  -1.803E-03
 758  9.73044265   0.706  -2.13042   3.51980   6.84971   2.06056   0.00000   1.002E+00   0.000E+00  -1.801E-03
 759  9.73160892   0.706  -2.13037   3.51980   6.84969   2.06049   0.00000   1.002E+00   0.000E+00  -1.800E-03
 760  9.73277206   0.706  -2.13032   3.51980   6.84967   2.06041   0.00000   1.002E+00   0.000E+00  -1.798E-03
 761  9.73393210   0.706  -2.13026   3.51980   6.84965   2.06034   0.00000   1.002E+00   0.000E+00  -1.797E-03
 762  9.73508905   0.706  -2.13021   3.51980   6.84963   2.06027   0.00000   1.002E+00   0.000E+00  -1.796E-03
 763  9.73624293   0.706  -2.13016   3.51980   6.84961   2.06019   0.00000   1.002E+00   0.000E+00  -1.794E-03
 764  9.73739375   0.706  -2.13011   3.51980   6.84960   2.06012   0.00000   1.002E+00   0.000E+00  -1.793E-03
 765  9.73854153   0.706  -2.13006   3.51980   6.84958   2.06004   0.00000   1.002E+00   0.000E+00  -1.791E-03
 766  9.73968628   0.706  -2.13001   3.51981   6.84956   2.05997   0.00000   1.002E+00   0.000E+00  -1.790E-03
 767  9.74082802   0.706  -2.12996   3.51981   6.84954   2.05990   0.00000   1.002E+00   0.000E+00  -1.788E-03
 768  9.74196677   0.706  -2.12991   3.51981   6.84952   2.05982   0.00000   1.002E+00   0.000E+00  -1.787E-03
 769  9.74310254   0.706  -2.12985   3.51981   6.84950   2.05975   0.00000   1.002E+00   0.000E+00  -1.785E-03
 770  9.74423535   0.706  -2.12980   3.51981   6.84948   2.05968   0.00000   1.002E+00   0.000E+00  -1.784E-03
 771  9.74536521   0.706  -2.12975   3.51981   6.84946   2.05960   0.00000   1.002E+00   0.000E+00  -1.783E-03
 772  9.74649213   0.706  -2.12970   3.51981   6.84944   2.05953   0.00000   1.002E+00   0.000E+00  -1.781E-03
 773  9.74761615   0.706  -2.12965   3.51981   6.84943   2.05945   0.00000   1.002E+00   0.000E+00  -1.780E-03
 774  9.74873726   0.706  -2.12960   3.51981   6.84941   2.05938   0.00000   1.002E+00   0.000E+00  -1.777E-03
 775  9.74985548   0.706  -2.12955   3.51981   6.84939   2.05931   0.00000   1.002E+00   0.000E+00  -1.775E-03
 776  9.75097083   0.706  -2.12950   3.51981   6.84937   2.05924   0.00000   1.002E+00   0.000E+00  -1.773E-03
 777  9.75208333   0.706  -2.12945   3.51981   6.84935   2.05917   0.00000   1.002E+00   0.000E+00  -1.771E-03
 778  9.75319298   0.706  -2.12940   3.51981   6.84934   2.05909   0.00000   1.002E+00   0.000E+00  -1.769E-03
 779  9.75429980   0.706  -2.12935   3.51981   6.84932   2.05902   0.00000   1.002E+00   0.000E+00  -1.767E-03
 780  9.75540381   0.706  -2.12930   3.51981   6.84930   2.05895   0.00000   1.002E+00   0.000E+00  -1.764E-03
 781  9.75650503   0.706  -2.12924   3.51981   6.84928   2.05888   0.00000   1.002E+00   0.000E+00  -1.762E-03
 782  9.75760345   0.706  -2.12919   3.51981   6.84926   2.05880   0.00000   1.002E+00   0.000E+00  -1.760E-03
 783  9.75869911   0.706  -2.12914   3.51981   6.84925   2.05873   0.00000   1.002E+00   0.000E+00  -1.758E-03
 784  9.75979201   0.706  -2.12909   3.51981   6.84923   2.05866   0.00000   1.002E+00   0.000E+00  -1.756E-03
 785  9.76088216   0.706  -2.12904   3.51981   6.84921   2.05859   0.00000   1.002E+00   0.000E+00  -1.754E-03
 786  9.76196958   0.706  -2.12899   3.51981   6.84919   2.05852   0.00000   1.002E+00   0.000E+00  -1.751E-03
 787  9.76305429   0.706  -2.12894   3.51981   6.84917   2.05844   0.00000   1.002E+00   0.000E+00  -1.750E-03
 788  9.76413630   0.706  -2.12889   3.51981   6.84915   2.05837   0.00000   1.002E+00   0.000E+00  -1.750E-03
 789  9.76521562   0.706  -2.12884   3.51981   6.84913   2.05829   0.00000   1.002E+00   0.000E+00  -1.750E-03
 790  9.76629226   0.706  -2.12879   3.51981   6.84911   2.05822   0.00000   1.002E+00   0.000E+00  -1.750E-03
 791  9.76736624   0.706  -2.12874   3.51981   6.84909   2.05814   0.00000   1.002E+00   0.000E+00  -1.750E-03
 792  9.76843757   0.706  -2.12869   3.51981   6.84907   2.05807   0.00000   1.002E+00   0.000E+00  -1.750E-03
 793  9.76950626   0.706  -2.12864   3.51981   6.84905   2.05799   0.00000   1.002E+00   0.000E+00  -1.750E-03
 794  9.77057233   0.706  -2.12859   3.51982   6.84903   2.05792   0.00000   1.002E+00   0.000E+00  -1.750E-03
 795  9.77163579   0.706  -2.12854   3.51982   6.84901   2.05784   0.00000   1.002E+00   0.000E+00  -1.750E-03
 796  9.77269665   0.706  -2.12849   3.51982   6.84899   2.05777   0.00000   1.002E+00   0.000E+00  -1.750E-03
 797  9.77375493   0.706  -2.12843   3.51982   6.84897   2.05769   0.00000   1.002E+00   0.000E+00  -1.750E-03
 798  9.77481063   0.706  -2.12838   3.51982   6.84895   2.05761   0.00000   1.002E+00   0.000E+00  -1.750E-03
 799  9.77586378   0.705  -2.12833   3.51982   6.84893   2.05754   0.00000   1.002E+00   0.000E+00  -1.750E-03
 800  9.77691438   0.705  -2.12828   3.51982   6.84891   2.05746   0.00000   1.002E+00   0.000E+00  -1.750E-03
 801  9.77796244   0.705  -2.12823   3.51982   6.84889   2.05739   0.00000   1.002E+00   0.000E+00  -1.748E-03
 802  9.77900798   0.705  -2.12818   3.51982   6.84887   2.05732   0.00000   1.002E+00   0.000E+00  -1.746E-03
 803  9.78005100   0.705  -2.12814   3.51982   6.84885   2.05725   0.00000   1.002E+00   0.000E+00  -1.743E-03
 804  9.78109153   0.705  -2.12809   3.51982   6.84884   2.05718   0.00000   1.002E+00   0.000E+00  -1.740E-03
 805  9.78212957   0.705  -2.12804   3.51982   6.84882   2.05711   0.00000   1.002E+00   0.000E+00  -1.737E-03
 806  9.78316514   0.705  -2.12799   3.51982   6.84880   2.05704   0.00000   1.002E+00   0.000E+00  -1.734E-03
 807  9.78419824   0.705  -2.12794   3.51982   6.84878   2.05697   0.00000   1.002E+00   0.000E+00  -1.731E-03
 808  9.78522889   0.705  -2.12789   3.51983   6.84876   2.05690   0.00000   1.002E+00   0.000E+00  -1.728E-03
 809  9.78625710   0.705  -2.12784   3.51983   6.84875   2.05682   0.00000   1.002E+00   0.000E+00  -1.725E-03
 810  9.78728288   0.705  -2.12779   3.51983   6.84873   2.05675   0.00000   1.002E+00   0.000E+00  -1.722E-03
 811  9.78830625   0.705  -2.12774   3.51983   6.84871   2.05668   0.00000   1.002E+00   0.000E+00  -1.720E-03
 812  9.78932721   0.705  -2.12769   3.51983   6.84869   2.05661   0.00000   1.002E+00   0.000E+00  -1.717E-03
 813  9.79034577   0.705  -2.12764   3.51983   6.84867   2.05654   0.00000   1.002E+00   0.000E+00  -1.714E-03
 814  9.79136195   0.705  -2.12759   3.51983   6.84866   2.05647   0.00000   1.002E+00   0.000E+00  -1.711E-03
 815  9.79237576   0.705  -2.12755   3.51983   6.84864   2.05640   0.00000   1.002E+00   0.000E+00  -1.708E-03
 816  9.79338721   0.705  -2.12750   3.51983   6.84862   2.05633   0.00000   1.002E+00   0.000E+00  -1.706E-03
 817  9.79439631   0.705  -2.12745   3.51983   6.84860   2.05626   0.00000   1.002E+00   0.000E+00  -1.704E-03
 818  9.79540307   0.705  -2.12740   3.51983   6.84858   2.05619   0.00000   1.002E+00   0.000E+00  -1.702E-03
 819  9.79640750   0.705  -2.12735   3.51983   6.84856   2.05612   0.00000   1.002E+00   0.000E+00  -1.700E-03
 820  9.79740961   0.705  -2.12730   3.51983   6.84855   2.05605   0.00000   1.002E+00   0.000E+00  -1.698E-03
 821  9.79840942   0.705  -2.12725   3.51983   6.84853   2.05598   0.00000   1.002E+00   0.000E+00  -1.695E-03
 822  9.79940693   0.705  -2.12720   3.51983   6.84851   2.05591   0.00000   1.002E+00   0.000E+00  -1.693E-03
 823  9.80040215   0.705  -2.12715   3.51983   6.84849   2.05584   0.00000   1.002E+00   0.000E+00  -1.691E-03
 824  9.80139510   0.705  -2.12710   3.51983   6.84847   2.05577   0.00000   1.002E+00   0.000E+00  -1.689E-03
 825  9.80238578   0.705  -2.12705   3.51983   6.84846   2.05570   0.00000   1.002E+00   0.000E+00  -1.687E-03
 826  9.80337421   0.705  -2.12700   3.51983   6.84844   2.05563   0.00000   1.002E+00   0.000E+00  -1.685E-03
 827  9.80436039   0.705  -2.12696   3.51983   6.84842   2.05556   0.00000   1.002E+00   0.000E+00  -1.682E-03
 828  9.80534434   0.705  -2.12691   3.51983   6.84840   2.05549   0.00000   1.002E+00   0.000E+00  -1.680E-03
 829  9.80632607   0.705  -2.12686   3.51983   6.84838   2.05542   0.00000   1.002E+00   0.000E+00  -1.678E-03
 830  9.80730558   0.705  -2.12681   3.51983   6.84837   2.05535   0.00000   1.002E+00   0.000E+00  -1.676E-03
 831  9.80828288   0.705  -2.12676   3.51983   6.84835   2.05528   0.00000   1.002E+00   0.000E+00  -1.674E-03
 832  9.80925800   0.705  -2.12672   3.51983   6.84833   2.05521   0.00000   1.002E+00   0.000E+00  -1.672E-03
 833  9.81023093   0.705  -2.12667   3.51983   6.84832   2.05515   0.00000   1.002E+00   0.000E+00  -1.669E-03
 834  9.81120168   0.705  -2.12662   3.51983   6.84830   2.05508   0.00000   1.002E+00   0.000E+00  -1.667E-03
 835  9.81217027   0.705  -2.12657   3.51983   6.84828   2.05501   0.00000   1.002E+00   0.000E+00  -1.665E-03
 836  9.81313670   0.705  -2.12652   3.51984   6.84826   2.05494   0.00000   1.002E+00   0.000E+00  -1.663E-03
 837  9.81410099   0.705  -2.12648   3.51984   6.84825   2.05487   0.00000   1.002E+00   0.000E+00  -1.661E-03
 838  9.81506314   0.705  -2.12643   3.51984   6.84823   2.05480   0.00000   1.002E+00   0.000E+00  -1.659E-03
 839  9.81602316   0.705  -2.12638   3.51984   6.84821   2.05473   0.00000   1.002E+00   0.000E+00  -1.656E-03
 840  9.81698107   0.705  -2.12633   3.51984   6.84819   2.05466   0.00000   1.002E+00   0.000E+00  -1.654E-03
 841  9.81793687   0.705  -2.12629   3.51984   6.84818   2.05460   0.00000   1.002E+00   0.000E+00  -1.652E-03
 842  9.81889056   0.705  -2.12624   3.51984   6.84816   2.05453   0.00000   1.002E+00   0.000E+00  -1.650E-03
 843  9.81984217   0.705  -2.12619   3.51984   6.84814   2.05446   0.00000   1.002E+00   0.000E+00  -1.648E-03
 844  9.82079170   0.705  -2.12614   3.51984   6.84812   2.05439   0.00000   1.002E+00   0.000E+00  -1.646E-03
 845  9.82173916   0.705  -2.12610   3.51984   6.84811   2.05432   0.00000   1.002E+00   0.000E+00  -1.643E-03
 846  9.82268456   0.705  -2.12605   3.51984   6.84809   2.05426   0.00000   1.002E+00   0.000E+00  -1.641E-03
 847  9.82362790   0.705  -2.12600   3.51984   6.84807   2.05419   0.00000   1.002E+00   0.000E+00  -1.639E-03
 848  9.82456919   0.705  -2.12595   3.51984   6.84806   2.05412   0.00000   1.002E+00   0.000E+00  -1.637E-03
 849  9.82550845   0.705  -2.12590   3.51985   6.84804   2.05405   0.00000   1.002E+00   0.000E+00  -1.635E-03
 850  9.82644569   0.705  -2.12586   3.51985   6.84802   2.05398   0.00000   1.002E+00   0.000E+00  -1.633E-03
 851  9.82738090   0.705  -2.12581   3.51985   6.84800   2.05392   0.00000   1.002E+00   0.000E+00  -1.630E-03
 852  9.82831411   0.705  -2.12576   3.51985   6.84799   2.05385   0.00000   1.002E+00   0.000E+00  -1.628E-03
 853  9.82924532   0.705  -2.12571   3.51985   6.84797   2.05378   0.00000   1.002E+00   0.000E+00  -1.626E-03
 854  9.83017453   0.705  -2.12567   3.51985   6.84795   2.05371   0.00000   1.002E+00   0.000E+00  -1.624E-03
 855  9.83110176   0.705  -2.12562   3.51985   6.84793   2.05364   0.00000   1.002E+00   0.000E+00  -1.622E-03
 856  9.83202701   0.705  -2.12557   3.51985   6.84792   2.05358   0.00000   1.002E+00   0.000E+00  -1.620E-03
 857  9.83295030   0.705  -2.12552   3.51985   6.84790   2.05351   0.00000   1.002E+00   0.000E+00  -1.617E-03
 858  9.83387163   0.705  -2.12548   3.51985   6.84788   2.05344   0.00000   1.002E+00   0.000E+00  -1.615E-03
 859  9.83479100   0.705  -2.12543   3.51985   6.84787   2.05337   0.00000   1.002E+00   0.000E+00  -1.613E-03
 860  9.83570844   0.705  -2.12538   3.51985   6.84785   2.05331   0.00000   1.002E+00   0.000E+00  -1.611E-03
 861  9.83662394   0.705  -2.12534   3.51985   6.84783   2.05324   0.00000   1.002E+00   0.000E+00  -1.609E-03
 862  9.83753751   0.705  -2.12529   3.51985   6.84782   2.05317   0.00000   1.002E+00   0.000E+00  -1.607E-03
 863  9.83844917   0.705  -2.12524   3.51985   6.84780   2.05311   0.00000   1.002E+00   0.000E+00  -1.604E-03
 864  9.83935892   0.705  -2.12519   3.51985   6.84778   2.05304   0.00000   1.002E+00   0.000E+00  -1.602E-03
 865  9.84026677   0.705  -2.12515   3.51985   6.84777   2.05297   0.00000   1.002E+00   0.000E+00  -1.600E-03
 866  9.84117272   0.705  -2.12510   3.51985   6.84775   2.05290   0.00000   1.002E+00   0.000E+00  -1.598E-03
 867  9.84207679   0.705  -2.12505   3.51985   6.84773   2.05284   0.00000   1.002E+00   0.000E+00  -1.596E-03
 868  9.84297897   0.705  -2.12501   3.51985   6.84772   2.05277   0.00000   1.002E+00   0.000E+00  -1.594E-03
 869  9.84387929   0.705  -2.12496   3.51985   6.84770   2.05270   0.00000   1.002E+00   0.000E+00  -1.591E-03
 870  9.84477775   0.705  -2.12491   3.51985   6.84768   2.05264   0.00000   1.002E+00   0.000E+00  -1.589E-03
 871  9.84567435   0.705  -2.12487   3.51985   6.84767   2.05257   0.00000   1.002E+00   0.000E+00  -1.587E-03
 872  9.84656910   0.705  -2.12482   3.51985   6.84765   2.05251   0.00000   1.002E+00   0.000E+00  -1.585E-03
 873  9.84746202   0.705  -2.12478   3.51985   6.84763   2.05244   0.00000   1.002E+00   0.000E+00  -1.583E-03
 874  9.84835310   0.705  -2.12473   3.51985   6.84762   2.05238   0.00000   1.002E+00   0.000E+00  -1.581E-03
 875  9.84924236   0.705  -2.12469   3.51985   6.84760   2.05231   0.00000   1.002E+00   0.000E+00  -1.578E-03
 876  9.85012980   0.705  -2.12464   3.51985   6.84758   2.05225   0.00000   1.002E+00   0.000E+00  -1.576E-03
 877  9.85101543   0.705  -2.12459   3.51986   6.84757   2.05218   0.00000   1.002E+00   0.000E+00  -1.574E-03
 878  9.85189925   0.705  -2.12455   3.51986   6.84755   2.05212   0.00000   1.002E+00   0.000E+00  -1.572E-03
 879  9.85278129   0.705  -2.12450   3.51986   6.84753   2.05205   0.00000   1.002E+00   0.000E+00  -1.570E-03
 880  9.85366153   0.705  -2.12446   3.51986   6.84752   2.05199   0.00000   1.002E+00   0.000E+00  -1.568E-03
 881  9.85454000   0.705  -2.12441   3.51986   6.84750   2.05192   0.00000   1.002E+00   0.000E+00  -1.565E-03
 882  9.85541669   0.705  -2.12437   3.51986   6.84748   2.05186   0.00000   1.002E+00   0.000E+00  -1.563E-03
 883  9.85629161   0.705  -2.12432   3.51986   6.84747   2.05179   0.00000   1.002E+00   0.000E+00  -1.561E-03
 884  9.85716478   0.705  -2.12428   3.51986   6.84745   2.05173   0.00000   1.002E+00   0.000E+00  -1.559E-03
 885  9.85803619   0.705  -2.12423   3.51986   6.84743   2.05166   0.00000   1.002E+00   0.000E+00  -1.558E-03
 886  9.85890586   0.705  -2.12418   3.51986   6.84742   2.05160   0.00000   1.002E+00   0.000E+00  -1.556E-03
 887  9.85977380   0.705  -2.12414   3.51986   6.84740   2.05153   0.00000   1.002E+00   0.000E+00  -1.555E-03
 888  9.86064000   0.705  -2.12409   3.51986   6.84738   2.05147   0.00000   1.002E+00   0.000E+00  -1.553E-03
 889  9.86150447   0.705  -2.12405   3.51986   6.84737   2.05140   0.00000   1.002E+00   0.000E+00  -1.552E-03
 890  9.86236723   0.705  -2.12400   3.51986   6.84735   2.05134   0.00000   1.002E+00   0.000E+00  -1.551E-03
 891  9.86322828   0.705  -2.12396   3.51986   6.84733   2.05127   0.00000   1.002E+00   0.000E+00  -1.549E-03
 892  9.86408762   0.705  -2.12391   3.51986   6.84732   2.05121   0.00000   1.002E+00   0.000E+00  -1.548E-03
 893  9.86494527   0.705  -2.12387   3.51986   6.84730   2.05114   0.00000   1.002E+00   0.000E+00  -1.546E-03
 894  9.86580123   0.705  -2.12382   3.51986   6.84728   2.05108   0.00000   1.002E+00   0.000E+00  -1.545E-03
 895  9.86665550   0.705  -2.12377   3.51986   6.84727   2.05101   0.00000   1.002E+00   0.000E+00  -1.543E-03
 896  9.86750810   0.705  -2.12373   3.51986   6.84725   2.05094   0.00000   1.002E+00   0.000E+00  -1.542E-03
 897  9.86835902   0.705  -2.12368   3.51986   6.84724   2.05088   0.00000   1.002E+00   0.000E+00  -1.540E-03
 898  9.86920828   0.705  -2.12364   3.51986   6.84722   2.05082   0.00000   1.002E+00   0.000E+00  -1.538E-03
 899  9.87005589   0.705  -2.12359   3.51986   6.84720   2.05075   0.00000   1.002E+00   0.000E+00  -1.536E-03
 900  9.87090184   0.705  -2.12355   3.51986   6.84719   2.05069   0.00000   1.002E+00   0.000E+00  -1.534E-03
 901  9.87174615   0.705  -2.12350   3.51986   6.84717   2.05063   0.00000   1.002E+00   0.000E+00  -1.532E-03
 902  9.87258882   0.705  -2.12346   3.51986   6.84716   2.05056   0.00000   1.002E+00   0.000E+00  -1.530E-03
 903  9.87342986   0.705  -2.12341   3.51986   6.84714   2.05050   0.00000   1.002E+00   0.000E+00  -1.528E-03
 904  9.87426927   0.704  -2.12337   3.51986   6.84712   2.05043   0.00000   1.002E+00   0.000E+00  -1.525E-03
 905  9.87510706   0.704  -2.12333   3.51987   6.84711   2.05037   0.00000   1.002E+00   0.000E+00  -1.523E-03
 906  9.87594324   0.704  -2.12328   3.51987   6.84709   2.05031   0.00000   1.002E+00   0.000E+00  -1.521E-03
 907  9.87677782   0.704  -2.12324   3.51987   6.84708   2.05024   0.00000   1.002E+00   0.000E+00  -1.519E-03
 908  9.87761079   0.704  -2.12319   3.51987   6.84706   2.05018   0.00000   1.002E+00   0.000E+00  -1.517E-03
 909  9.87844217   0.704  -2.12315   3.51987   6.84704   2.05012   0.00000   1.002E+00   0.000E+00  -1.515E-03
 910  9.87927196   0.704  -2.12310   3.51987   6.84703   2.05005   0.00000   1.002E+00   0.000E+00  -1.512E-03
 911  9.88010017   0.704  -2.12306   3.51987   6.84701   2.04999   0.00000   1.002E+00   0.000E+00  -1.510E-03
 912  9.88092680   0.704  -2.12301   3.51987   6.84700   2.04993   0.00000   1.002E+00   0.000E+00  -1.508E-03
 913  9.88175186   0.704  -2.12297   3.51987   6.84698   2.04986   0.00000   1.002E+00   0.000E+00  -1.506E-03
 914  9.88257535   0.704  -2.12293   3.51987   6.84697   2.04980   0.00000   1.002E+00   0.000E+00  -1.504E-03
 915  9.88339729   0.704  -2.12288   3.51987   6.84695   2.04974   0.00000   1.002E+00   0.000E+00  -1.502E-03
 916  9.88421768   0.704  -2.12284   3.51987   6.84694   2.04968   0.00000   1.002E+00   0.000E+00  -1.499E-03
 917  9.88503651   0.704  -2.12280   3.51987   6.84692   2.04962   0.00000   1.002E+00   0.000E+00  -1.497E-03
 918  9.88585381   0.704  -2.12275   3.51987   6.84691   2.04955   0.00000   1.002E+00   0.000E+00  -1.495E-03
 919  9.88666957   0.704  -2.12271   3.51988   6.84689   2.04949   0.00000   1.001E+00   0.000E+00  -1.493E-03
 920  9.88748381   0.704  -2.12267   3.51988   6.84688   2.04943   0.00000   1.001E+00   0.000E+00  -1.491E-03
 921  9.88829651   0.704  -2.12262   3.51988   6.84686   2.04937   0.00000   1.001E+00   0.000E+00  -1.489E-03
 922  9.88910771   0.704  -2.12258   3.51988   6.84685   2.04931   0.00000   1.001E+00   0.000E+00  -1.486E-03
 923  9.88991738   0.704  -2.12254   3.51988   6.84683   2.04924   0.00000   1.001E+00   0.000E+00  -1.484E-03
 924  9.89072556   0.704  -2.12249   3.51988   6.84681   2.04918   0.00000   1.001E+00   0.000E+00  -1.482E-03
 925  9.89153223   0.704  -2.12245   3.51988   6.84680   2.04912   0.00000   1.001E+00   0.000E+00  -1.480E-03
 926  9.89233740   0.704  -2.12241   3.51988   6.84678   2.04906   0.00000   1.001E+00   0.000E+00  -1.478E-03
 927  9.89314109   0.704  -2.12236   3.51988   6.84677   2.04900   0.00000   1.001E+00   0.000E+00  -1.476E-03
 928  9.89394329   0.704  -2.12232   3.51988   6.84675   2.04893   0.00000   1.001E+00   0.000E+00  -1.473E-03
 929  9.89474401   0.704  -2.12228   3.51988   6.84674   2.04887   0.00000   1.001E+00   0.000E+00  -1.471E-03
 930  9.89554326   0.704  -2.12223   3.51988   6.84672   2.04881   0.00000   1.001E+00   0.000E+00  -1.469E-03
 931  9.89634104   0.704  -2.12219   3.51988   6.84670   2.04875   0.00000   1.001E+00   0.000E+00  -1.467E-03
 932  9.89713735   0.704  -2.12215   3.51988   6.84669   2.04869   0.00000   1.001E+00   0.000E+00  -1.465E-03
 933  9.89793221   0.704  -2.12210   3.51988   6.84667   2.04863   0.00000   1.001E+00   0.000E+00  -1.463E-03
 934  9.89872562   0.704  -2.12206   3.51988   6.84666   2.04857   0.00000   1.001E+00   0.000E+00  -1.460E-03
 935  9.89951758   0.704  -2.12202   3.51988   6.84664   2.04850   0.00000   1.001E+00   0.000E+00  -1.458E-03
 936  9.90030810   0.704  -2.12197   3.51988   6.84662   2.04844   0.00000   1.001E+00   0.000E+00  -1.456E-03
 937  9.90109718   0.704  -2.12193   3.51988   6.84661   2.04838   0.00000   1.001E+00   0.000E+00  -1.454E-03
 938  9.90188483   0.704  -2.12189   3.51988   6.84659   2.04832   0.00000   1.001E+00   0.000E+00  -1.452E-03
 939  9.90267106   0.704  -2.12184   3.51988   6.84658   2.04826   0.00000   1.001E+00   0.000E+00  -1.450E-03
 940  9.90345586   0.704  -2.12180   3.51988   6.84656   2.04820   0.00000   1.001E+00   0.000E+00  -1.447E-03
 941  9.90423925   0.704  -2.12176   3.51988   6.84655   2.04814   0.00000   1.001E+00   0.000E+00  -1.445E-03
 942  9.90502123   0.704  -2.12171   3.51988   6.84653   2.04808   0.00000   1.001E+00   0.000E+00  -1.443E-03
 943  9.90580181   0.704  -2.12167   3.51988   6.84652   2.04802   0.00000   1.001E+00   0.000E+00  -1.441E-03
 944  9.90658098   0.704  -2.12163   3.51988   6.84650   2.04795   0.00000   1.001E+00   0.000E+00  -1.439E-03
 945  9.90735876   0.704  -2.12159   3.51988   6.84649   2.04789   0.00000   1.001E+00   0.000E+00  -1.437E-03
 946  9.90813514   0.704  -2.12154   3.51989   6.84647   2.04783   0.00000   1.001E+00   0.000E+00  -1.434E-03
 947  9.90891014   0.704  -2.12150   3.51989   6.84646   2.04777   0.00000   1.001E+00   0.000E+00  -1.432E-03
 948  9.90968377   0.704  -2.12146   3.51989   6.84644   2.04771   0.00000   1.001E+00   0.000E+00  -1.430E-03
 949  9.91045601   0.704  -2.12142   3.51989   6.84643   2.04765   0.00000   1.001E+00   0.000E+00  -1.428E-03
 950  9.91122689   0.704  -2.12137   3.51989   6.84641   2.04759   0.00000   1.001E+00   0.000E+00  -1.426E-03
 951  9.91199639   0.704  -2.12133   3.51989   6.84639   2.04753   0.00000   1.001E+00   0.000E+00  -1.424E-03
 952  9.91276454   0.704  -2.12129   3.51989   6.84638   2.04747   0.00000   1.001E+00   0.000E+00  -1.421E-03
 953  9.91353133   0.704  -2.12125   3.51989   6.84636   2.04741   0.00000   1.001E+00   0.000E+00  -1.419E-03
 954  9.91429677   0.704  -2.12120   3.51989   6.84635   2.04735   0.00000   1.001E+00   0.000E+00  -1.418E-03
 955  9.91506087   0.704  -2.12116   3.51989   6.84633   2.04729   0.00000   1.001E+00   0.000E+00  -1.417E-03
 956  9.91582362   0.704  -2.12112   3.51989   6.84632   2.04723   0.00000   1.001E+00   0.000E+00  -1.415E-03
 957  9.91658503   0.704  -2.12108   3.51989   6.84630   2.04717   0.00000   1.001E+00   0.000E+00  -1.414E-03
 958  9.91734511   0.704  -2.12104   3.51989   6.84629   2.04711   0.00000   1.001E+00   0.000E+00  -1.412E-03
 959  9.91810387   0.704  -2.12100   3.51989   6.84627   2.04705   0.00000   1.001E+00   0.000E+00  -1.411E-03
 960  9.91886130   0.704  -2.12096   3.51989   6.84626   2.04699   0.00000   1.001E+00   0.000E+00  -1.409E-03
 961  9.91961741   0.704  -2.12092   3.51989   6.84624   2.04693   0.00000   1.001E+00   0.000E+00  -1.408E-03
 962  9.92037221   0.704  -2.12087   3.51989   6.84623   2.04688   0.00000   1.001E+00   0.000E+00  -1.406E-03
 963  9.92112569   0.704  -2.12083   3.51989   6.84621   2.04682   0.00000   1.001E+00   0.000E+00  -1.405E-03
 964  9.92187788   0.704  -2.12079   3.51989   6.84620   2.04676   0.00000   1.001E+00   0.000E+00  -1.404E-03
 965  9.92262876   0.704  -2.12075   3.51989   6.84618   2.04670   0.00000   1.001E+00   0.000E+00  -1.402E-03
 966  9.92337834   0.704  -2.12071   3.51989   6.84617   2.04664   0.00000   1.001E+00   0.000E+00  -1.401E-03
 967  9.92412664   0.704  -2.12067   3.51989   6.84615   2.04658   0.00000   1.001E+00   0.000E+00  -1.399E-03
 968  9.92487365   0.704  -2.12063   3.51989   6.84614   2.04652   0.00000   1.001E+00   0.000E+00  -1.397E-03
 969  9.92561937   0.704  -2.12059   3.51989   6.84612   2.04646   0.00000   1.001E+00   0.000E+00  -1.395E-03
 970  9.92636382   0.704  -2.12055   3.51989   6.84611   2.04640   0.00000   1.001E+00   0.000E+00  -1.392E-03
 971  9.92710699   0.704  -2.12050   3.51989   6.84609   2.04635   0.00000   1.001E+00   0.000E+00  -1.390E-03
 972  9.92784889   0.704  -2.12046   3.51989   6.84608   2.04629   0.00000   1.001E+00   0.000E+00  -1.388E-03
 973  9.92858953   0.704  -2.12042   3.51989   6.84607   2.04623   0.00000   1.001E+00   0.000E+00  -1.386E-03
 974  9.92932891   0.704  -2.12038   3.51990   6.84605   2.04617   0.00000   1.001E+00   0.000E+00  -1.384E-03
 975  9.93006703   0.704  -2.12034   3.51990   6.84604   2.04611   0.00000   1.001E+00   0.000E+00  -1.382E-03
 976  9.93080390   0.704  -2.12030   3.51990   6.84602   2.04605   0.00000   1.001E+00   0.000E+00  -1.379E-03
 977  9.93153952   0.704  -2.12026   3.51990   6.84601   2.04599   0.00000   1.001E+00   0.000E+00  -1.377E-03
 978  9.93227389   0.704  -2.12022   3.51990   6.84599   2.04594   0.00000   1.001E+00   0.000E+00  -1.375E-03
 979  9.93300703   0.704  -2.12017   3.51990   6.84598   2.04588   0.00000   1.001E+00   0.000E+00  -1.373E-03
 980  9.93373893   0.704  -2.12013   3.51990   6.84596   2.04582   0.00000   1.001E+00   0.000E+00  -1.371E-03
 981  9.93446960   0.704  -2.12009   3.51990   6.84595   2.04576   0.00000   1.001E+00   0.000E+00  -1.369E-03
 982  9.93519904   0.704  -2.12005   3.51990   6.84594   2.04570   0.00000   1.001E+00   0.000E+00  -1.366E-03
 983  9.93592726   0.704  -2.12001   3.51990   6.84592   2.04565   0.00000   1.001E+00   0.000E+00  -1.364E-03
 984  9.93665426   0.704  -2.11997   3.51990   6.84591   2.04559   0.00000   1.001E+00   0.000E+00  -1.362E-03
 985  9.93738005   0.704  -2.11993   3.51990   6.84589   2.04553   0.00000   1.001E+00   0.000E+00  -1.360E-03
 986  9.93810462   0.704  -2.11989   3.51990   6.84588   2.04548   0.00000   1.001E+00   0.000E+00  -1.358E-03
 987  9.93882799   0.704  -2.11985   3.51990   6.84586   2.04542   0.00000   1.001E+00   0.000E+00  -1.356E-03
 988  9.93955015   0.704  -2.11981   3.51991   6.84585   2.04536   0.00000   1.001E+00   0.000E+00  -1.353E-03
 989  9.94027112   0.704  -2.11977   3.51991   6.84583   2.04530   0.00000   1.001E+00   0.000E+00  -1.351E-03
 990  9.94099089   0.704  -2.11973   3.51991   6.84582   2.04525   0.00000   1.001E+00   0.000E+00  -1.349E-03
 991  9.94170947   0.704  -2.11969   3.51991   6.84581   2.04519   0.00000   1.001E+00   0.000E+00  -1.347E-03
 992  9.94242686   0.704  -2.11965   3.51991   6.84579   2.04513   0.00000   1.001E+00   0.000E+00  -1.345E-03
 993  9.94314307   0.704  -2.11961   3.51991   6.84578   2.04508   0.00000   1.001E+00   0.000E+00  -1.342E-03
 994  9.94385810   0.704  -2.11957   3.51991   6.84576   2.04502   0.00000   1.001E+00   0.000E+00  -1.340E-03
 995  9.94457196   0.704  -2.11953   3.51991   6.84575   2.04496   0.00000   1.001E+00   0.000E+00  -1.338E-03
 996  9.94528464   0.704  -2.11949   3.51991   6.84573   2.04491   0.00000   1.001E+00   0.000E+00  -1.335E-03
 997  9.94599616   0.704  -2.11945   3.51991   6.84572   2.04485   0.00000   1.001E+00   0.000E+00  -1.332E-03
 998  9.94670651   0.704  -2.11941   3.51991   6.84571   2.04480   0.00000   1.001E+00   0.000E+00  -1.329E-03
 999  9.94741570   0.704  -2.11937   3.51991   6.84569   2.04474   0.00000   1.001E+00   0.000E+00  -1.326E-03
1000  9.94812374   0.704  -2.11933   3.51991   6.84568   2.04468   0.00000   1.001E+00   0.000E+00  -1.323E-03
1001  9.94883062   0.704  -2.11929   3.51991   6.84567   2.04463   0.00000   1.001E+00   0.000E+00  -1.320E-03
1002  9.94953636   0.704  -2.11925   3.51991   6.84565   2.04457   0.00000   1.001E+00   0.000E+00  -1.317E-03
1003  9.95024095   0.704  -2.11921   3.51991   6.84564   2.04452   0.00000   1.001E+00   0.000E+00  -1.314E-03
1004  9.95094439   0.704  -2.11918   3.51991   6.84562   2.04446   0.00000   1.001E+00   0.000E+00  -1.312E-03
1005  9.95164671   0.704  -2.11914   3.51991   6.84561   2.04441   0.00000   1.001E+00   0.000E+00  -1.309E-03
1006  9.95234788   0.704  -2.11910   3.51991   6.84560   2.04435   0.00000   1.001E+00   0.000E+00  -1.306E-03
1007  9.95304793   0.704  -2.11906   3.51991   6.84558   2.04429   0.00000   1.001E+00   0.000E+00  -1.303E-03
1008  9.95374685   0.704  -2.11902   3.51991   6.84557   2.04424   0.00000   1.001E+00   0.000E+00  -1.300E-03
1009  9.95444465   0.704  -2.11898   3.51991   6.84556   2.04418   0.00000   1.001E+00   0.000E+00  -1.299E-03
1010  9.95514133   0.704  -2.11894   3.51991   6.84554   2.04413   0.00000   1.001E+00   0.000E+00  -1.297E-03
1011  9.95583689   0.704  -2.11890   3.51991   6.84553   2.04407   0.00000   1.001E+00   0.000E+00  -1.296E-03
1012  9.95653134   0.704  -2.11886   3.51991   6.84552   2.04402   0.00000   1.001E+00   0.000E+00  -1.294E-03
1013  9.95722468   0.704  -2.11882   3.51991   6.84550   2.04396   0.00000   1.001E+00   0.000E+00  -1.293E-03
1014  9.95791692   0.704  -2.11879   3.51991   6.84549   2.04391   0.00000   1.001E+00   0.000E+00  -1.291E-03
1015  9.95860805   0.703  -2.11875   3.51992   6.84548   2.04385   0.00000   1.001E+00   0.000E+00  -1.290E-03
1016  9.95929809   0.703  -2.11871   3.51992   6.84547   2.04380   0.00000   1.001E+00   0.000E+00  -1.288E-03
1017  9.95998703   0.703  -2.11867   3.51992   6.84545   2.04374   0.00000   1.001E+00   0.000E+00  -1.287E-03
1018  9.96067488   0.703  -2.11863   3.51992   6.84544   2.04369   0.00000   1.001E+00   0.000E+00  -1.286E-03
1019  9.96136164   0.703  -2.11859   3.51992   6.84543   2.04364   0.00000   1.001E+00   0.000E+00  -1.284E-03
1020  9.96204732   0.703  -2.11855   3.51992   6.84541   2.04358   0.00000   1.001E+00   0.000E+00  -1.283E-03
1021  9.96273192   0.703  -2.11851   3.51992   6.84540   2.04353   0.00000   1.001E+00   0.000E+00  -1.281E-03
1022  9.96341544   0.703  -2.11847   3.51992   6.84539   2.04347   0.00000   1.001E+00   0.000E+00  -1.280E-03
1023  9.96409789   0.703  -2.11844   3.51992   6.84537   2.04342   0.00000   1.001E+00   0.000E+00  -1.278E-03
1024  9.96477926   0.703  -2.11840   3.51992   6.84536   2.04336   0.00000   1.001E+00   0.000E+00  -1.277E-03
1025  9.96545957   0.703  -2.11836   3.51992   6.84535   2.04331   0.00000   1.001E+00   0.000E+00  -1.275E-03
1026  9.96613882   0.703  -2.11832   3.51992   6.84533   2.04326   0.00000   1.001E+00   0.000E+00  -1.274E-03
1027  9.96681700   0.703  -2.11829   3.51992   6.84532   2.04320   0.00000   1.001E+00   0.000E+00  -1.273E-03
1028  9.96749412   0.703  -2.11825   3.51992   6.84531   2.04315   0.00000   1.001E+00   0.000E+00  -1.271E-03
1029  9.96817020   0.703  -2.11821   3.51992   6.84529   2.04310   0.00000   1.001E+00   0.000E+00  -1.270E-03
1030  9.96884522   0.703  -2.11817   3.51992   6.84528   2.04304   0.00000   1.001E+00   0.000E+00  -1.268E-03
1031  9.96951919   0.703  -2.11814   3.51992   6.84526   2.04299   0.00000   1.001E+00   0.000E+00  -1.267E-03
1032  9.97019212   0.703  -2.11810   3.51992   6.84525   2.04294   0.00000   1.001E+00   0.000E+00  -1.265E-03
1033  9.97086401   0.703  -2.11806   3.51992   6.84524   2.04288   0.00000   1.001E+00   0.000E+00  -1.264E-03
1034  9.97153486   0.703  -2.11802   3.51992   6.84522   2.04283   0.00000   1.001E+00   0.000E+00  -1.262E-03
1035  9.97220468   0.703  -2.11798   3.51992   6.84521   2.04278   0.00000   1.001E+00   0.000E+00  -1.261E-03
1036  9.97287346   0.703  -2.11795   3.51992   6.84520   2.04272   0.00000   1.001E+00   0.000E+00  -1.259E-03
1037  9.97354122   0.703  -2.11791   3.51992   6.84518   2.04267   0.00000   1.001E+00   0.000E+00  -1.257E-03
1038  9.97420795   0.703  -2.11787   3.51992   6.84517   2.04261   0.00000   1.001E+00   0.000E+00  -1.255E-03
1039  9.97487366   0.703  -2.11783   3.51992   6.84516   2.04256   0.00000   1.001E+00   0.000E+00  -1.253E-03
1040  9.97553835   0.703  -2.11780   3.51992   6.84514   2.04251   0.00000   1.001E+00   0.000E+00  -1.251E-03
1041  9.97620202   0.703  -2.11776   3.51992   6.84513   2.04245   0.00000   1.001E+00   0.000E+00  -1.248E-03
1042  9.97686468   0.703  -2.11772   3.51992   6.84512   2.04240   0.00000   1.001E+00   0.000E+00  -1.246E-03
1043  9.97752633   0.703  -2.11768   3.51993   6.84510   2.04235   0.00000   1.001E+00   0.000E+00  -1.244E-03
1044  9.97818698   0.703  -2.11765   3.51993   6.84509   2.04229   0.00000   1.001E+00   0.000E+00  -1.242E-03
1045  9.97884662   0.703  -2.11761   3.51993   6.84508   2.04224   0.00000   1.001E+00   0.000E+00  -1.240E-03
1046  9.97950526   0.703  -2.11757   3.51993   6.84507   2.04219   0.00000   1.001E+00   0.000E+00  -1.238E-03
1047  9.98016291   0.703  -2.11753   3.51993   6.84505   2.04213   0.00000   1.001E+00   0.000E+00  -1.235E-03
1048  9.98081956   0.703  -2.11750   3.51993   6.84504   2.04208   0.00000   1.001E+00   0.000E+00  -1.233E-03
1049  9.98147522   0.703  -2.11746   3.51993   6.84503   2.04203   0.00000   1.001E+00   0.000E+00  -1.231E-03
1050  9.98212989   0.703  -2.11742   3.51993   6.84501   2.04197   0.00000   1.001E+00   0.000E+00  -1.229E-03
1051  9.98278357   0.703  -2.11738   3.51993   6.84500   2.04192   0.00000   1.001E+00   0.000E+00  -1.228E-03
1052  9.98343627   0.703  -2.11735   3.51993   6.84499   2.04187   0.00000   1.001E+00   0.000E+00  -1.226E-03
1053  9.98408800   0.703  -2.11731   3.51993   6.84497   2.04182   0.00000   1.001E+00   0.000E+00  -1.225E-03
1054  9.98473874   0.703  -2.11727   3.51993   6.84496   2.04177   0.00000   1.001E+00   0.000E+00  -1.223E-03
1055  9.98538852   0.703  -2.11724   3.51993   6.84495   2.04171   0.00000   1.001E+00   0.000E+00  -1.222E-03
1056  9.98603732   0.703  -2.11720   3.51993   6.84494   2.04166   0.00000   1.001E+00   0.000E+00  -1.221E-03
1057  9.98668515   0.703  -2.11716   3.51993   6.84492   2.04161   0.00000   1.001E+00   0.000E+00  -1.219E-03
1058  9.98733202   0.703  -2.11713   3.51993   6.84491   2.04156   0.00000   1.001E+00   0.000E+00  -1.218E-03
1059  9.98797793   0.703  -2.11709   3.51993   6.84490   2.04151   0.00000   1.001E+00   0.000E+00  -1.216E-03
1060  9.98862288   0.703  -2.11705   3.51993   6.84488   2.04145   0.00000   1.001E+00   0.000E+00  -1.215E-03
1061  9.98926687   0.703  -2.11702   3.51993   6.84487   2.04140   0.00000   1.001E+00   0.000E+00  -1.213E-03
1062  9.98990991   0.703  -2.11698   3.51993   6.84486   2.04135   0.00000   1.001E+00   0.000E+00  -1.212E-03
1063  9.99055200   0.703  -2.11694   3.51993   6.84484   2.04130   0.00000   1.001E+00   0.000E+00  -1.210E-03
1064  9.99119314   0.703  -2.11691   3.51993   6.84483   2.04125   0.00000   1.001E+00   0.000E+00  -1.209E-03
1065  9.99183333   0.703  -2.11687   3.51993   6.84482   2.04119   0.00000   1.001E+00   0.000E+00  -1.208E-03
1066  9.99247258   0.703  -2.11683   3.51993   6.84481   2.04114   0.00000   1.001E+00   0.000E+00  -1.206E-03
1067  9.99311089   0.703  -2.11680   3.51993   6.84479   2.04109   0.00000   1.001E+00   0.000E+00  -1.205E-03
1068  9.99374827   0.703  -2.11676   3.51993   6.84478   2.04104   0.00000   1.001E+00   0.000E+00  -1.203E-03
1069  9.99438471   0.703  -2.11673   3.51993   6.84477   2.04098   0.00000   1.001E+00   0.000E+00  -1.202E-03
1070  9.99502022   0.703  -2.11669   3.51993   6.84476   2.04093   0.00000   1.001E+00   0.000E+00  -1.200E-03
1071  9.99565480   0.703  -2.11665   3.51994   6.84475   2.04088   0.00000   1.001E+00   0.000E+00  -1.199E-03
1072  9.99628846   0.703  -2.11662   3.51994   6.84473   2.04083   0.00000   1.001E+00   0.000E+00  -1.197E-03
1073  9.99692119   0.703  -2.11658   3.51994   6.84472   2.04078   0.00000   1.001E+00   0.000E+00  -1.196E-03
1074  9.99755301   0.703  -2.11654   3.51994   6.84471   2.04072   0.00000   1.001E+00   0.000E+00  -1.195E-03
1075  9.99818390   0.703  -2.11651   3.51994   6.84470   2.04067   0.00000   1.001E+00   0.000E+00  -1.193E-03
1076  9.99881388   0.703  -2.11647   3.51994   6.84468   2.04062   0.00000   1.001E+00   0.000E+00  -1.192E-03
1077  9.99944295   0.703  -2.11644   3.51994   6.84467   2.04057   0.00000   1.001E+00   0.000E+00  -1.190E-03
1078 10.00007110   0.703  -2.11640   3.51994   6.84466   2.04052   0.00000   1.001E+00   0.000E+00  -1.189E-03
1079 10.00069835   0.703  -2.11636   3.51994   6.84465   2.04047   0.00000   1.001E+00   0.000E+00  -1.187E-03
1080 10.00132470   0.703  -2.11633   3.51994   6.84464   2.04042   0.00000   1.001E+00   0.000E+00  -1.186E-03
1081 10.00195014   0.703  -2.11629   3.51994   6.84462   2.04037   0.00000   1.001E+00   0.000E+00  -1.184E-03
1082 10.00257468   0.703  -2.11626   3.51994   6.84461   2.04032   0.00000   1.001E+00   0.000E+00  -1.183E-03
1083 10.00319833   0.703  -2.11622   3.51994   6.84460   2.04026   0.00000   1.001E+00   0.000E+00  -1.182E-03
1084 10.00382108   0.703  -2.11619   3.51994   6.84459   2.04021   0.00000   1.001E+00   0.000E+00  -1.180E-03
1085 10.00444294   0.703  -2.11615   3.51994   6.84457   2.04016   0.00000   1.001E+00   0.000E+00  -1.179E-03
1086 10.00506392   0.703  -2.11612   3.51994   6.84456   2.04011   0.00000   1.001E+00   0.000E+00  -1.177E-03
1087 10.00568400   0.703  -2.11608   3.51994   6.84455   2.04006   0.00000   1.001E+00   0.000E+00  -1.176E-03
1088 10.00630320   0.703  -2.11605   3.51994   6.84454   2.04001   0.00000   1.001E+00   0.000E+00  -1.174E-03
1089 10.00692152   0.703  -2.11601   3.51994   6.84452   2.03996   0.00000   1.001E+00   0.000E+00  -1.173E-03
1090 10.00753896   0.703  -2.11598   3.51994   6.84451   2.03991   0.00000   1.001E+00   0.000E+00  -1.171E-03
1091 10.00815553   0.703  -2.11594   3.51994   6.84450   2.03986   0.00000   1.001E+00   0.000E+00  -1.170E-03
