 # M = 0.30 Mo, Y = 0.2700, Z = 2.00000E-02, alpha = 1.68, X_D = 4.0E-05
 # Solar Mixture: Asplund et al. (2005)         
 # ------------------------------------------------------------------------------------------------------------
 # NMD   LOG AGE    Xc      LOG L     LOG TE    LOG Tc   LOG RHOc    M-CC       L-PP       L-CNO       L-GRA
 #        (yr)              (Lo)        (K)       (K)   (gr/cm^3)    (Mo)        (L)         (L)         (L)
 # ------------------------------------------------------------------------------------------------------------
   1  5.16049925   0.710  -0.14740   3.53081   6.00034  -0.70726   0.00000   1.013E+00   0.000E+00  -1.250E-02
   2  5.44164209   0.710  -0.15636   3.53062   6.00422  -0.69559   0.00000   9.477E-01   0.000E+00   5.240E-02
   3  5.61089664   0.710  -0.16631   3.53041   6.00856  -0.68253   0.00000   9.421E-01   0.000E+00   5.789E-02
   4  5.73237624   0.710  -0.17534   3.53022   6.01250  -0.67067   0.00000   9.450E-01   0.000E+00   5.503E-02
   5  5.82719746   0.710  -0.18357   3.53004   6.01607  -0.65993   0.00000   9.495E-01   0.000E+00   5.093E-02
   6  5.90498058   0.710  -0.19104   3.52989   6.01934  -0.65012   0.00000   9.521E-01   0.000E+00   4.827E-02
   7  5.97092595   0.710  -0.19809   3.52975   6.02243  -0.64080   0.00000   9.537E-01   0.000E+00   4.638E-02
   8  6.02816531   0.710  -0.20508   3.52961   6.02550  -0.63159   0.00000   9.550E-01   0.000E+00   4.492E-02
   9  6.07873158   0.710  -0.21178   3.52949   6.02845  -0.62271   0.00000   9.550E-01   0.000E+00   4.503E-02
  10  6.12401950   0.710  -0.21848   3.52936   6.03141  -0.61383   0.00000   9.550E-01   0.000E+00   4.514E-02
  11  6.16502762   0.710  -0.22526   3.52923   6.03440  -0.60483   0.00000   9.544E-01   0.000E+00   4.578E-02
  12  6.20249544   0.710  -0.23214   3.52912   6.03745  -0.59565   0.00000   9.527E-01   0.000E+00   4.729E-02
  13  6.23698597   0.710  -0.23903   3.52900   6.04051  -0.58647   0.00000   9.510E-01   0.000E+00   4.880E-02
  14  6.26893774   0.710  -0.24619   3.52888   6.04369  -0.57691   0.00000   9.489E-01   0.000E+00   5.091E-02
  15  6.29869900   0.710  -0.25375   3.52875   6.04705  -0.56680   0.00000   9.461E-01   0.000E+00   5.390E-02
  16  6.32655093   0.710  -0.26130   3.52862   6.05041  -0.55669   0.00000   9.434E-01   0.000E+00   5.690E-02
  17  6.35272382   0.710  -0.26943   3.52849   6.05404  -0.54577   0.00000   9.392E-01   0.000E+00   6.109E-02
  18  6.37740864   0.710  -0.27811   3.52836   6.05793  -0.53404   0.00000   9.335E-01   0.000E+00   6.650E-02
  19  6.40076554   0.710  -0.28680   3.52823   6.06183  -0.52232   0.00000   9.278E-01   0.000E+00   7.190E-02
  20  6.42293013   0.710  -0.29692   3.52808   6.06639  -0.50861   0.00000   9.192E-01   0.000E+00   8.055E-02
  21  6.44401825   0.710  -0.30729   3.52793   6.07106  -0.49456   0.00000   9.101E-01   0.000E+00   8.976E-02
  22  6.46412963   0.710  -0.31892   3.52777   6.07631  -0.47874   0.00000   8.972E-01   0.000E+00   1.028E-01
  23  6.48335077   0.710  -0.33159   3.52760   6.08205  -0.46147   0.00000   8.811E-01   0.000E+00   1.189E-01
  24  6.50175714   0.710  -0.34612   3.52742   6.08865  -0.44160   0.00000   8.581E-01   0.000E+00   1.419E-01
  25  6.51941503   0.710  -0.36195   3.52722   6.09584  -0.41994   0.00000   8.301E-01   0.000E+00   1.699E-01
  26  6.53638293   0.710  -0.38124   3.52700   6.10466  -0.39337   0.00000   7.846E-01   0.000E+00   2.154E-01
  27  6.55271274   0.710  -0.40370   3.52676   6.11496  -0.36237   0.00000   7.200E-01   0.000E+00   2.800E-01
  28  6.56845073   0.710  -0.43029   3.52648   6.12720  -0.32558   0.00000   6.267E-01   0.000E+00   3.733E-01
  29  6.58363829   0.710  -0.46207   3.52618   6.14189  -0.28132   0.00000   4.941E-01   0.000E+00   5.059E-01
  30  6.59831263   0.710  -0.49867   3.52584   6.15885  -0.23023   0.00000   3.348E-01   0.000E+00   6.652E-01
  31  6.61250730   0.710  -0.53825   3.52551   6.17728  -0.17476   0.00000   1.860E-01   0.000E+00   8.131E-01
  32  6.62625268   0.710  -0.57558   3.52520   6.19473  -0.12219   0.00000   1.475E-01   0.000E+00   8.525E-01
  33  6.63957633   0.710  -0.60982   3.52495   6.21074  -0.07388   0.00000   1.138E-01   0.000E+00   8.862E-01
  34  6.65250336   0.710  -0.64148   3.52475   6.22568  -0.02892   0.00000   8.280E-02   0.000E+00   9.172E-01
  35  6.66505671   0.710  -0.67077   3.52458   6.23948   0.01272   0.00000   5.744E-02   0.000E+00   9.426E-01
  36  6.67725737   0.710  -0.69787   3.52445   6.25230   0.05144   0.00000   3.765E-02   0.000E+00   9.624E-01
  37  6.68912462   0.710  -0.72289   3.52435   6.26425   0.08745   0.00000   2.415E-02   0.000E+00   9.758E-01
  38  6.70067620   0.710  -0.74615   3.52427   6.27538   0.12102   0.00000   1.458E-02   0.000E+00   9.854E-01
  39  6.71192847   0.710  -0.76778   3.52422   6.28573   0.15229   0.00000   9.303E-03   0.000E+00   9.907E-01
  40  6.72289655   0.710  -0.78791   3.52419   6.29539   0.18149   0.00000   6.008E-03   0.000E+00   9.940E-01
  41  6.73359444   0.710  -0.80671   3.52417   6.30443   0.20885   0.00000   3.000E-03   0.000E+00   9.970E-01
  42  6.74631784   0.710  -0.82801   3.52416   6.31473   0.24000   0.00000   1.862E-03   0.000E+00   9.981E-01
  43  6.75867907   0.710  -0.84787   3.52417   6.32435   0.26912   0.00000   1.000E-03   0.000E+00   9.990E-01
  44  6.77069817   0.710  -0.86645   3.52420   6.33337   0.29643   0.00000   8.088E-04   0.000E+00   9.992E-01
  45  6.78239359   0.710  -0.88389   3.52423   6.34187   0.32214   0.00000   0.000E+00   0.000E+00   1.000E+00
  46  6.79378230   0.710  -0.90033   3.52427   6.34991   0.34647   0.00000   0.000E+00   0.000E+00   1.000E+00
  47  6.80487997   0.710  -0.91573   3.52431   6.35744   0.36932   0.00000   0.000E+00   0.000E+00   1.000E+00
  48  6.81570111   0.710  -0.93034   3.52436   6.36461   0.39103   0.00000   0.000E+00   0.000E+00   1.000E+00
  49  6.82625916   0.710  -0.94428   3.52441   6.37146   0.41179   0.00000   0.000E+00   0.000E+00   1.000E+00
  50  6.83656662   0.710  -0.95765   3.52447   6.37804   0.43174   0.00000   0.000E+00   0.000E+00   1.000E+00
  51  6.84663511   0.710  -0.97025   3.52453   6.38424   0.45057   0.00000   0.000E+00   0.000E+00   1.000E+00
  52  6.85647545   0.710  -0.98234   3.52458   6.39021   0.46868   0.00000   0.000E+00   0.000E+00   1.000E+00
  53  6.86609776   0.710  -0.99411   3.52464   6.39602   0.48630   0.00000   0.000E+00   0.000E+00   1.000E+00
  54  6.87551149   0.710  -1.00513   3.52471   6.40147   0.50285   0.00000   0.000E+00   0.000E+00   1.000E+00
  55  6.88472548   0.710  -1.01592   3.52477   6.40681   0.51906   0.00000   0.000E+00   0.000E+00   1.000E+00
  56  6.89374805   0.710  -1.02624   3.52483   6.41192   0.53457   0.00000   0.000E+00   0.000E+00   1.000E+00
  57  6.90258698   0.710  -1.03621   3.52489   6.41687   0.54958   0.00000   0.000E+00   0.000E+00   1.000E+00
  58  6.91124960   0.710  -1.04585   3.52495   6.42166   0.56412   0.00000   0.000E+00   0.000E+00   1.000E+00
  59  6.91974281   0.710  -1.05514   3.52501   6.42627   0.57814   0.00000   0.000E+00   0.000E+00   1.000E+00
  60  6.92807310   0.710  -1.06417   3.52507   6.43075   0.59177   0.00000   0.000E+00   0.000E+00   1.000E+00
  61  6.93624661   0.710  -1.07292   3.52513   6.43509   0.60497   0.00000   0.000E+00   0.000E+00   1.000E+00
  62  6.94426913   0.710  -1.08138   3.52518   6.43930   0.61775   0.00000   0.000E+00   0.000E+00   1.000E+00
  63  6.95214613   0.710  -1.08968   3.52524   6.44342   0.63029   0.00000   0.000E+00   0.000E+00   1.000E+00
  64  6.95988281   0.710  -1.09760   3.52529   6.44736   0.64226   0.00000   0.000E+00   0.000E+00   1.000E+00
  65  6.96748407   0.710  -1.10551   3.52535   6.45129   0.65423   0.00000   0.000E+00   0.000E+00   1.000E+00
  66  6.97495458   0.710  -1.11296   3.52540   6.45500   0.66550   0.00000   0.000E+00   0.000E+00   1.000E+00
  67  6.98229875   0.710  -1.12038   3.52545   6.45869   0.67672   0.00000   0.000E+00   0.000E+00   1.000E+00
  68  6.98952079   0.710  -1.12761   3.52550   6.46228   0.68766   0.00000   0.000E+00   0.000E+00   1.000E+00
  69  6.99662470   0.710  -1.13456   3.52554   6.46574   0.69817   0.00000   0.000E+00   0.000E+00   1.000E+00
  70  7.00361427   0.710  -1.14150   3.52559   6.46919   0.70868   0.00000   0.000E+00   0.000E+00   1.000E+00
  71  7.01049313   0.710  -1.14815   3.52563   6.47249   0.71873   0.00000   0.000E+00   0.000E+00   1.000E+00
  72  7.01726473   0.710  -1.15466   3.52568   6.47572   0.72858   0.00000   0.000E+00   0.000E+00   1.000E+00
  73  7.02393237   0.710  -1.16117   3.52572   6.47896   0.73843   0.00000   0.000E+00   0.000E+00   1.000E+00
  74  7.03049919   0.710  -1.16734   3.52576   6.48202   0.74777   0.00000   0.000E+00   0.000E+00   1.000E+00
  75  7.03696819   0.710  -1.17345   3.52580   6.48505   0.75700   0.00000   0.000E+00   0.000E+00   1.000E+00
  76  7.04334224   0.710  -1.17955   3.52584   6.48808   0.76623   0.00000   0.000E+00   0.000E+00   1.000E+00
  77  7.04962409   0.710  -1.18537   3.52588   6.49097   0.77502   0.00000   0.000E+00   0.000E+00   1.000E+00
  78  7.05581638   0.710  -1.19109   3.52591   6.49381   0.78367   0.00000   0.000E+00   0.000E+00   1.000E+00
  79  7.06192161   0.710  -1.19681   3.52595   6.49665   0.79232   0.00000   0.000E+00   0.000E+00   1.000E+00
  80  7.06794220   0.710  -1.20236   3.52598   6.49940   0.80071   0.00000   0.000E+00   0.000E+00   1.000E+00
  81  7.07388047   0.710  -1.20773   3.52602   6.50205   0.80882   0.00000   0.000E+00   0.000E+00   1.000E+00
  82  7.07973864   0.710  -1.21309   3.52605   6.50471   0.81692   0.00000   0.000E+00   0.000E+00   1.000E+00
  83  7.08551884   0.710  -1.21846   3.52608   6.50736   0.82503   0.00000   0.000E+00   0.000E+00   1.000E+00
  84  7.09122312   0.710  -1.22350   3.52611   6.50985   0.83263   0.00000   0.000E+00   0.000E+00   1.000E+00
  85  7.09685344   0.710  -1.22854   3.52613   6.51234   0.84022   0.00000   0.000E+00   0.000E+00   1.000E+00
  86  7.10241171   0.710  -1.23358   3.52616   6.51482   0.84781   0.00000   0.000E+00   0.000E+00   1.000E+00
  87  7.10789973   0.710  -1.23854   3.52619   6.51727   0.85528   0.00000   0.000E+00   0.000E+00   1.000E+00
  88  7.11331927   0.710  -1.24325   3.52621   6.51960   0.86240   0.00000   0.000E+00   0.000E+00   1.000E+00
  89  7.11867202   0.710  -1.24797   3.52624   6.52193   0.86951   0.00000   0.000E+00   0.000E+00   1.000E+00
  90  7.12395959   0.710  -1.25269   3.52626   6.52426   0.87662   0.00000   0.000E+00   0.000E+00   1.000E+00
  91  7.12918356   0.710  -1.25732   3.52629   6.52655   0.88360   0.00000   0.000E+00   0.000E+00   1.000E+00
  92  7.13434543   0.710  -1.26175   3.52631   6.52873   0.89026   0.00000   0.000E+00   0.000E+00   1.000E+00
  93  7.13944668   0.710  -1.26618   3.52633   6.53091   0.89693   0.00000   0.000E+00   0.000E+00   1.000E+00
  94  7.14448870   0.710  -1.27060   3.52635   6.53309   0.90359   0.00000   0.000E+00   0.000E+00   1.000E+00
  95  7.14947286   0.710  -1.27502   3.52637   6.53526   0.91023   0.00000   0.000E+00   0.000E+00   1.000E+00
  96  7.15440046   0.710  -1.27917   3.52639   6.53730   0.91648   0.00000   0.000E+00   0.000E+00   1.000E+00
  97  7.15927278   0.710  -1.28331   3.52641   6.53934   0.92272   0.00000   0.000E+00   0.000E+00   1.000E+00
  98  7.16409104   0.710  -1.28746   3.52642   6.54138   0.92896   0.00000   0.000E+00   0.000E+00   1.000E+00
  99  7.16885644   0.710  -1.29161   3.52644   6.54342   0.93520   0.00000   0.000E+00   0.000E+00   1.000E+00
 100  7.17357011   0.710  -1.29562   3.52646   6.54539   0.94124   0.00000   0.000E+00   0.000E+00   1.000E+00
 101  7.17823317   0.710  -1.29952   3.52647   6.54730   0.94708   0.00000   0.000E+00   0.000E+00   1.000E+00
 102  7.18284669   0.710  -1.30341   3.52649   6.54921   0.95292   0.00000   0.000E+00   0.000E+00   1.000E+00
 103  7.18741172   0.710  -1.30731   3.52650   6.55112   0.95876   0.00000   0.000E+00   0.000E+00   1.000E+00
 104  7.19192927   0.710  -1.31120   3.52652   6.55303   0.96460   0.00000   0.000E+00   0.000E+00   1.000E+00
 105  7.19640030   0.710  -1.31493   3.52653   6.55485   0.97018   0.00000   0.000E+00   0.000E+00   1.000E+00
 106  7.20082578   0.710  -1.31858   3.52654   6.55664   0.97564   0.00000   0.000E+00   0.000E+00   1.000E+00
 107  7.20520661   0.710  -1.32223   3.52656   6.55842   0.98111   0.00000   0.000E+00   0.000E+00   1.000E+00
 108  7.20954369   0.710  -1.32588   3.52657   6.56021   0.98657   0.00000   0.000E+00   0.000E+00   1.000E+00
 109  7.21383789   0.710  -1.32953   3.52658   6.56199   0.99204   0.00000   0.000E+00   0.000E+00   1.000E+00
 110  7.21809005   0.710  -1.33305   3.52660   6.56371   0.99731   0.00000   0.000E+00   0.000E+00   1.000E+00
 111  7.22230097   0.710  -1.33648   3.52660   6.56539   1.00243   0.00000   0.000E+00   0.000E+00   1.000E+00
 112  7.22647146   0.710  -1.33991   3.52661   6.56706   1.00756   0.00000   0.000E+00   0.000E+00   1.000E+00
 113  7.23060228   0.710  -1.34333   3.52662   6.56873   1.01268   0.00000   0.000E+00   0.000E+00   1.000E+00
 114  7.23469418   0.710  -1.34676   3.52663   6.57040   1.01780   0.00000   0.000E+00   0.000E+00   1.000E+00
 115  7.23874788   0.710  -1.35016   3.52664   6.57207   1.02289   0.00000   0.000E+00   0.000E+00   1.000E+00
 116  7.24276410   0.710  -1.35338   3.52665   6.57363   1.02769   0.00000   0.000E+00   0.000E+00   1.000E+00
 117  7.24674352   0.710  -1.35659   3.52665   6.57520   1.03249   0.00000   0.000E+00   0.000E+00   1.000E+00
 118  7.25068680   0.710  -1.35981   3.52666   6.57676   1.03729   0.00000   0.000E+00   0.000E+00   1.000E+00
 119  7.25459460   0.710  -1.36302   3.52667   6.57832   1.04209   0.00000   0.000E+00   0.000E+00   1.000E+00
 120  7.25846756   0.710  -1.36624   3.52667   6.57989   1.04689   0.00000   0.000E+00   0.000E+00   1.000E+00
 121  7.26230628   0.710  -1.36940   3.52668   6.58143   1.05161   0.00000   0.000E+00   0.000E+00   1.000E+00
 122  7.26611136   0.710  -1.37242   3.52669   6.58289   1.05611   0.00000   0.000E+00   0.000E+00   1.000E+00
 123  7.26988340   0.710  -1.37544   3.52669   6.58436   1.06061   0.00000   0.000E+00   0.000E+00   1.000E+00
 124  7.27362296   0.710  -1.37846   3.52670   6.58582   1.06510   0.00000   0.000E+00   0.000E+00   1.000E+00
 125  7.27733059   0.710  -1.38148   3.52670   6.58729   1.06960   0.00000   0.000E+00   0.000E+00   1.000E+00
 126  7.28100684   0.710  -1.38449   3.52671   6.58875   1.07410   0.00000   0.000E+00   0.000E+00   1.000E+00
 127  7.28465223   0.710  -1.38751   3.52671   6.59022   1.07859   0.00000   4.128E-06   0.000E+00   1.000E+00
 128  7.28826727   0.710  -1.39034   3.52671   6.59159   1.08280   0.00000   1.550E-04   0.000E+00   9.998E-01
 129  7.29185248   0.710  -1.39317   3.52672   6.59296   1.08701   0.00000   3.059E-04   0.000E+00   9.997E-01
 130  7.29540832   0.710  -1.39600   3.52672   6.59433   1.09123   0.00000   4.568E-04   0.000E+00   9.995E-01
 131  7.29893529   0.710  -1.39884   3.52673   6.59570   1.09544   0.00000   6.077E-04   0.000E+00   9.994E-01
 132  7.30243385   0.710  -1.40167   3.52673   6.59708   1.09966   0.00000   7.586E-04   0.000E+00   9.992E-01
 133  7.30590445   0.710  -1.40450   3.52674   6.59845   1.10387   0.00000   9.094E-04   0.000E+00   9.991E-01
 134  7.30934753   0.710  -1.40726   3.52674   6.59978   1.10798   0.00000   1.000E-03   0.000E+00   9.990E-01
 135  7.31276354   0.710  -1.40992   3.52674   6.60107   1.11192   0.00000   1.000E-03   0.000E+00   9.990E-01
 136  7.31615288   0.710  -1.41258   3.52674   6.60235   1.11587   0.00000   1.000E-03   0.000E+00   9.990E-01
 137  7.31951597   0.710  -1.41524   3.52674   6.60364   1.11982   0.00000   1.000E-03   0.000E+00   9.990E-01
 138  7.32285323   0.710  -1.41789   3.52675   6.60492   1.12376   0.00000   1.000E-03   0.000E+00   9.990E-01
 139  7.32616503   0.710  -1.42055   3.52675   6.60621   1.12771   0.00000   1.000E-03   0.000E+00   9.990E-01
 140  7.32945177   0.710  -1.42321   3.52675   6.60749   1.13166   0.00000   1.000E-03   0.000E+00   9.990E-01
 141  7.33271382   0.710  -1.42581   3.52675   6.60875   1.13552   0.00000   1.000E-03   0.000E+00   9.990E-01
 142  7.33595156   0.710  -1.42831   3.52675   6.60995   1.13922   0.00000   1.000E-03   0.000E+00   9.990E-01
 143  7.33916533   0.710  -1.43080   3.52675   6.61115   1.14291   0.00000   1.000E-03   0.000E+00   9.990E-01
 144  7.34235550   0.710  -1.43330   3.52675   6.61235   1.14661   0.00000   1.000E-03   0.000E+00   9.990E-01
 145  7.34552240   0.710  -1.43579   3.52676   6.61356   1.15031   0.00000   1.000E-03   0.000E+00   9.990E-01
 146  7.34866638   0.710  -1.43829   3.52676   6.61476   1.15401   0.00000   1.000E-03   0.000E+00   9.990E-01
 147  7.35178776   0.710  -1.44078   3.52676   6.61596   1.15770   0.00000   1.000E-03   0.000E+00   9.990E-01
 148  7.35488686   0.710  -1.44328   3.52676   6.61717   1.16140   0.00000   1.000E-03   0.000E+00   9.990E-01
 149  7.35796401   0.710  -1.44565   3.52676   6.61831   1.16491   0.00000   1.000E-03   0.000E+00   9.990E-01
 150  7.36101951   0.710  -1.44799   3.52676   6.61943   1.16837   0.00000   1.000E-03   0.000E+00   9.990E-01
 151  7.36405366   0.710  -1.45033   3.52676   6.62056   1.17184   0.00000   1.000E-03   0.000E+00   9.990E-01
 152  7.36706676   0.710  -1.45267   3.52676   6.62169   1.17530   0.00000   1.000E-03   0.000E+00   9.990E-01
 153  7.37005910   0.710  -1.45501   3.52676   6.62281   1.17877   0.00000   1.000E-03   0.000E+00   9.990E-01
 154  7.37303097   0.710  -1.45735   3.52676   6.62394   1.18223   0.00000   1.000E-03   0.000E+00   9.990E-01
 155  7.37598263   0.710  -1.45969   3.52676   6.62507   1.18570   0.00000   1.000E-03   0.000E+00   9.990E-01
 156  7.37891437   0.710  -1.46203   3.52676   6.62619   1.18916   0.00000   1.000E-03   0.000E+00   9.990E-01
 157  7.38182645   0.710  -1.46425   3.52676   6.62726   1.19246   0.00000   1.093E-03   0.000E+00   9.989E-01
 158  7.38471914   0.710  -1.46645   3.52676   6.62832   1.19570   0.00000   1.211E-03   0.000E+00   9.988E-01
 159  7.38759268   0.710  -1.46865   3.52676   6.62937   1.19895   0.00000   1.328E-03   0.000E+00   9.987E-01
 160  7.39044734   0.710  -1.47085   3.52676   6.63043   1.20220   0.00000   1.445E-03   0.000E+00   9.986E-01
 161  7.39328336   0.710  -1.47304   3.52675   6.63148   1.20545   0.00000   1.562E-03   0.000E+00   9.984E-01
 162  7.39610097   0.710  -1.47524   3.52675   6.63253   1.20870   0.00000   1.679E-03   0.000E+00   9.983E-01
 163  7.39890043   0.710  -1.47744   3.52675   6.63359   1.21195   0.00000   1.796E-03   0.000E+00   9.982E-01
 164  7.40168195   0.710  -1.47963   3.52675   6.63464   1.21520   0.00000   1.913E-03   0.000E+00   9.981E-01
 165  7.40444577   0.710  -1.48179   3.52675   6.63568   1.21839   0.00000   2.000E-03   0.000E+00   9.980E-01
 166  7.40719212   0.710  -1.48385   3.52675   6.63667   1.22144   0.00000   2.000E-03   0.000E+00   9.980E-01
 167  7.40992121   0.710  -1.48592   3.52675   6.63766   1.22449   0.00000   2.000E-03   0.000E+00   9.980E-01
 168  7.41263325   0.710  -1.48798   3.52674   6.63864   1.22753   0.00000   2.000E-03   0.000E+00   9.980E-01
 169  7.41532846   0.710  -1.49004   3.52674   6.63963   1.23058   0.00000   2.000E-03   0.000E+00   9.980E-01
 170  7.41800705   0.710  -1.49210   3.52674   6.64062   1.23362   0.00000   2.000E-03   0.000E+00   9.980E-01
 171  7.42066923   0.710  -1.49416   3.52674   6.64161   1.23667   0.00000   2.000E-03   0.000E+00   9.980E-01
 172  7.42331518   0.710  -1.49622   3.52673   6.64259   1.23972   0.00000   2.000E-03   0.000E+00   9.980E-01
 173  7.42594511   0.710  -1.49828   3.52673   6.64358   1.24276   0.00000   2.000E-03   0.000E+00   9.980E-01
 174  7.42855920   0.710  -1.50032   3.52673   6.64456   1.24578   0.00000   2.016E-03   0.000E+00   9.980E-01
 175  7.43115766   0.710  -1.50225   3.52673   6.64548   1.24864   0.00000   2.119E-03   0.000E+00   9.979E-01
 176  7.43374067   0.710  -1.50419   3.52673   6.64641   1.25150   0.00000   2.222E-03   0.000E+00   9.978E-01
 177  7.43630840   0.710  -1.50612   3.52672   6.64733   1.25435   0.00000   2.325E-03   0.000E+00   9.977E-01
 178  7.43886104   0.710  -1.50805   3.52672   6.64826   1.25721   0.00000   2.428E-03   0.000E+00   9.976E-01
 179  7.44139876   0.710  -1.50998   3.52672   6.64918   1.26007   0.00000   2.531E-03   0.000E+00   9.975E-01
 180  7.44392174   0.710  -1.51192   3.52672   6.65010   1.26293   0.00000   2.634E-03   0.000E+00   9.974E-01
 181  7.44643015   0.710  -1.51385   3.52672   6.65103   1.26578   0.00000   2.737E-03   0.000E+00   9.973E-01
 182  7.44892415   0.710  -1.51578   3.52671   6.65195   1.26864   0.00000   2.840E-03   0.000E+00   9.972E-01
 183  7.45140391   0.710  -1.51771   3.52671   6.65288   1.27150   0.00000   2.943E-03   0.000E+00   9.971E-01
 184  7.45386960   0.710  -1.51959   3.52671   6.65377   1.27427   0.00000   3.000E-03   0.000E+00   9.970E-01
 185  7.45632136   0.710  -1.52141   3.52671   6.65464   1.27694   0.00000   3.000E-03   0.000E+00   9.970E-01
 186  7.45875936   0.710  -1.52322   3.52671   6.65551   1.27962   0.00000   3.000E-03   0.000E+00   9.970E-01
 187  7.46118375   0.710  -1.52503   3.52670   6.65637   1.28229   0.00000   3.000E-03   0.000E+00   9.970E-01
 188  7.46359469   0.710  -1.52685   3.52670   6.65724   1.28496   0.00000   3.000E-03   0.000E+00   9.970E-01
 189  7.46599231   0.710  -1.52866   3.52670   6.65810   1.28763   0.00000   3.000E-03   0.000E+00   9.970E-01
 190  7.46837677   0.710  -1.53047   3.52670   6.65897   1.29030   0.00000   3.000E-03   0.000E+00   9.970E-01
 191  7.47074820   0.710  -1.53229   3.52670   6.65984   1.29297   0.00000   3.000E-03   0.000E+00   9.970E-01
 192  7.47310676   0.710  -1.53410   3.52669   6.66070   1.29564   0.00000   3.000E-03   0.000E+00   9.970E-01
 193  7.47545258   0.710  -1.53591   3.52669   6.66157   1.29831   0.00000   3.000E-03   0.000E+00   9.970E-01
 194  7.47778580   0.710  -1.53771   3.52669   6.66243   1.30096   0.00000   3.009E-03   0.000E+00   9.970E-01
 195  7.48010655   0.710  -1.53941   3.52669   6.66324   1.30347   0.00000   3.099E-03   0.000E+00   9.969E-01
 196  7.48241496   0.710  -1.54111   3.52668   6.66405   1.30597   0.00000   3.190E-03   0.000E+00   9.968E-01
 197  7.48471117   0.710  -1.54281   3.52668   6.66486   1.30847   0.00000   3.281E-03   0.000E+00   9.967E-01
 198  7.48699530   0.710  -1.54451   3.52668   6.66567   1.31098   0.00000   3.371E-03   0.000E+00   9.966E-01
 199  7.48926748   0.710  -1.54621   3.52668   6.66648   1.31348   0.00000   3.462E-03   0.000E+00   9.965E-01
 200  7.49152783   0.710  -1.54791   3.52667   6.66729   1.31599   0.00000   3.553E-03   0.000E+00   9.964E-01
 201  7.49377648   0.710  -1.54961   3.52667   6.66810   1.31849   0.00000   3.643E-03   0.000E+00   9.964E-01
 202  7.49601355   0.710  -1.55131   3.52667   6.66891   1.32099   0.00000   3.734E-03   0.000E+00   9.963E-01
 203  7.49823916   0.710  -1.55301   3.52667   6.66972   1.32350   0.00000   3.824E-03   0.000E+00   9.962E-01
 204  7.50045341   0.710  -1.55471   3.52666   6.67053   1.32600   0.00000   3.915E-03   0.000E+00   9.961E-01
 205  7.50265644   0.710  -1.55640   3.52666   6.67134   1.32850   0.00000   4.005E-03   0.000E+00   9.960E-01
 206  7.50484834   0.710  -1.55799   3.52666   6.67209   1.33084   0.00000   4.090E-03   0.000E+00   9.959E-01
 207  7.50702924   0.710  -1.55958   3.52665   6.67285   1.33319   0.00000   4.175E-03   0.000E+00   9.958E-01
 208  7.50919924   0.710  -1.56117   3.52665   6.67361   1.33553   0.00000   4.260E-03   0.000E+00   9.957E-01
 209  7.51135846   0.710  -1.56276   3.52665   6.67437   1.33788   0.00000   4.345E-03   0.000E+00   9.957E-01
 210  7.51350699   0.710  -1.56436   3.52664   6.67513   1.34022   0.00000   4.430E-03   0.000E+00   9.956E-01
 211  7.51564494   0.710  -1.56595   3.52664   6.67588   1.34257   0.00000   4.515E-03   0.000E+00   9.955E-01
 212  7.51777242   0.710  -1.56754   3.52664   6.67664   1.34492   0.00000   4.600E-03   0.000E+00   9.954E-01
 213  7.51988953   0.710  -1.56913   3.52663   6.67740   1.34726   0.00000   4.685E-03   0.000E+00   9.953E-01
 214  7.52199637   0.710  -1.57072   3.52663   6.67816   1.34961   0.00000   4.770E-03   0.000E+00   9.952E-01
 215  7.52409304   0.710  -1.57231   3.52663   6.67892   1.35195   0.00000   4.855E-03   0.000E+00   9.951E-01
 216  7.52617963   0.710  -1.57390   3.52662   6.67967   1.35430   0.00000   4.940E-03   0.000E+00   9.951E-01
 217  7.52825625   0.710  -1.57547   3.52662   6.68042   1.35660   0.00000   5.047E-03   0.000E+00   9.950E-01
 218  7.53032299   0.710  -1.57696   3.52662   6.68113   1.35880   0.00000   5.206E-03   0.000E+00   9.948E-01
 219  7.53237993   0.710  -1.57845   3.52661   6.68184   1.36100   0.00000   5.365E-03   0.000E+00   9.946E-01
 220  7.53442718   0.710  -1.57994   3.52661   6.68254   1.36320   0.00000   5.524E-03   0.000E+00   9.945E-01
 221  7.53646483   0.710  -1.58143   3.52661   6.68325   1.36540   0.00000   5.683E-03   0.000E+00   9.943E-01
 222  7.53849295   0.710  -1.58292   3.52661   6.68396   1.36760   0.00000   5.842E-03   0.000E+00   9.942E-01
 223  7.54051166   0.710  -1.58441   3.52660   6.68467   1.36980   0.00000   6.002E-03   0.000E+00   9.940E-01
 224  7.54252102   0.710  -1.58590   3.52660   6.68538   1.37199   0.00000   6.161E-03   0.000E+00   9.938E-01
 225  7.54452112   0.710  -1.58739   3.52660   6.68609   1.37419   0.00000   6.320E-03   0.000E+00   9.937E-01
 226  7.54651206   0.710  -1.58888   3.52660   6.68680   1.37639   0.00000   6.479E-03   0.000E+00   9.935E-01
 227  7.54849391   0.710  -1.59037   3.52660   6.68751   1.37859   0.00000   6.638E-03   0.000E+00   9.934E-01
 228  7.55046676   0.710  -1.59186   3.52659   6.68822   1.38079   0.00000   6.797E-03   0.000E+00   9.932E-01
 229  7.55243069   0.710  -1.59335   3.52659   6.68893   1.38299   0.00000   6.957E-03   0.000E+00   9.930E-01
 230  7.55438578   0.710  -1.59477   3.52659   6.68960   1.38509   0.00000   7.108E-03   0.000E+00   9.929E-01
 231  7.55633211   0.710  -1.59617   3.52659   6.69027   1.38715   0.00000   7.257E-03   0.000E+00   9.927E-01
 232  7.55826975   0.710  -1.59756   3.52658   6.69093   1.38920   0.00000   7.407E-03   0.000E+00   9.926E-01
 233  7.56019878   0.710  -1.59896   3.52658   6.69159   1.39126   0.00000   7.556E-03   0.000E+00   9.924E-01
 234  7.56211929   0.710  -1.60036   3.52658   6.69226   1.39332   0.00000   7.705E-03   0.000E+00   9.923E-01
 235  7.56403134   0.710  -1.60175   3.52658   6.69292   1.39538   0.00000   7.854E-03   0.000E+00   9.921E-01
 236  7.56593500   0.710  -1.60315   3.52657   6.69358   1.39744   0.00000   8.003E-03   0.000E+00   9.920E-01
 237  7.56783036   0.710  -1.60454   3.52657   6.69425   1.39950   0.00000   8.152E-03   0.000E+00   9.918E-01
 238  7.56971749   0.710  -1.60594   3.52657   6.69491   1.40156   0.00000   8.301E-03   0.000E+00   9.917E-01
 239  7.57159645   0.710  -1.60733   3.52657   6.69557   1.40361   0.00000   8.450E-03   0.000E+00   9.915E-01
 240  7.57346731   0.710  -1.60873   3.52657   6.69624   1.40567   0.00000   8.599E-03   0.000E+00   9.914E-01
 241  7.57533015   0.710  -1.61012   3.52656   6.69690   1.40773   0.00000   8.748E-03   0.000E+00   9.913E-01
 242  7.57718504   0.710  -1.61152   3.52656   6.69756   1.40979   0.00000   8.897E-03   0.000E+00   9.911E-01
 243  7.57903203   0.710  -1.61289   3.52656   6.69821   1.41181   0.00000   9.043E-03   0.000E+00   9.910E-01
 244  7.58087121   0.710  -1.61419   3.52656   6.69883   1.41373   0.00000   9.183E-03   0.000E+00   9.908E-01
 245  7.58270263   0.710  -1.61549   3.52656   6.69945   1.41565   0.00000   9.322E-03   0.000E+00   9.907E-01
 246  7.58452635   0.710  -1.61680   3.52655   6.70007   1.41758   0.00000   9.462E-03   0.000E+00   9.905E-01
 247  7.58634246   0.710  -1.61810   3.52655   6.70069   1.41950   0.00000   9.601E-03   0.000E+00   9.904E-01
 248  7.58815099   0.710  -1.61941   3.52655   6.70131   1.42143   0.00000   9.741E-03   0.000E+00   9.903E-01
 249  7.58995203   0.710  -1.62071   3.52655   6.70193   1.42335   0.00000   9.880E-03   0.000E+00   9.901E-01
 250  7.59174563   0.710  -1.62201   3.52654   6.70255   1.42527   0.00000   1.002E-02   0.000E+00   9.900E-01
 251  7.59353185   0.710  -1.62332   3.52654   6.70317   1.42720   0.00000   1.016E-02   0.000E+00   9.898E-01
 252  7.59531076   0.710  -1.62462   3.52654   6.70379   1.42912   0.00000   1.030E-02   0.000E+00   9.897E-01
 253  7.59708241   0.710  -1.62593   3.52654   6.70441   1.43104   0.00000   1.044E-02   0.000E+00   9.896E-01
 254  7.59884686   0.710  -1.62723   3.52654   6.70502   1.43297   0.00000   1.058E-02   0.000E+00   9.894E-01
 255  7.60060418   0.710  -1.62854   3.52653   6.70564   1.43489   0.00000   1.072E-02   0.000E+00   9.893E-01
 256  7.60235441   0.710  -1.62984   3.52653   6.70626   1.43681   0.00000   1.086E-02   0.000E+00   9.891E-01
 257  7.60409761   0.710  -1.63114   3.52653   6.70688   1.43874   0.00000   1.100E-02   0.000E+00   9.890E-01
 258  7.60583385   0.710  -1.63236   3.52653   6.70745   1.44055   0.00000   1.119E-02   0.000E+00   9.888E-01
 259  7.60756317   0.710  -1.63358   3.52653   6.70802   1.44236   0.00000   1.139E-02   0.000E+00   9.886E-01
 260  7.60928563   0.710  -1.63480   3.52653   6.70858   1.44418   0.00000   1.158E-02   0.000E+00   9.884E-01
 261  7.61100129   0.710  -1.63602   3.52652   6.70915   1.44599   0.00000   1.178E-02   0.000E+00   9.882E-01
 262  7.61271020   0.710  -1.63724   3.52652   6.70972   1.44780   0.00000   1.197E-02   0.000E+00   9.880E-01
 263  7.61441241   0.710  -1.63845   3.52652   6.71028   1.44961   0.00000   1.217E-02   0.000E+00   9.878E-01
 264  7.61610797   0.710  -1.63967   3.52652   6.71085   1.45142   0.00000   1.236E-02   0.000E+00   9.876E-01
 265  7.61779694   0.710  -1.64089   3.52652   6.71142   1.45324   0.00000   1.256E-02   0.000E+00   9.874E-01
 266  7.61947937   0.710  -1.64211   3.52652   6.71198   1.45505   0.00000   1.276E-02   0.000E+00   9.872E-01
 267  7.62115531   0.710  -1.64333   3.52652   6.71255   1.45686   0.00000   1.295E-02   0.000E+00   9.870E-01
 268  7.62282480   0.710  -1.64454   3.52652   6.71312   1.45867   0.00000   1.315E-02   0.000E+00   9.869E-01
 269  7.62448790   0.710  -1.64576   3.52651   6.71368   1.46048   0.00000   1.334E-02   0.000E+00   9.867E-01
 270  7.62614465   0.710  -1.64698   3.52651   6.71425   1.46230   0.00000   1.354E-02   0.000E+00   9.865E-01
 271  7.62779511   0.710  -1.64820   3.52651   6.71482   1.46411   0.00000   1.373E-02   0.000E+00   9.863E-01
 272  7.62943932   0.710  -1.64942   3.52651   6.71538   1.46592   0.00000   1.393E-02   0.000E+00   9.861E-01
 273  7.63107733   0.710  -1.65058   3.52651   6.71592   1.46766   0.00000   1.415E-02   0.000E+00   9.858E-01
 274  7.63270918   0.710  -1.65172   3.52651   6.71644   1.46937   0.00000   1.440E-02   0.000E+00   9.856E-01
 275  7.63433493   0.710  -1.65285   3.52651   6.71696   1.47108   0.00000   1.464E-02   0.000E+00   9.854E-01
 276  7.63595461   0.710  -1.65399   3.52651   6.71748   1.47278   0.00000   1.489E-02   0.000E+00   9.851E-01
 277  7.63756827   0.710  -1.65513   3.52650   6.71800   1.47449   0.00000   1.513E-02   0.000E+00   9.849E-01
 278  7.63917596   0.710  -1.65626   3.52650   6.71851   1.47619   0.00000   1.537E-02   0.000E+00   9.846E-01
 279  7.64077773   0.710  -1.65740   3.52650   6.71903   1.47790   0.00000   1.562E-02   0.000E+00   9.844E-01
 280  7.64237360   0.710  -1.65854   3.52650   6.71955   1.47961   0.00000   1.586E-02   0.000E+00   9.841E-01
 281  7.64396363   0.710  -1.65967   3.52650   6.72007   1.48131   0.00000   1.610E-02   0.000E+00   9.839E-01
 282  7.64554786   0.710  -1.66081   3.52650   6.72059   1.48302   0.00000   1.635E-02   0.000E+00   9.837E-01
 283  7.64712634   0.710  -1.66195   3.52650   6.72111   1.48472   0.00000   1.659E-02   0.000E+00   9.834E-01
 284  7.64869910   0.710  -1.66308   3.52650   6.72163   1.48643   0.00000   1.683E-02   0.000E+00   9.832E-01
 285  7.65026618   0.710  -1.66422   3.52649   6.72215   1.48814   0.00000   1.708E-02   0.000E+00   9.829E-01
 286  7.65182763   0.710  -1.66536   3.52649   6.72267   1.48984   0.00000   1.732E-02   0.000E+00   9.827E-01
 287  7.65338348   0.710  -1.66649   3.52649   6.72318   1.49155   0.00000   1.757E-02   0.000E+00   9.824E-01
 288  7.65493378   0.710  -1.66763   3.52649   6.72370   1.49325   0.00000   1.781E-02   0.000E+00   9.822E-01
 289  7.65647857   0.710  -1.66875   3.52649   6.72421   1.49494   0.00000   1.805E-02   0.000E+00   9.820E-01
 290  7.65801788   0.710  -1.66981   3.52649   6.72469   1.49654   0.00000   1.828E-02   0.000E+00   9.817E-01
 291  7.65955175   0.710  -1.67087   3.52649   6.72516   1.49815   0.00000   1.850E-02   0.000E+00   9.815E-01
 292  7.66108023   0.710  -1.67193   3.52649   6.72564   1.49975   0.00000   1.873E-02   0.000E+00   9.813E-01
 293  7.66260334   0.710  -1.67299   3.52649   6.72611   1.50136   0.00000   1.896E-02   0.000E+00   9.810E-01
 294  7.66412114   0.710  -1.67405   3.52648   6.72659   1.50296   0.00000   1.919E-02   0.000E+00   9.808E-01
 295  7.66563364   0.710  -1.67511   3.52648   6.72706   1.50457   0.00000   1.941E-02   0.000E+00   9.806E-01
 296  7.66714090   0.710  -1.67617   3.52648   6.72754   1.50617   0.00000   1.964E-02   0.000E+00   9.804E-01
 297  7.66864294   0.710  -1.67723   3.52648   6.72801   1.50778   0.00000   1.987E-02   0.000E+00   9.801E-01
 298  7.67013981   0.710  -1.67829   3.52648   6.72849   1.50938   0.00000   2.010E-02   0.000E+00   9.799E-01
 299  7.67163153   0.710  -1.67935   3.52648   6.72897   1.51098   0.00000   2.032E-02   0.000E+00   9.797E-01
 300  7.67311815   0.710  -1.68040   3.52648   6.72944   1.51259   0.00000   2.055E-02   0.000E+00   9.794E-01
 301  7.67459970   0.710  -1.68146   3.52648   6.72992   1.51419   0.00000   2.078E-02   0.000E+00   9.792E-01
 302  7.67607621   0.710  -1.68252   3.52647   6.73039   1.51580   0.00000   2.101E-02   0.000E+00   9.790E-01
 303  7.67754772   0.710  -1.68358   3.52647   6.73087   1.51740   0.00000   2.123E-02   0.000E+00   9.788E-01
 304  7.67901426   0.710  -1.68464   3.52647   6.73134   1.51901   0.00000   2.146E-02   0.000E+00   9.785E-01
 305  7.68047586   0.710  -1.68570   3.52647   6.73182   1.52061   0.00000   2.169E-02   0.000E+00   9.783E-01
 306  7.68193256   0.710  -1.68676   3.52647   6.73229   1.52222   0.00000   2.191E-02   0.000E+00   9.781E-01
 307  7.68338439   0.710  -1.68777   3.52647   6.73274   1.52376   0.00000   2.220E-02   0.000E+00   9.778E-01
 308  7.68483139   0.710  -1.68876   3.52647   6.73318   1.52527   0.00000   2.252E-02   0.000E+00   9.775E-01
 309  7.68627358   0.710  -1.68975   3.52647   6.73362   1.52678   0.00000   2.283E-02   0.000E+00   9.772E-01
 310  7.68771099   0.710  -1.69073   3.52647   6.73405   1.52828   0.00000   2.315E-02   0.000E+00   9.768E-01
 311  7.68914367   0.710  -1.69172   3.52647   6.73449   1.52979   0.00000   2.347E-02   0.000E+00   9.765E-01
 312  7.69057163   0.710  -1.69270   3.52647   6.73493   1.53130   0.00000   2.379E-02   0.000E+00   9.762E-01
 313  7.69199491   0.710  -1.69369   3.52647   6.73536   1.53281   0.00000   2.411E-02   0.000E+00   9.759E-01
 314  7.69341355   0.710  -1.69467   3.52647   6.73580   1.53431   0.00000   2.442E-02   0.000E+00   9.756E-01
 315  7.69482756   0.710  -1.69566   3.52647   6.73624   1.53582   0.00000   2.474E-02   0.000E+00   9.753E-01
 316  7.69623699   0.710  -1.69664   3.52647   6.73668   1.53733   0.00000   2.506E-02   0.000E+00   9.749E-01
 317  7.69764185   0.710  -1.69763   3.52647   6.73711   1.53884   0.00000   2.538E-02   0.000E+00   9.746E-01
 318  7.69904219   0.710  -1.69861   3.52647   6.73755   1.54034   0.00000   2.569E-02   0.000E+00   9.743E-01
 319  7.70043803   0.710  -1.69960   3.52647   6.73799   1.54185   0.00000   2.601E-02   0.000E+00   9.740E-01
 320  7.70182939   0.710  -1.70058   3.52647   6.73842   1.54336   0.00000   2.633E-02   0.000E+00   9.737E-01
 321  7.70321631   0.710  -1.70157   3.52647   6.73886   1.54487   0.00000   2.665E-02   0.000E+00   9.734E-01
 322  7.70459882   0.710  -1.70255   3.52647   6.73930   1.54637   0.00000   2.697E-02   0.000E+00   9.730E-01
 323  7.70597694   0.710  -1.70354   3.52647   6.73973   1.54788   0.00000   2.728E-02   0.000E+00   9.727E-01
 324  7.70735070   0.710  -1.70452   3.52647   6.74017   1.54939   0.00000   2.760E-02   0.000E+00   9.724E-01
 325  7.70872012   0.710  -1.70551   3.52647   6.74061   1.55090   0.00000   2.792E-02   0.000E+00   9.721E-01
 326  7.71008525   0.710  -1.70644   3.52647   6.74102   1.55233   0.00000   2.826E-02   0.000E+00   9.717E-01
 327  7.71144609   0.710  -1.70736   3.52647   6.74142   1.55374   0.00000   2.860E-02   0.000E+00   9.714E-01
 328  7.71280269   0.710  -1.70827   3.52647   6.74182   1.55515   0.00000   2.895E-02   0.000E+00   9.711E-01
 329  7.71415506   0.710  -1.70919   3.52647   6.74222   1.55656   0.00000   2.929E-02   0.000E+00   9.707E-01
 330  7.71550323   0.710  -1.71010   3.52647   6.74263   1.55797   0.00000   2.964E-02   0.000E+00   9.704E-01
 331  7.71684723   0.710  -1.71102   3.52647   6.74303   1.55938   0.00000   2.998E-02   0.000E+00   9.700E-01
 332  7.71818708   0.710  -1.71193   3.52647   6.74343   1.56079   0.00000   3.033E-02   0.000E+00   9.697E-01
 333  7.71952282   0.710  -1.71285   3.52647   6.74383   1.56220   0.00000   3.067E-02   0.000E+00   9.693E-01
 334  7.72085445   0.710  -1.71377   3.52647   6.74423   1.56361   0.00000   3.102E-02   0.000E+00   9.690E-01
 335  7.72218202   0.710  -1.71468   3.52647   6.74463   1.56502   0.00000   3.136E-02   0.000E+00   9.686E-01
 336  7.72350554   0.710  -1.71560   3.52647   6.74503   1.56643   0.00000   3.171E-02   0.000E+00   9.683E-01
 337  7.72482504   0.710  -1.71651   3.52647   6.74544   1.56784   0.00000   3.205E-02   0.000E+00   9.679E-01
 338  7.72614055   0.710  -1.71743   3.52647   6.74584   1.56924   0.00000   3.240E-02   0.000E+00   9.676E-01
 339  7.72745208   0.710  -1.71834   3.52647   6.74624   1.57065   0.00000   3.274E-02   0.000E+00   9.673E-01
 340  7.72875966   0.710  -1.71926   3.52647   6.74664   1.57206   0.00000   3.309E-02   0.000E+00   9.669E-01
 341  7.73006331   0.710  -1.72017   3.52647   6.74704   1.57347   0.00000   3.343E-02   0.000E+00   9.666E-01
 342  7.73136307   0.710  -1.72109   3.52647   6.74744   1.57488   0.00000   3.377E-02   0.000E+00   9.662E-01
 343  7.73265894   0.710  -1.72200   3.52647   6.74785   1.57629   0.00000   3.412E-02   0.000E+00   9.659E-01
 344  7.73395097   0.710  -1.72292   3.52647   6.74825   1.57770   0.00000   3.446E-02   0.000E+00   9.655E-01
 345  7.73523915   0.710  -1.72383   3.52647   6.74865   1.57911   0.00000   3.481E-02   0.000E+00   9.652E-01
 346  7.73652353   0.710  -1.72472   3.52647   6.74904   1.58048   0.00000   3.518E-02   0.000E+00   9.648E-01
 347  7.73780413   0.710  -1.72557   3.52647   6.74941   1.58180   0.00000   3.560E-02   0.000E+00   9.644E-01
 348  7.73908095   0.710  -1.72642   3.52647   6.74977   1.58311   0.00000   3.601E-02   0.000E+00   9.640E-01
 349  7.74035404   0.710  -1.72726   3.52647   6.75014   1.58443   0.00000   3.642E-02   0.000E+00   9.636E-01
 350  7.74162340   0.710  -1.72811   3.52647   6.75051   1.58574   0.00000   3.683E-02   0.000E+00   9.632E-01
 351  7.74288906   0.710  -1.72896   3.52647   6.75088   1.58706   0.00000   3.724E-02   0.000E+00   9.628E-01
 352  7.74415105   0.710  -1.72981   3.52648   6.75125   1.58838   0.00000   3.766E-02   0.000E+00   9.623E-01
 353  7.74540938   0.710  -1.73065   3.52648   6.75162   1.58969   0.00000   3.807E-02   0.000E+00   9.619E-01
 354  7.74666407   0.710  -1.73150   3.52648   6.75199   1.59101   0.00000   3.848E-02   0.000E+00   9.615E-01
 355  7.74791515   0.710  -1.73235   3.52648   6.75236   1.59233   0.00000   3.889E-02   0.000E+00   9.611E-01
 356  7.74916264   0.710  -1.73320   3.52648   6.75273   1.59364   0.00000   3.930E-02   0.000E+00   9.607E-01
 357  7.75040655   0.710  -1.73405   3.52648   6.75310   1.59496   0.00000   3.971E-02   0.000E+00   9.603E-01
 358  7.75164691   0.710  -1.73489   3.52648   6.75347   1.59627   0.00000   4.013E-02   0.000E+00   9.599E-01
 359  7.75288374   0.710  -1.73574   3.52648   6.75384   1.59759   0.00000   4.054E-02   0.000E+00   9.595E-01
 360  7.75411706   0.710  -1.73659   3.52648   6.75421   1.59891   0.00000   4.095E-02   0.000E+00   9.591E-01
 361  7.75534688   0.710  -1.73744   3.52648   6.75458   1.60022   0.00000   4.136E-02   0.000E+00   9.586E-01
 362  7.75657323   0.710  -1.73828   3.52649   6.75495   1.60154   0.00000   4.177E-02   0.000E+00   9.582E-01
 363  7.75779613   0.710  -1.73913   3.52649   6.75532   1.60286   0.00000   4.218E-02   0.000E+00   9.578E-01
 364  7.75901559   0.710  -1.73998   3.52649   6.75569   1.60417   0.00000   4.260E-02   0.000E+00   9.574E-01
 365  7.76023164   0.710  -1.74083   3.52649   6.75606   1.60549   0.00000   4.301E-02   0.000E+00   9.570E-01
 366  7.76144429   0.710  -1.74168   3.52649   6.75643   1.60681   0.00000   4.342E-02   0.000E+00   9.566E-01
 367  7.76265357   0.710  -1.74252   3.52649   6.75680   1.60812   0.00000   4.383E-02   0.000E+00   9.562E-01
 368  7.76385949   0.710  -1.74333   3.52649   6.75715   1.60938   0.00000   4.428E-02   0.000E+00   9.557E-01
 369  7.76506207   0.710  -1.74412   3.52649   6.75749   1.61061   0.00000   4.474E-02   0.000E+00   9.553E-01
 370  7.76626133   0.710  -1.74490   3.52649   6.75783   1.61183   0.00000   4.521E-02   0.000E+00   9.548E-01
 371  7.76745728   0.710  -1.74568   3.52649   6.75817   1.61306   0.00000   4.567E-02   0.000E+00   9.543E-01
 372  7.76864995   0.710  -1.74646   3.52649   6.75851   1.61428   0.00000   4.614E-02   0.000E+00   9.539E-01
 373  7.76983936   0.710  -1.74725   3.52649   6.75886   1.61551   0.00000   4.661E-02   0.000E+00   9.534E-01
 374  7.77102552   0.710  -1.74803   3.52650   6.75920   1.61673   0.00000   4.707E-02   0.000E+00   9.529E-01
 375  7.77220844   0.710  -1.74881   3.52650   6.75954   1.61796   0.00000   4.754E-02   0.000E+00   9.525E-01
 376  7.77338816   0.710  -1.74960   3.52650   6.75988   1.61918   0.00000   4.801E-02   0.000E+00   9.520E-01
 377  7.77456467   0.710  -1.75038   3.52650   6.76022   1.62041   0.00000   4.847E-02   0.000E+00   9.515E-01
 378  7.77573801   0.710  -1.75116   3.52650   6.76056   1.62163   0.00000   4.894E-02   0.000E+00   9.511E-01
 379  7.77690819   0.710  -1.75194   3.52650   6.76090   1.62286   0.00000   4.940E-02   0.000E+00   9.506E-01
 380  7.77807522   0.710  -1.75273   3.52650   6.76124   1.62408   0.00000   4.987E-02   0.000E+00   9.501E-01
 381  7.77923912   0.710  -1.75351   3.52650   6.76158   1.62531   0.00000   5.034E-02   0.000E+00   9.497E-01
 382  7.78039992   0.710  -1.75429   3.52650   6.76192   1.62653   0.00000   5.080E-02   0.000E+00   9.492E-01
 383  7.78155762   0.710  -1.75508   3.52650   6.76226   1.62776   0.00000   5.127E-02   0.000E+00   9.487E-01
 384  7.78271224   0.710  -1.75586   3.52650   6.76260   1.62898   0.00000   5.174E-02   0.000E+00   9.483E-01
 385  7.78386380   0.710  -1.75664   3.52650   6.76295   1.63021   0.00000   5.220E-02   0.000E+00   9.478E-01
 386  7.78501231   0.710  -1.75743   3.52651   6.76329   1.63143   0.00000   5.267E-02   0.000E+00   9.473E-01
 387  7.78615780   0.710  -1.75821   3.52651   6.76363   1.63266   0.00000   5.313E-02   0.000E+00   9.469E-01
 388  7.78730027   0.710  -1.75899   3.52651   6.76397   1.63388   0.00000   5.360E-02   0.000E+00   9.464E-01
 389  7.78843975   0.710  -1.75977   3.52651   6.76431   1.63511   0.00000   5.407E-02   0.000E+00   9.459E-01
 390  7.78957624   0.710  -1.76056   3.52651   6.76465   1.63633   0.00000   5.453E-02   0.000E+00   9.455E-01
 391  7.79070977   0.710  -1.76134   3.52651   6.76499   1.63756   0.00000   5.500E-02   0.000E+00   9.450E-01
 392  7.88122094   0.710  -1.81934   3.52667   6.79045   1.72909   0.00000   1.134E-01   0.000E+00   8.866E-01
 393  7.95608331   0.710  -1.86344   3.52685   6.81049   1.79812   0.00000   1.934E-01   0.000E+00   8.066E-01
 394  8.01991868   0.710  -1.89736   3.52701   6.82696   1.84974   0.00000   2.914E-01   0.000E+00   7.086E-01
 395  8.07556234   0.710  -1.92364   3.52713   6.84068   1.88773   0.00000   3.979E-01   0.000E+00   6.021E-01
 396  8.12487960   0.710  -1.94314   3.52721   6.85173   1.91356   0.00000   5.029E-01   0.000E+00   4.971E-01
 397  8.16916328   0.710  -1.95782   3.52726   6.86073   1.93186   0.00000   5.986E-01   0.000E+00   4.014E-01
 398  8.20934639   0.710  -1.96896   3.52730   6.86782   1.94564   0.00000   6.816E-01   0.000E+00   3.184E-01
 399  8.24612438   0.710  -1.97611   3.52734   6.87117   1.95635   0.00000   7.424E-01   0.000E+00   2.576E-01
 400  8.28002956   0.710  -1.98214   3.52738   6.87399   1.96540   0.00000   7.953E-01   0.000E+00   2.047E-01
 401  8.31147838   0.710  -1.98591   3.52740   6.87576   1.97110   0.00000   8.324E-01   0.000E+00   1.676E-01
 402  8.34080285   0.710  -1.98968   3.52742   6.87752   1.97680   0.00000   8.695E-01   0.000E+00   1.305E-01
 403  8.36827189   0.710  -1.99188   3.52744   6.87856   1.98016   0.00000   8.922E-01   0.000E+00   1.077E-01
 404  8.39410639   0.710  -1.99347   3.52745   6.87932   1.98258   0.00000   9.093E-01   0.000E+00   9.061E-02
 405  8.41849000   0.710  -1.99506   3.52746   6.88008   1.98500   0.00000   9.264E-01   0.000E+00   7.348E-02
 406  8.44157706   0.710  -1.99664   3.52747   6.88083   1.98743   0.00000   9.435E-01   0.000E+00   5.635E-02
 407  8.46349851   0.710  -1.99737   3.52747   6.88118   1.98854   0.00000   9.518E-01   0.000E+00   4.803E-02
 408  8.48436642   0.710  -1.99788   3.52748   6.88143   1.98932   0.00000   9.580E-01   0.000E+00   4.202E-02
 409  8.50427743   0.710  -1.99839   3.52748   6.88167   1.99009   0.00000   9.641E-01   0.000E+00   3.600E-02
 410  8.52331546   0.710  -1.99890   3.52748   6.88192   1.99087   0.00000   9.702E-01   0.000E+00   2.999E-02
 411  8.54155386   0.710  -1.99940   3.52749   6.88216   1.99164   0.00000   9.763E-01   0.000E+00   2.397E-02
 412  8.55905710   0.710  -1.99991   3.52749   6.88241   1.99242   0.00000   9.824E-01   0.000E+00   1.796E-02
 413  8.57588215   0.710  -2.00005   3.52749   6.88248   1.99264   0.00000   9.843E-01   0.000E+00   1.599E-02
 414  8.59207962   0.710  -2.00016   3.52749   6.88253   1.99280   0.00000   9.858E-01   0.000E+00   1.443E-02
 415  8.60769465   0.710  -2.00026   3.52750   6.88259   1.99296   0.00000   9.873E-01   0.000E+00   1.288E-02
 416  8.62276767   0.710  -2.00036   3.52750   6.88264   1.99312   0.00000   9.888E-01   0.000E+00   1.132E-02
 417  8.63733505   0.710  -2.00047   3.52750   6.88270   1.99329   0.00000   9.902E-01   0.000E+00   9.767E-03
 418  8.65142962   0.710  -2.00057   3.52750   6.88275   1.99345   0.00000   9.917E-01   0.000E+00   8.211E-03
 419  8.66508111   0.710  -2.00067   3.52751   6.88281   1.99361   0.00000   9.932E-01   0.000E+00   6.656E-03
 420  8.67831652   0.710  -2.00078   3.52751   6.88286   1.99377   0.00000   9.946E-01   0.000E+00   5.101E-03
 421  8.69116048   0.710  -2.00087   3.52751   6.88291   1.99392   0.00000   9.960E-01   0.000E+00   3.645E-03
 422  8.70363548   0.710  -2.00085   3.52751   6.88291   1.99390   0.00000   9.963E-01   0.000E+00   3.334E-03
 423  8.71576211   0.710  -2.00084   3.52751   6.88291   1.99388   0.00000   9.966E-01   0.000E+00   3.023E-03
 424  8.72755932   0.710  -2.00082   3.52751   6.88291   1.99386   0.00000   9.969E-01   0.000E+00   2.712E-03
 425  8.73904452   0.710  -2.00081   3.52751   6.88291   1.99385   0.00000   9.972E-01   0.000E+00   2.401E-03
 426  8.75023380   0.710  -2.00079   3.52751   6.88291   1.99383   0.00000   9.975E-01   0.000E+00   2.090E-03
 427  8.76114202   0.710  -2.00077   3.52751   6.88291   1.99381   0.00000   9.978E-01   0.000E+00   1.779E-03
 428  8.77178296   0.710  -2.00076   3.52752   6.88290   1.99379   0.00000   9.981E-01   0.000E+00   1.468E-03
 429  8.78216940   0.710  -2.00074   3.52752   6.88290   1.99377   0.00000   9.984E-01   0.000E+00   1.157E-03
 430  8.79231323   0.710  -2.00073   3.52752   6.88290   1.99376   0.00000   9.987E-01   0.000E+00   8.461E-04
 431  8.80222553   0.710  -2.00071   3.52752   6.88290   1.99374   0.00000   9.990E-01   0.000E+00   5.351E-04
 432  8.81191663   0.710  -2.00069   3.52752   6.88290   1.99372   0.00000   9.993E-01   0.000E+00   2.241E-04
 433  8.82139619   0.709  -2.00068   3.52752   6.88290   1.99370   0.00000   9.996E-01   0.000E+00  -8.692E-05
 434  8.83067325   0.709  -2.00066   3.52752   6.88290   1.99368   0.00000   1.000E+00   0.000E+00  -3.979E-04
 435  8.83975628   0.709  -2.00062   3.52752   6.88289   1.99362   0.00000   1.000E+00   0.000E+00  -5.160E-04
 436  8.84865322   0.709  -2.00057   3.52752   6.88287   1.99356   0.00000   1.000E+00   0.000E+00  -5.970E-04
 437  8.85737156   0.709  -2.00052   3.52752   6.88286   1.99349   0.00000   1.000E+00   0.000E+00  -6.780E-04
 438  8.86591831   0.709  -2.00048   3.52752   6.88284   1.99342   0.00000   1.001E+00   0.000E+00  -7.590E-04
 439  8.87430011   0.709  -2.00043   3.52752   6.88282   1.99335   0.00000   1.001E+00   0.000E+00  -8.400E-04
 440  8.88252320   0.709  -2.00038   3.52752   6.88281   1.99329   0.00000   1.001E+00   0.000E+00  -9.210E-04
 441  8.89059348   0.709  -2.00033   3.52752   6.88279   1.99322   0.00000   1.001E+00   0.000E+00  -1.002E-03
 442  8.89851653   0.709  -2.00028   3.52753   6.88278   1.99315   0.00000   1.001E+00   0.000E+00  -1.083E-03
 443  8.90629762   0.709  -2.00024   3.52753   6.88276   1.99309   0.00000   1.001E+00   0.000E+00  -1.164E-03
 444  8.91394175   0.709  -2.00019   3.52753   6.88275   1.99302   0.00000   1.001E+00   0.000E+00  -1.245E-03
 445  8.92145365   0.709  -2.00014   3.52753   6.88273   1.99295   0.00000   1.002E+00   0.000E+00  -1.326E-03
 446  8.92883783   0.709  -2.00009   3.52753   6.88271   1.99288   0.00000   1.002E+00   0.000E+00  -1.407E-03
 447  8.93609856   0.709  -2.00004   3.52753   6.88270   1.99282   0.00000   1.002E+00   0.000E+00  -1.488E-03
 448  8.94323989   0.709  -2.00000   3.52753   6.88268   1.99275   0.00000   1.002E+00   0.000E+00  -1.569E-03
 449  8.95026569   0.709  -1.99993   3.52753   6.88266   1.99266   0.00000   1.002E+00   0.000E+00  -1.612E-03
 450  8.95717963   0.709  -1.99987   3.52753   6.88264   1.99257   0.00000   1.002E+00   0.000E+00  -1.649E-03
 451  8.96398523   0.709  -1.99981   3.52753   6.88261   1.99248   0.00000   1.002E+00   0.000E+00  -1.687E-03
 452  8.97068583   0.709  -1.99974   3.52753   6.88259   1.99239   0.00000   1.002E+00   0.000E+00  -1.724E-03
 453  8.97728461   0.709  -1.99968   3.52753   6.88257   1.99230   0.00000   1.002E+00   0.000E+00  -1.761E-03
 454  8.98378463   0.709  -1.99962   3.52753   6.88254   1.99221   0.00000   1.002E+00   0.000E+00  -1.798E-03
 455  8.99018879   0.709  -1.99955   3.52753   6.88252   1.99212   0.00000   1.002E+00   0.000E+00  -1.835E-03
 456  8.99649990   0.709  -1.99949   3.52754   6.88249   1.99203   0.00000   1.002E+00   0.000E+00  -1.873E-03
 457  9.00272060   0.709  -1.99943   3.52754   6.88247   1.99193   0.00000   1.002E+00   0.000E+00  -1.910E-03
 458  9.00885345   0.709  -1.99936   3.52754   6.88245   1.99184   0.00000   1.002E+00   0.000E+00  -1.947E-03
 459  9.01490090   0.709  -1.99930   3.52754   6.88242   1.99175   0.00000   1.002E+00   0.000E+00  -1.984E-03
 460  9.02086530   0.709  -1.99923   3.52754   6.88240   1.99166   0.00000   1.002E+00   0.000E+00  -2.021E-03
 461  9.02674890   0.709  -1.99917   3.52754   6.88238   1.99157   0.00000   1.002E+00   0.000E+00  -2.059E-03
 462  9.03255385   0.709  -1.99911   3.52754   6.88235   1.99148   0.00000   1.002E+00   0.000E+00  -2.096E-03
 463  9.03828223   0.709  -1.99903   3.52754   6.88232   1.99138   0.00000   1.002E+00   0.000E+00  -2.122E-03
 464  9.04393604   0.709  -1.99896   3.52754   6.88230   1.99127   0.00000   1.002E+00   0.000E+00  -2.147E-03
 465  9.04951719   0.709  -1.99889   3.52754   6.88227   1.99116   0.00000   1.002E+00   0.000E+00  -2.172E-03
 466  9.05502752   0.709  -1.99881   3.52754   6.88224   1.99106   0.00000   1.002E+00   0.000E+00  -2.197E-03
 467  9.06046882   0.709  -1.99874   3.52754   6.88221   1.99095   0.00000   1.002E+00   0.000E+00  -2.222E-03
 468  9.06584278   0.709  -1.99867   3.52754   6.88218   1.99084   0.00000   1.002E+00   0.000E+00  -2.247E-03
 469  9.07115106   0.709  -1.99859   3.52754   6.88215   1.99074   0.00000   1.002E+00   0.000E+00  -2.273E-03
 470  9.07639524   0.709  -1.99852   3.52754   6.88212   1.99063   0.00000   1.002E+00   0.000E+00  -2.298E-03
 471  9.08157685   0.709  -1.99844   3.52754   6.88210   1.99052   0.00000   1.002E+00   0.000E+00  -2.323E-03
 472  9.08669736   0.709  -1.99837   3.52754   6.88207   1.99042   0.00000   1.002E+00   0.000E+00  -2.348E-03
 473  9.09175821   0.709  -1.99830   3.52754   6.88204   1.99031   0.00000   1.002E+00   0.000E+00  -2.373E-03
 474  9.09676076   0.709  -1.99822   3.52754   6.88201   1.99020   0.00000   1.002E+00   0.000E+00  -2.398E-03
 475  9.10170634   0.709  -1.99815   3.52754   6.88198   1.99010   0.00000   1.002E+00   0.000E+00  -2.423E-03
 476  9.10659623   0.709  -1.99808   3.52754   6.88195   1.98999   0.00000   1.002E+00   0.000E+00  -2.448E-03
 477  9.11143168   0.709  -1.99800   3.52754   6.88192   1.98987   0.00000   1.002E+00   0.000E+00  -2.468E-03
 478  9.11621389   0.709  -1.99791   3.52754   6.88189   1.98975   0.00000   1.002E+00   0.000E+00  -2.487E-03
 479  9.12094401   0.709  -1.99783   3.52754   6.88186   1.98963   0.00000   1.002E+00   0.000E+00  -2.506E-03
 480  9.12562317   0.709  -1.99775   3.52754   6.88182   1.98952   0.00000   1.002E+00   0.000E+00  -2.526E-03
 481  9.13025245   0.709  -1.99767   3.52754   6.88179   1.98940   0.00000   1.002E+00   0.000E+00  -2.545E-03
 482  9.13483290   0.709  -1.99759   3.52754   6.88176   1.98928   0.00000   1.002E+00   0.000E+00  -2.564E-03
 483  9.13936555   0.709  -1.99751   3.52754   6.88173   1.98916   0.00000   1.002E+00   0.000E+00  -2.584E-03
 484  9.14385138   0.709  -1.99742   3.52755   6.88170   1.98904   0.00000   1.003E+00   0.000E+00  -2.603E-03
 485  9.14829135   0.709  -1.99734   3.52755   6.88166   1.98892   0.00000   1.003E+00   0.000E+00  -2.622E-03
 486  9.15268639   0.709  -1.99726   3.52755   6.88163   1.98880   0.00000   1.003E+00   0.000E+00  -2.642E-03
 487  9.15703739   0.709  -1.99718   3.52755   6.88160   1.98868   0.00000   1.003E+00   0.000E+00  -2.661E-03
 488  9.16134524   0.709  -1.99710   3.52755   6.88157   1.98856   0.00000   1.003E+00   0.000E+00  -2.680E-03
 489  9.16561077   0.709  -1.99702   3.52755   6.88153   1.98845   0.00000   1.003E+00   0.000E+00  -2.699E-03
 490  9.16983482   0.709  -1.99694   3.52755   6.88150   1.98833   0.00000   1.003E+00   0.000E+00  -2.719E-03
 491  9.17401818   0.709  -1.99685   3.52755   6.88147   1.98820   0.00000   1.003E+00   0.000E+00  -2.732E-03
 492  9.17816162   0.709  -1.99676   3.52755   6.88143   1.98807   0.00000   1.003E+00   0.000E+00  -2.745E-03
 493  9.18226591   0.709  -1.99667   3.52755   6.88140   1.98795   0.00000   1.003E+00   0.000E+00  -2.758E-03
 494  9.18633177   0.709  -1.99659   3.52755   6.88136   1.98782   0.00000   1.003E+00   0.000E+00  -2.771E-03
 495  9.19035993   0.709  -1.99650   3.52755   6.88133   1.98769   0.00000   1.003E+00   0.000E+00  -2.784E-03
 496  9.19435106   0.709  -1.99641   3.52755   6.88130   1.98757   0.00000   1.003E+00   0.000E+00  -2.796E-03
 497  9.19830585   0.709  -1.99632   3.52755   6.88126   1.98744   0.00000   1.003E+00   0.000E+00  -2.809E-03
 498  9.20222495   0.709  -1.99624   3.52755   6.88123   1.98731   0.00000   1.003E+00   0.000E+00  -2.822E-03
 499  9.20610900   0.709  -1.99615   3.52755   6.88119   1.98719   0.00000   1.003E+00   0.000E+00  -2.835E-03
 500  9.20995862   0.709  -1.99606   3.52755   6.88116   1.98706   0.00000   1.003E+00   0.000E+00  -2.848E-03
 501  9.21377442   0.709  -1.99598   3.52755   6.88112   1.98693   0.00000   1.003E+00   0.000E+00  -2.861E-03
 502  9.21755698   0.709  -1.99589   3.52755   6.88109   1.98681   0.00000   1.003E+00   0.000E+00  -2.874E-03
 503  9.22130688   0.709  -1.99580   3.52755   6.88106   1.98668   0.00000   1.003E+00   0.000E+00  -2.887E-03
 504  9.22502468   0.709  -1.99571   3.52755   6.88102   1.98655   0.00000   1.003E+00   0.000E+00  -2.900E-03
 505  9.22871093   0.709  -1.99562   3.52755   6.88098   1.98642   0.00000   1.003E+00   0.000E+00  -2.909E-03
 506  9.23236615   0.709  -1.99553   3.52755   6.88095   1.98629   0.00000   1.003E+00   0.000E+00  -2.918E-03
 507  9.23599086   0.709  -1.99544   3.52755   6.88091   1.98615   0.00000   1.003E+00   0.000E+00  -2.928E-03
 508  9.23958557   0.708  -1.99535   3.52755   6.88087   1.98602   0.00000   1.003E+00   0.000E+00  -2.937E-03
 509  9.24315077   0.708  -1.99526   3.52755   6.88084   1.98589   0.00000   1.003E+00   0.000E+00  -2.946E-03
 510  9.24668694   0.708  -1.99517   3.52755   6.88080   1.98575   0.00000   1.003E+00   0.000E+00  -2.955E-03
 511  9.25019455   0.708  -1.99508   3.52755   6.88076   1.98562   0.00000   1.003E+00   0.000E+00  -2.965E-03
 512  9.25367406   0.708  -1.99499   3.52756   6.88072   1.98548   0.00000   1.003E+00   0.000E+00  -2.974E-03
 513  9.25712591   0.708  -1.99490   3.52756   6.88069   1.98535   0.00000   1.003E+00   0.000E+00  -2.983E-03
 514  9.26055054   0.708  -1.99480   3.52756   6.88065   1.98522   0.00000   1.003E+00   0.000E+00  -2.993E-03
 515  9.26394838   0.708  -1.99471   3.52756   6.88061   1.98508   0.00000   1.003E+00   0.000E+00  -3.002E-03
 516  9.26731984   0.708  -1.99462   3.52756   6.88057   1.98495   0.00000   1.003E+00   0.000E+00  -3.011E-03
 517  9.27066533   0.708  -1.99453   3.52756   6.88054   1.98482   0.00000   1.003E+00   0.000E+00  -3.021E-03
 518  9.27398524   0.708  -1.99444   3.52756   6.88050   1.98468   0.00000   1.003E+00   0.000E+00  -3.030E-03
 519  9.27727997   0.708  -1.99435   3.52756   6.88046   1.98454   0.00000   1.003E+00   0.000E+00  -3.035E-03
 520  9.28054989   0.708  -1.99425   3.52756   6.88042   1.98441   0.00000   1.003E+00   0.000E+00  -3.040E-03
 521  9.28379538   0.708  -1.99416   3.52756   6.88039   1.98427   0.00000   1.003E+00   0.000E+00  -3.045E-03
 522  9.28701679   0.708  -1.99407   3.52756   6.88035   1.98413   0.00000   1.003E+00   0.000E+00  -3.050E-03
 523  9.29021448   0.708  -1.99397   3.52756   6.88031   1.98399   0.00000   1.003E+00   0.000E+00  -3.055E-03
 524  9.29338880   0.708  -1.99388   3.52756   6.88027   1.98386   0.00000   1.003E+00   0.000E+00  -3.060E-03
 525  9.29654008   0.708  -1.99379   3.52756   6.88024   1.98372   0.00000   1.003E+00   0.000E+00  -3.065E-03
 526  9.29966867   0.708  -1.99369   3.52756   6.88020   1.98358   0.00000   1.003E+00   0.000E+00  -3.070E-03
 527  9.30277488   0.708  -1.99360   3.52756   6.88016   1.98345   0.00000   1.003E+00   0.000E+00  -3.075E-03
 528  9.30585903   0.708  -1.99350   3.52756   6.88012   1.98331   0.00000   1.003E+00   0.000E+00  -3.080E-03
 529  9.30892143   0.708  -1.99341   3.52756   6.88008   1.98317   0.00000   1.003E+00   0.000E+00  -3.085E-03
 530  9.31196239   0.708  -1.99332   3.52756   6.88005   1.98303   0.00000   1.003E+00   0.000E+00  -3.090E-03
 531  9.31498220   0.708  -1.99322   3.52756   6.88001   1.98290   0.00000   1.003E+00   0.000E+00  -3.095E-03
 532  9.31798116   0.708  -1.99313   3.52756   6.87997   1.98276   0.00000   1.003E+00   0.000E+00  -3.100E-03
 533  9.32095955   0.708  -1.99303   3.52756   6.87993   1.98262   0.00000   1.003E+00   0.000E+00  -3.101E-03
 534  9.32391766   0.708  -1.99294   3.52756   6.87989   1.98248   0.00000   1.003E+00   0.000E+00  -3.103E-03
 535  9.32685575   0.708  -1.99285   3.52756   6.87985   1.98234   0.00000   1.003E+00   0.000E+00  -3.104E-03
 536  9.32977410   0.708  -1.99275   3.52756   6.87981   1.98220   0.00000   1.003E+00   0.000E+00  -3.106E-03
 537  9.33267297   0.708  -1.99266   3.52756   6.87977   1.98206   0.00000   1.003E+00   0.000E+00  -3.107E-03
 538  9.33555262   0.708  -1.99256   3.52756   6.87973   1.98193   0.00000   1.003E+00   0.000E+00  -3.109E-03
 539  9.33841331   0.708  -1.99247   3.52757   6.87969   1.98179   0.00000   1.003E+00   0.000E+00  -3.110E-03
 540  9.34125527   0.708  -1.99237   3.52757   6.87965   1.98165   0.00000   1.003E+00   0.000E+00  -3.111E-03
 541  9.34407875   0.708  -1.99228   3.52757   6.87962   1.98151   0.00000   1.003E+00   0.000E+00  -3.113E-03
 542  9.34688400   0.708  -1.99218   3.52757   6.87958   1.98137   0.00000   1.003E+00   0.000E+00  -3.114E-03
 543  9.34967124   0.708  -1.99209   3.52757   6.87954   1.98123   0.00000   1.003E+00   0.000E+00  -3.116E-03
 544  9.35244071   0.708  -1.99200   3.52757   6.87950   1.98109   0.00000   1.003E+00   0.000E+00  -3.117E-03
 545  9.35519263   0.708  -1.99190   3.52757   6.87946   1.98095   0.00000   1.003E+00   0.000E+00  -3.119E-03
 546  9.35792722   0.708  -1.99181   3.52757   6.87942   1.98081   0.00000   1.003E+00   0.000E+00  -3.120E-03
 547  9.36064471   0.708  -1.99171   3.52757   6.87938   1.98068   0.00000   1.003E+00   0.000E+00  -3.119E-03
 548  9.36334529   0.708  -1.99162   3.52757   6.87934   1.98054   0.00000   1.003E+00   0.000E+00  -3.119E-03
 549  9.36602918   0.708  -1.99152   3.52757   6.87930   1.98040   0.00000   1.003E+00   0.000E+00  -3.118E-03
 550  9.36869659   0.708  -1.99143   3.52757   6.87926   1.98026   0.00000   1.003E+00   0.000E+00  -3.117E-03
 551  9.37134772   0.708  -1.99133   3.52757   6.87923   1.98012   0.00000   1.003E+00   0.000E+00  -3.116E-03
 552  9.37398276   0.708  -1.99124   3.52757   6.87919   1.97998   0.00000   1.003E+00   0.000E+00  -3.116E-03
 553  9.37660191   0.708  -1.99115   3.52757   6.87915   1.97984   0.00000   1.003E+00   0.000E+00  -3.115E-03
 554  9.37920536   0.708  -1.99105   3.52757   6.87911   1.97970   0.00000   1.003E+00   0.000E+00  -3.114E-03
 555  9.38179329   0.708  -1.99096   3.52757   6.87907   1.97956   0.00000   1.003E+00   0.000E+00  -3.114E-03
 556  9.38436589   0.708  -1.99086   3.52757   6.87903   1.97942   0.00000   1.003E+00   0.000E+00  -3.113E-03
 557  9.38692335   0.708  -1.99077   3.52757   6.87899   1.97928   0.00000   1.003E+00   0.000E+00  -3.112E-03
 558  9.38946583   0.708  -1.99067   3.52757   6.87895   1.97914   0.00000   1.003E+00   0.000E+00  -3.111E-03
 559  9.39199352   0.708  -1.99058   3.52757   6.87892   1.97900   0.00000   1.003E+00   0.000E+00  -3.111E-03
 560  9.39450658   0.708  -1.99048   3.52757   6.87888   1.97886   0.00000   1.003E+00   0.000E+00  -3.110E-03
 561  9.39700518   0.708  -1.99039   3.52757   6.87884   1.97872   0.00000   1.003E+00   0.000E+00  -3.108E-03
 562  9.39948948   0.708  -1.99030   3.52757   6.87880   1.97858   0.00000   1.003E+00   0.000E+00  -3.106E-03
 563  9.40195966   0.708  -1.99020   3.52757   6.87876   1.97845   0.00000   1.003E+00   0.000E+00  -3.103E-03
 564  9.40441587   0.708  -1.99011   3.52757   6.87872   1.97831   0.00000   1.003E+00   0.000E+00  -3.101E-03
 565  9.40685826   0.708  -1.99001   3.52757   6.87868   1.97817   0.00000   1.003E+00   0.000E+00  -3.099E-03
 566  9.40928700   0.708  -1.98992   3.52757   6.87865   1.97803   0.00000   1.003E+00   0.000E+00  -3.097E-03
 567  9.41170222   0.708  -1.98982   3.52758   6.87861   1.97789   0.00000   1.003E+00   0.000E+00  -3.095E-03
 568  9.41410409   0.708  -1.98973   3.52758   6.87857   1.97775   0.00000   1.003E+00   0.000E+00  -3.093E-03
 569  9.41649275   0.708  -1.98963   3.52758   6.87853   1.97761   0.00000   1.003E+00   0.000E+00  -3.091E-03
 570  9.41886835   0.708  -1.98954   3.52758   6.87849   1.97747   0.00000   1.003E+00   0.000E+00  -3.088E-03
 571  9.42123102   0.708  -1.98945   3.52758   6.87845   1.97733   0.00000   1.003E+00   0.000E+00  -3.086E-03
 572  9.42358090   0.708  -1.98935   3.52758   6.87841   1.97720   0.00000   1.003E+00   0.000E+00  -3.084E-03
 573  9.42591814   0.708  -1.98926   3.52758   6.87838   1.97706   0.00000   1.003E+00   0.000E+00  -3.082E-03
 574  9.42824287   0.708  -1.98916   3.52758   6.87834   1.97692   0.00000   1.003E+00   0.000E+00  -3.080E-03
 575  9.43055522   0.708  -1.98907   3.52758   6.87830   1.97678   0.00000   1.003E+00   0.000E+00  -3.075E-03
 576  9.43285532   0.708  -1.98898   3.52758   6.87826   1.97664   0.00000   1.003E+00   0.000E+00  -3.071E-03
 577  9.43514331   0.708  -1.98889   3.52758   6.87822   1.97651   0.00000   1.003E+00   0.000E+00  -3.067E-03
 578  9.43741931   0.708  -1.98879   3.52758   6.87818   1.97637   0.00000   1.003E+00   0.000E+00  -3.062E-03
 579  9.43968344   0.708  -1.98870   3.52758   6.87814   1.97623   0.00000   1.003E+00   0.000E+00  -3.058E-03
 580  9.44193582   0.708  -1.98861   3.52758   6.87810   1.97610   0.00000   1.003E+00   0.000E+00  -3.054E-03
 581  9.44417659   0.708  -1.98852   3.52758   6.87807   1.97596   0.00000   1.003E+00   0.000E+00  -3.050E-03
 582  9.44640585   0.708  -1.98842   3.52758   6.87803   1.97582   0.00000   1.003E+00   0.000E+00  -3.045E-03
 583  9.44862373   0.708  -1.98833   3.52758   6.87799   1.97569   0.00000   1.003E+00   0.000E+00  -3.041E-03
 584  9.45083034   0.708  -1.98824   3.52758   6.87795   1.97555   0.00000   1.003E+00   0.000E+00  -3.037E-03
 585  9.45302580   0.708  -1.98815   3.52758   6.87791   1.97541   0.00000   1.003E+00   0.000E+00  -3.032E-03
 586  9.45521021   0.708  -1.98805   3.52758   6.87787   1.97528   0.00000   1.003E+00   0.000E+00  -3.028E-03
 587  9.45738369   0.708  -1.98796   3.52758   6.87783   1.97514   0.00000   1.003E+00   0.000E+00  -3.024E-03
 588  9.45954635   0.708  -1.98787   3.52758   6.87780   1.97501   0.00000   1.003E+00   0.000E+00  -3.019E-03
 589  9.46169829   0.707  -1.98778   3.52758   6.87776   1.97487   0.00000   1.003E+00   0.000E+00  -3.014E-03
 590  9.46383962   0.707  -1.98769   3.52758   6.87772   1.97474   0.00000   1.003E+00   0.000E+00  -3.009E-03
 591  9.46597045   0.707  -1.98760   3.52758   6.87768   1.97460   0.00000   1.003E+00   0.000E+00  -3.004E-03
 592  9.46809087   0.707  -1.98751   3.52758   6.87765   1.97447   0.00000   1.003E+00   0.000E+00  -2.999E-03
 593  9.47020099   0.707  -1.98742   3.52758   6.87761   1.97434   0.00000   1.003E+00   0.000E+00  -2.994E-03
 594  9.47230091   0.707  -1.98732   3.52758   6.87757   1.97420   0.00000   1.003E+00   0.000E+00  -2.989E-03
 595  9.47439072   0.707  -1.98723   3.52758   6.87754   1.97407   0.00000   1.003E+00   0.000E+00  -2.984E-03
 596  9.47647052   0.707  -1.98714   3.52758   6.87750   1.97393   0.00000   1.003E+00   0.000E+00  -2.979E-03
 597  9.47854041   0.707  -1.98705   3.52758   6.87746   1.97380   0.00000   1.003E+00   0.000E+00  -2.974E-03
 598  9.48060048   0.707  -1.98696   3.52758   6.87742   1.97367   0.00000   1.003E+00   0.000E+00  -2.969E-03
 599  9.48265083   0.707  -1.98687   3.52758   6.87739   1.97353   0.00000   1.003E+00   0.000E+00  -2.964E-03
 600  9.48469154   0.707  -1.98678   3.52758   6.87735   1.97340   0.00000   1.003E+00   0.000E+00  -2.959E-03
 601  9.48672271   0.707  -1.98669   3.52758   6.87731   1.97327   0.00000   1.003E+00   0.000E+00  -2.954E-03
 602  9.48874442   0.707  -1.98660   3.52758   6.87728   1.97313   0.00000   1.003E+00   0.000E+00  -2.949E-03
 603  9.49075676   0.707  -1.98651   3.52758   6.87724   1.97300   0.00000   1.003E+00   0.000E+00  -2.944E-03
 604  9.49275983   0.707  -1.98642   3.52758   6.87720   1.97287   0.00000   1.003E+00   0.000E+00  -2.938E-03
 605  9.49475369   0.707  -1.98633   3.52758   6.87717   1.97274   0.00000   1.003E+00   0.000E+00  -2.932E-03
 606  9.49673845   0.707  -1.98624   3.52758   6.87713   1.97261   0.00000   1.003E+00   0.000E+00  -2.926E-03
 607  9.49871417   0.707  -1.98615   3.52758   6.87709   1.97248   0.00000   1.003E+00   0.000E+00  -2.921E-03
 608  9.50068095   0.707  -1.98607   3.52758   6.87706   1.97235   0.00000   1.003E+00   0.000E+00  -2.915E-03
 609  9.50263886   0.707  -1.98598   3.52759   6.87702   1.97222   0.00000   1.003E+00   0.000E+00  -2.909E-03
 610  9.50458799   0.707  -1.98589   3.52759   6.87698   1.97209   0.00000   1.003E+00   0.000E+00  -2.903E-03
 611  9.50652840   0.707  -1.98580   3.52759   6.87695   1.97196   0.00000   1.003E+00   0.000E+00  -2.898E-03
 612  9.50846018   0.707  -1.98571   3.52759   6.87691   1.97183   0.00000   1.003E+00   0.000E+00  -2.892E-03
 613  9.51038341   0.707  -1.98562   3.52759   6.87687   1.97170   0.00000   1.003E+00   0.000E+00  -2.886E-03
 614  9.51229816   0.707  -1.98553   3.52759   6.87684   1.97157   0.00000   1.003E+00   0.000E+00  -2.881E-03
 615  9.51420451   0.707  -1.98544   3.52759   6.87680   1.97144   0.00000   1.003E+00   0.000E+00  -2.875E-03
 616  9.51610252   0.707  -1.98536   3.52759   6.87676   1.97131   0.00000   1.003E+00   0.000E+00  -2.869E-03
 617  9.51799228   0.707  -1.98527   3.52759   6.87673   1.97118   0.00000   1.003E+00   0.000E+00  -2.863E-03
 618  9.51987385   0.707  -1.98518   3.52759   6.87669   1.97105   0.00000   1.003E+00   0.000E+00  -2.856E-03
 619  9.52174730   0.707  -1.98509   3.52759   6.87666   1.97093   0.00000   1.003E+00   0.000E+00  -2.850E-03
 620  9.52361270   0.707  -1.98501   3.52759   6.87662   1.97080   0.00000   1.003E+00   0.000E+00  -2.843E-03
 621  9.52547013   0.707  -1.98492   3.52759   6.87659   1.97067   0.00000   1.003E+00   0.000E+00  -2.837E-03
 622  9.52731964   0.707  -1.98483   3.52759   6.87655   1.97055   0.00000   1.003E+00   0.000E+00  -2.830E-03
 623  9.52916132   0.707  -1.98474   3.52759   6.87651   1.97042   0.00000   1.003E+00   0.000E+00  -2.824E-03
 624  9.53099521   0.707  -1.98466   3.52759   6.87648   1.97029   0.00000   1.003E+00   0.000E+00  -2.817E-03
 625  9.53282140   0.707  -1.98457   3.52759   6.87644   1.97016   0.00000   1.003E+00   0.000E+00  -2.811E-03
 626  9.53463993   0.707  -1.98448   3.52759   6.87641   1.97004   0.00000   1.003E+00   0.000E+00  -2.805E-03
 627  9.53645089   0.707  -1.98440   3.52759   6.87637   1.96991   0.00000   1.003E+00   0.000E+00  -2.798E-03
 628  9.53825432   0.707  -1.98431   3.52759   6.87633   1.96978   0.00000   1.003E+00   0.000E+00  -2.792E-03
 629  9.54005030   0.707  -1.98422   3.52759   6.87630   1.96965   0.00000   1.003E+00   0.000E+00  -2.785E-03
 630  9.54183888   0.707  -1.98413   3.52759   6.87626   1.96953   0.00000   1.003E+00   0.000E+00  -2.779E-03
 631  9.54362012   0.707  -1.98405   3.52759   6.87623   1.96940   0.00000   1.003E+00   0.000E+00  -2.773E-03
 632  9.54539409   0.707  -1.98397   3.52759   6.87619   1.96928   0.00000   1.003E+00   0.000E+00  -2.767E-03
 633  9.54716084   0.707  -1.98388   3.52759   6.87616   1.96915   0.00000   1.003E+00   0.000E+00  -2.762E-03
 634  9.54892044   0.707  -1.98380   3.52759   6.87612   1.96903   0.00000   1.003E+00   0.000E+00  -2.756E-03
 635  9.55067293   0.707  -1.98372   3.52759   6.87608   1.96890   0.00000   1.003E+00   0.000E+00  -2.750E-03
 636  9.55241838   0.707  -1.98363   3.52759   6.87605   1.96878   0.00000   1.003E+00   0.000E+00  -2.745E-03
 637  9.55415684   0.707  -1.98355   3.52759   6.87601   1.96865   0.00000   1.003E+00   0.000E+00  -2.739E-03
 638  9.55588837   0.707  -1.98346   3.52759   6.87598   1.96853   0.00000   1.003E+00   0.000E+00  -2.733E-03
 639  9.55761303   0.707  -1.98338   3.52759   6.87594   1.96840   0.00000   1.003E+00   0.000E+00  -2.727E-03
 640  9.55933086   0.707  -1.98330   3.52759   6.87591   1.96827   0.00000   1.003E+00   0.000E+00  -2.722E-03
 641  9.56104192   0.707  -1.98321   3.52759   6.87587   1.96815   0.00000   1.003E+00   0.000E+00  -2.716E-03
 642  9.56274628   0.707  -1.98313   3.52759   6.87583   1.96802   0.00000   1.003E+00   0.000E+00  -2.710E-03
 643  9.56444396   0.707  -1.98305   3.52759   6.87580   1.96790   0.00000   1.003E+00   0.000E+00  -2.705E-03
 644  9.56613504   0.707  -1.98296   3.52759   6.87576   1.96777   0.00000   1.003E+00   0.000E+00  -2.699E-03
 645  9.56781956   0.707  -1.98288   3.52759   6.87573   1.96765   0.00000   1.003E+00   0.000E+00  -2.691E-03
 646  9.56949757   0.707  -1.98280   3.52759   6.87570   1.96753   0.00000   1.003E+00   0.000E+00  -2.684E-03
 647  9.57116912   0.707  -1.98272   3.52759   6.87566   1.96741   0.00000   1.003E+00   0.000E+00  -2.677E-03
 648  9.57283426   0.707  -1.98263   3.52759   6.87563   1.96729   0.00000   1.003E+00   0.000E+00  -2.670E-03
 649  9.57449304   0.707  -1.98255   3.52759   6.87559   1.96717   0.00000   1.003E+00   0.000E+00  -2.663E-03
 650  9.57614551   0.707  -1.98247   3.52759   6.87556   1.96705   0.00000   1.003E+00   0.000E+00  -2.656E-03
 651  9.57779172   0.707  -1.98239   3.52760   6.87553   1.96693   0.00000   1.003E+00   0.000E+00  -2.648E-03
 652  9.57943171   0.707  -1.98230   3.52760   6.87549   1.96681   0.00000   1.003E+00   0.000E+00  -2.641E-03
 653  9.58106553   0.707  -1.98222   3.52760   6.87546   1.96669   0.00000   1.003E+00   0.000E+00  -2.634E-03
 654  9.58269323   0.707  -1.98214   3.52760   6.87543   1.96657   0.00000   1.003E+00   0.000E+00  -2.627E-03
 655  9.58431485   0.707  -1.98206   3.52760   6.87539   1.96645   0.00000   1.003E+00   0.000E+00  -2.620E-03
 656  9.58593043   0.707  -1.98198   3.52760   6.87536   1.96633   0.00000   1.003E+00   0.000E+00  -2.613E-03
 657  9.58754003   0.707  -1.98189   3.52760   6.87533   1.96621   0.00000   1.003E+00   0.000E+00  -2.605E-03
 658  9.58914369   0.707  -1.98181   3.52760   6.87529   1.96609   0.00000   1.003E+00   0.000E+00  -2.598E-03
 659  9.59074145   0.707  -1.98173   3.52760   6.87526   1.96598   0.00000   1.003E+00   0.000E+00  -2.592E-03
 660  9.59233334   0.707  -1.98165   3.52760   6.87523   1.96586   0.00000   1.003E+00   0.000E+00  -2.586E-03
 661  9.59391943   0.707  -1.98158   3.52760   6.87520   1.96574   0.00000   1.003E+00   0.000E+00  -2.579E-03
 662  9.59549974   0.707  -1.98150   3.52760   6.87516   1.96563   0.00000   1.003E+00   0.000E+00  -2.573E-03
 663  9.59707433   0.707  -1.98142   3.52760   6.87513   1.96551   0.00000   1.003E+00   0.000E+00  -2.566E-03
 664  9.59864323   0.707  -1.98134   3.52760   6.87510   1.96539   0.00000   1.003E+00   0.000E+00  -2.560E-03
 665  9.60020647   0.707  -1.98126   3.52760   6.87507   1.96528   0.00000   1.002E+00   0.000E+00  -2.553E-03
 666  9.60176412   0.707  -1.98118   3.52760   6.87503   1.96516   0.00000   1.002E+00   0.000E+00  -2.547E-03
 667  9.60331619   0.707  -1.98110   3.52760   6.87500   1.96504   0.00000   1.002E+00   0.000E+00  -2.541E-03
 668  9.60486274   0.707  -1.98102   3.52760   6.87497   1.96493   0.00000   1.002E+00   0.000E+00  -2.534E-03
 669  9.60640380   0.707  -1.98095   3.52760   6.87494   1.96481   0.00000   1.002E+00   0.000E+00  -2.528E-03
 670  9.60793941   0.707  -1.98087   3.52760   6.87491   1.96469   0.00000   1.002E+00   0.000E+00  -2.521E-03
 671  9.60946961   0.707  -1.98079   3.52760   6.87487   1.96458   0.00000   1.002E+00   0.000E+00  -2.515E-03
 672  9.61099444   0.707  -1.98071   3.52760   6.87484   1.96446   0.00000   1.002E+00   0.000E+00  -2.509E-03
 673  9.61251394   0.707  -1.98063   3.52760   6.87481   1.96435   0.00000   1.002E+00   0.000E+00  -2.503E-03
 674  9.61402813   0.707  -1.98056   3.52760   6.87478   1.96423   0.00000   1.002E+00   0.000E+00  -2.497E-03
 675  9.61553707   0.707  -1.98048   3.52760   6.87475   1.96412   0.00000   1.002E+00   0.000E+00  -2.491E-03
 676  9.61704078   0.707  -1.98040   3.52760   6.87472   1.96401   0.00000   1.002E+00   0.000E+00  -2.486E-03
 677  9.61853930   0.707  -1.98032   3.52760   6.87468   1.96390   0.00000   1.002E+00   0.000E+00  -2.480E-03
 678  9.62003267   0.707  -1.98025   3.52760   6.87465   1.96378   0.00000   1.002E+00   0.000E+00  -2.474E-03
 679  9.62152092   0.707  -1.98017   3.52761   6.87462   1.96367   0.00000   1.002E+00   0.000E+00  -2.468E-03
 680  9.62300409   0.706  -1.98009   3.52761   6.87459   1.96356   0.00000   1.002E+00   0.000E+00  -2.463E-03
 681  9.62448221   0.706  -1.98001   3.52761   6.87456   1.96344   0.00000   1.002E+00   0.000E+00  -2.457E-03
 682  9.62595531   0.706  -1.97994   3.52761   6.87453   1.96333   0.00000   1.002E+00   0.000E+00  -2.451E-03
 683  9.62742344   0.706  -1.97986   3.52761   6.87450   1.96322   0.00000   1.002E+00   0.000E+00  -2.446E-03
 684  9.62888662   0.706  -1.97978   3.52761   6.87446   1.96310   0.00000   1.002E+00   0.000E+00  -2.440E-03
 685  9.63034489   0.706  -1.97971   3.52761   6.87443   1.96299   0.00000   1.002E+00   0.000E+00  -2.434E-03
 686  9.63179828   0.706  -1.97963   3.52761   6.87440   1.96288   0.00000   1.002E+00   0.000E+00  -2.428E-03
 687  9.63324682   0.706  -1.97955   3.52761   6.87437   1.96277   0.00000   1.002E+00   0.000E+00  -2.422E-03
 688  9.63469054   0.706  -1.97948   3.52761   6.87434   1.96266   0.00000   1.002E+00   0.000E+00  -2.415E-03
 689  9.63612948   0.706  -1.97941   3.52761   6.87431   1.96255   0.00000   1.002E+00   0.000E+00  -2.409E-03
 690  9.63756367   0.706  -1.97933   3.52761   6.87428   1.96244   0.00000   1.002E+00   0.000E+00  -2.402E-03
 691  9.63899314   0.706  -1.97926   3.52761   6.87425   1.96233   0.00000   1.002E+00   0.000E+00  -2.396E-03
 692  9.64041792   0.706  -1.97918   3.52761   6.87422   1.96222   0.00000   1.002E+00   0.000E+00  -2.390E-03
 693  9.64183804   0.706  -1.97911   3.52761   6.87419   1.96211   0.00000   1.002E+00   0.000E+00  -2.383E-03
 694  9.64325353   0.706  -1.97903   3.52761   6.87416   1.96200   0.00000   1.002E+00   0.000E+00  -2.377E-03
 695  9.64466442   0.706  -1.97896   3.52761   6.87412   1.96189   0.00000   1.002E+00   0.000E+00  -2.370E-03
 696  9.64607075   0.706  -1.97888   3.52761   6.87409   1.96178   0.00000   1.002E+00   0.000E+00  -2.364E-03
 697  9.64747253   0.706  -1.97881   3.52761   6.87406   1.96167   0.00000   1.002E+00   0.000E+00  -2.357E-03
 698  9.64886981   0.706  -1.97874   3.52761   6.87403   1.96157   0.00000   1.002E+00   0.000E+00  -2.351E-03
 699  9.65026260   0.706  -1.97866   3.52761   6.87400   1.96146   0.00000   1.002E+00   0.000E+00  -2.344E-03
 700  9.65165094   0.706  -1.97859   3.52761   6.87397   1.96135   0.00000   1.002E+00   0.000E+00  -2.338E-03
 701  9.65303486   0.706  -1.97852   3.52761   6.87394   1.96124   0.00000   1.002E+00   0.000E+00  -2.332E-03
 702  9.65441438   0.706  -1.97844   3.52761   6.87391   1.96114   0.00000   1.002E+00   0.000E+00  -2.325E-03
 703  9.65578954   0.706  -1.97837   3.52761   6.87388   1.96103   0.00000   1.002E+00   0.000E+00  -2.319E-03
 704  9.65716035   0.706  -1.97830   3.52761   6.87385   1.96093   0.00000   1.002E+00   0.000E+00  -2.312E-03
 705  9.65852685   0.706  -1.97823   3.52761   6.87382   1.96082   0.00000   1.002E+00   0.000E+00  -2.306E-03
 706  9.65988906   0.706  -1.97816   3.52761   6.87379   1.96072   0.00000   1.002E+00   0.000E+00  -2.299E-03
 707  9.66124702   0.706  -1.97809   3.52761   6.87377   1.96061   0.00000   1.002E+00   0.000E+00  -2.293E-03
 708  9.66260074   0.706  -1.97802   3.52761   6.87374   1.96051   0.00000   1.002E+00   0.000E+00  -2.286E-03
 709  9.66395025   0.706  -1.97794   3.52761   6.87371   1.96040   0.00000   1.002E+00   0.000E+00  -2.280E-03
 710  9.66529558   0.706  -1.97787   3.52761   6.87368   1.96030   0.00000   1.002E+00   0.000E+00  -2.274E-03
 711  9.66663676   0.706  -1.97780   3.52761   6.87365   1.96019   0.00000   1.002E+00   0.000E+00  -2.267E-03
 712  9.66797381   0.706  -1.97773   3.52761   6.87362   1.96009   0.00000   1.002E+00   0.000E+00  -2.261E-03
 713  9.66930676   0.706  -1.97766   3.52761   6.87359   1.95998   0.00000   1.002E+00   0.000E+00  -2.254E-03
 714  9.67063563   0.706  -1.97759   3.52761   6.87356   1.95988   0.00000   1.002E+00   0.000E+00  -2.248E-03
 715  9.67196044   0.706  -1.97752   3.52761   6.87353   1.95977   0.00000   1.002E+00   0.000E+00  -2.242E-03
 716  9.67328123   0.706  -1.97745   3.52761   6.87350   1.95967   0.00000   1.002E+00   0.000E+00  -2.237E-03
 717  9.67459801   0.706  -1.97738   3.52761   6.87348   1.95957   0.00000   1.002E+00   0.000E+00  -2.231E-03
 718  9.67591081   0.706  -1.97731   3.52761   6.87345   1.95947   0.00000   1.002E+00   0.000E+00  -2.225E-03
 719  9.67721965   0.706  -1.97724   3.52761   6.87342   1.95937   0.00000   1.002E+00   0.000E+00  -2.219E-03
 720  9.67852457   0.706  -1.97717   3.52761   6.87339   1.95927   0.00000   1.002E+00   0.000E+00  -2.214E-03
 721  9.67982557   0.706  -1.97710   3.52762   6.87337   1.95916   0.00000   1.002E+00   0.000E+00  -2.208E-03
 722  9.68112268   0.706  -1.97703   3.52762   6.87334   1.95906   0.00000   1.002E+00   0.000E+00  -2.202E-03
 723  9.68241594   0.706  -1.97696   3.52762   6.87331   1.95896   0.00000   1.002E+00   0.000E+00  -2.197E-03
 724  9.68370535   0.706  -1.97689   3.52762   6.87328   1.95886   0.00000   1.002E+00   0.000E+00  -2.191E-03
 725  9.68499095   0.706  -1.97682   3.52762   6.87325   1.95876   0.00000   1.002E+00   0.000E+00  -2.185E-03
 726  9.68627275   0.706  -1.97675   3.52762   6.87323   1.95866   0.00000   1.002E+00   0.000E+00  -2.179E-03
 727  9.68755078   0.706  -1.97668   3.52762   6.87320   1.95856   0.00000   1.002E+00   0.000E+00  -2.174E-03
 728  9.68882506   0.706  -1.97661   3.52762   6.87317   1.95845   0.00000   1.002E+00   0.000E+00  -2.168E-03
 729  9.69009562   0.706  -1.97654   3.52762   6.87314   1.95836   0.00000   1.002E+00   0.000E+00  -2.162E-03
 730  9.69136246   0.706  -1.97647   3.52762   6.87312   1.95826   0.00000   1.002E+00   0.000E+00  -2.157E-03
 731  9.69262563   0.706  -1.97640   3.52762   6.87309   1.95816   0.00000   1.002E+00   0.000E+00  -2.151E-03
 732  9.69388512   0.706  -1.97634   3.52762   6.87306   1.95806   0.00000   1.002E+00   0.000E+00  -2.145E-03
 733  9.69514098   0.706  -1.97627   3.52762   6.87303   1.95796   0.00000   1.002E+00   0.000E+00  -2.139E-03
 734  9.69639322   0.706  -1.97620   3.52762   6.87301   1.95786   0.00000   1.002E+00   0.000E+00  -2.134E-03
 735  9.69764185   0.706  -1.97614   3.52762   6.87298   1.95776   0.00000   1.002E+00   0.000E+00  -2.128E-03
 736  9.69888691   0.706  -1.97607   3.52762   6.87295   1.95766   0.00000   1.002E+00   0.000E+00  -2.122E-03
 737  9.70012840   0.706  -1.97600   3.52762   6.87293   1.95757   0.00000   1.002E+00   0.000E+00  -2.116E-03
 738  9.70136636   0.706  -1.97593   3.52762   6.87290   1.95747   0.00000   1.002E+00   0.000E+00  -2.111E-03
 739  9.70260080   0.706  -1.97587   3.52762   6.87287   1.95737   0.00000   1.002E+00   0.000E+00  -2.105E-03
 740  9.70383174   0.706  -1.97580   3.52762   6.87284   1.95727   0.00000   1.002E+00   0.000E+00  -2.099E-03
 741  9.70505920   0.706  -1.97573   3.52762   6.87282   1.95717   0.00000   1.002E+00   0.000E+00  -2.094E-03
 742  9.70628320   0.706  -1.97567   3.52762   6.87279   1.95707   0.00000   1.002E+00   0.000E+00  -2.088E-03
 743  9.70750376   0.706  -1.97560   3.52762   6.87276   1.95698   0.00000   1.002E+00   0.000E+00  -2.083E-03
 744  9.70872090   0.706  -1.97553   3.52762   6.87274   1.95688   0.00000   1.002E+00   0.000E+00  -2.078E-03
 745  9.70993464   0.706  -1.97547   3.52762   6.87271   1.95679   0.00000   1.002E+00   0.000E+00  -2.073E-03
 746  9.71114500   0.706  -1.97540   3.52762   6.87268   1.95669   0.00000   1.002E+00   0.000E+00  -2.068E-03
 747  9.71235199   0.706  -1.97534   3.52762   6.87266   1.95660   0.00000   1.002E+00   0.000E+00  -2.063E-03
 748  9.71355564   0.706  -1.97527   3.52762   6.87263   1.95650   0.00000   1.002E+00   0.000E+00  -2.058E-03
 749  9.71475596   0.706  -1.97521   3.52763   6.87260   1.95641   0.00000   1.002E+00   0.000E+00  -2.053E-03
 750  9.71595297   0.706  -1.97514   3.52763   6.87258   1.95631   0.00000   1.002E+00   0.000E+00  -2.048E-03
 751  9.71714669   0.706  -1.97508   3.52763   6.87255   1.95622   0.00000   1.002E+00   0.000E+00  -2.043E-03
 752  9.71833714   0.706  -1.97501   3.52763   6.87253   1.95612   0.00000   1.002E+00   0.000E+00  -2.038E-03
 753  9.71952434   0.706  -1.97495   3.52763   6.87250   1.95603   0.00000   1.002E+00   0.000E+00  -2.033E-03
 754  9.72070830   0.706  -1.97488   3.52763   6.87247   1.95593   0.00000   1.002E+00   0.000E+00  -2.028E-03
 755  9.72188904   0.706  -1.97482   3.52763   6.87245   1.95584   0.00000   1.002E+00   0.000E+00  -2.023E-03
 756  9.72306658   0.706  -1.97475   3.52763   6.87242   1.95574   0.00000   1.002E+00   0.000E+00  -2.018E-03
 757  9.72424093   0.706  -1.97469   3.52763   6.87239   1.95565   0.00000   1.002E+00   0.000E+00  -2.012E-03
 758  9.72541212   0.706  -1.97463   3.52763   6.87237   1.95556   0.00000   1.002E+00   0.000E+00  -2.006E-03
 759  9.72658016   0.706  -1.97457   3.52763   6.87234   1.95547   0.00000   1.002E+00   0.000E+00  -2.000E-03
 760  9.72774506   0.706  -1.97450   3.52763   6.87232   1.95538   0.00000   1.002E+00   0.000E+00  -1.995E-03
 761  9.72890685   0.706  -1.97444   3.52763   6.87229   1.95528   0.00000   1.002E+00   0.000E+00  -1.989E-03
 762  9.73006554   0.706  -1.97438   3.52763   6.87227   1.95519   0.00000   1.002E+00   0.000E+00  -1.983E-03
 763  9.73122115   0.706  -1.97431   3.52763   6.87224   1.95510   0.00000   1.002E+00   0.000E+00  -1.978E-03
 764  9.73237369   0.706  -1.97425   3.52763   6.87222   1.95501   0.00000   1.002E+00   0.000E+00  -1.972E-03
 765  9.73352318   0.706  -1.97419   3.52763   6.87219   1.95492   0.00000   1.002E+00   0.000E+00  -1.966E-03
 766  9.73466963   0.706  -1.97412   3.52763   6.87217   1.95483   0.00000   1.002E+00   0.000E+00  -1.960E-03
 767  9.73581307   0.706  -1.97406   3.52763   6.87214   1.95474   0.00000   1.002E+00   0.000E+00  -1.955E-03
 768  9.73695350   0.706  -1.97400   3.52763   6.87212   1.95464   0.00000   1.002E+00   0.000E+00  -1.949E-03
 769  9.73809095   0.706  -1.97394   3.52763   6.87209   1.95455   0.00000   1.002E+00   0.000E+00  -1.943E-03
 770  9.73922542   0.706  -1.97387   3.52763   6.87207   1.95446   0.00000   1.002E+00   0.000E+00  -1.938E-03
 771  9.74035694   0.706  -1.97381   3.52763   6.87205   1.95437   0.00000   1.002E+00   0.000E+00  -1.933E-03
 772  9.74148552   0.706  -1.97375   3.52763   6.87202   1.95428   0.00000   1.002E+00   0.000E+00  -1.928E-03
 773  9.74261117   0.706  -1.97369   3.52763   6.87200   1.95420   0.00000   1.002E+00   0.000E+00  -1.923E-03
 774  9.74373392   0.706  -1.97363   3.52763   6.87197   1.95411   0.00000   1.002E+00   0.000E+00  -1.918E-03
 775  9.74485376   0.706  -1.97357   3.52763   6.87195   1.95402   0.00000   1.002E+00   0.000E+00  -1.913E-03
 776  9.74597073   0.706  -1.97350   3.52763   6.87192   1.95393   0.00000   1.002E+00   0.000E+00  -1.908E-03
 777  9.74708484   0.706  -1.97344   3.52763   6.87190   1.95384   0.00000   1.002E+00   0.000E+00  -1.903E-03
 778  9.74819609   0.706  -1.97338   3.52763   6.87187   1.95375   0.00000   1.002E+00   0.000E+00  -1.898E-03
 779  9.74930450   0.706  -1.97332   3.52763   6.87185   1.95366   0.00000   1.002E+00   0.000E+00  -1.893E-03
 780  9.75041010   0.705  -1.97326   3.52763   6.87183   1.95357   0.00000   1.002E+00   0.000E+00  -1.888E-03
 781  9.75151289   0.705  -1.97320   3.52763   6.87180   1.95349   0.00000   1.002E+00   0.000E+00  -1.883E-03
 782  9.75261288   0.705  -1.97313   3.52763   6.87178   1.95340   0.00000   1.002E+00   0.000E+00  -1.878E-03
 783  9.75371009   0.705  -1.97307   3.52763   6.87175   1.95331   0.00000   1.002E+00   0.000E+00  -1.873E-03
 784  9.75480454   0.705  -1.97301   3.52763   6.87173   1.95322   0.00000   1.002E+00   0.000E+00  -1.868E-03
 785  9.75589624   0.705  -1.97295   3.52763   6.87171   1.95313   0.00000   1.002E+00   0.000E+00  -1.864E-03
 786  9.75698520   0.705  -1.97290   3.52763   6.87168   1.95305   0.00000   1.002E+00   0.000E+00  -1.859E-03
 787  9.75807144   0.705  -1.97284   3.52763   6.87166   1.95296   0.00000   1.002E+00   0.000E+00  -1.855E-03
 788  9.75915497   0.705  -1.97278   3.52763   6.87163   1.95288   0.00000   1.002E+00   0.000E+00  -1.851E-03
 789  9.76023580   0.705  -1.97272   3.52763   6.87161   1.95279   0.00000   1.002E+00   0.000E+00  -1.847E-03
 790  9.76131395   0.705  -1.97266   3.52763   6.87159   1.95271   0.00000   1.002E+00   0.000E+00  -1.842E-03
 791  9.76238942   0.705  -1.97260   3.52764   6.87156   1.95262   0.00000   1.002E+00   0.000E+00  -1.838E-03
 792  9.76346225   0.705  -1.97254   3.52764   6.87154   1.95253   0.00000   1.002E+00   0.000E+00  -1.834E-03
 793  9.76453242   0.705  -1.97249   3.52764   6.87152   1.95245   0.00000   1.002E+00   0.000E+00  -1.829E-03
 794  9.76559997   0.705  -1.97243   3.52764   6.87149   1.95236   0.00000   1.002E+00   0.000E+00  -1.825E-03
 795  9.76666490   0.705  -1.97237   3.52764   6.87147   1.95228   0.00000   1.002E+00   0.000E+00  -1.821E-03
 796  9.76772722   0.705  -1.97231   3.52764   6.87145   1.95219   0.00000   1.002E+00   0.000E+00  -1.817E-03
 797  9.76878696   0.705  -1.97225   3.52764   6.87142   1.95210   0.00000   1.002E+00   0.000E+00  -1.812E-03
 798  9.76984411   0.705  -1.97219   3.52764   6.87140   1.95202   0.00000   1.002E+00   0.000E+00  -1.808E-03
 799  9.77089869   0.705  -1.97214   3.52764   6.87138   1.95194   0.00000   1.002E+00   0.000E+00  -1.803E-03
 800  9.77195072   0.705  -1.97208   3.52764   6.87135   1.95185   0.00000   1.002E+00   0.000E+00  -1.798E-03
 801  9.77300021   0.705  -1.97202   3.52764   6.87133   1.95177   0.00000   1.002E+00   0.000E+00  -1.793E-03
 802  9.77404717   0.705  -1.97196   3.52764   6.87131   1.95169   0.00000   1.002E+00   0.000E+00  -1.788E-03
 803  9.77509161   0.705  -1.97191   3.52764   6.87128   1.95161   0.00000   1.002E+00   0.000E+00  -1.783E-03
 804  9.77613355   0.705  -1.97185   3.52764   6.87126   1.95152   0.00000   1.002E+00   0.000E+00  -1.778E-03
 805  9.77717299   0.705  -1.97179   3.52764   6.87124   1.95144   0.00000   1.002E+00   0.000E+00  -1.773E-03
 806  9.77820995   0.705  -1.97173   3.52764   6.87122   1.95136   0.00000   1.002E+00   0.000E+00  -1.768E-03
 807  9.77924444   0.705  -1.97168   3.52764   6.87119   1.95127   0.00000   1.002E+00   0.000E+00  -1.763E-03
 808  9.78027647   0.705  -1.97162   3.52764   6.87117   1.95119   0.00000   1.002E+00   0.000E+00  -1.758E-03
 809  9.78130605   0.705  -1.97156   3.52764   6.87115   1.95111   0.00000   1.002E+00   0.000E+00  -1.752E-03
 810  9.78233320   0.705  -1.97151   3.52764   6.87112   1.95102   0.00000   1.002E+00   0.000E+00  -1.747E-03
 811  9.78335793   0.705  -1.97145   3.52764   6.87110   1.95094   0.00000   1.002E+00   0.000E+00  -1.742E-03
 812  9.78438024   0.705  -1.97139   3.52764   6.87108   1.95086   0.00000   1.002E+00   0.000E+00  -1.738E-03
 813  9.78540015   0.705  -1.97134   3.52764   6.87106   1.95078   0.00000   1.002E+00   0.000E+00  -1.734E-03
 814  9.78641767   0.705  -1.97128   3.52764   6.87103   1.95070   0.00000   1.002E+00   0.000E+00  -1.729E-03
 815  9.78743282   0.705  -1.97123   3.52764   6.87101   1.95062   0.00000   1.002E+00   0.000E+00  -1.725E-03
 816  9.78844560   0.705  -1.97117   3.52764   6.87099   1.95054   0.00000   1.002E+00   0.000E+00  -1.721E-03
 817  9.78945602   0.705  -1.97112   3.52764   6.87097   1.95045   0.00000   1.002E+00   0.000E+00  -1.716E-03
 818  9.79046409   0.705  -1.97106   3.52764   6.87095   1.95037   0.00000   1.002E+00   0.000E+00  -1.712E-03
 819  9.79146983   0.705  -1.97101   3.52765   6.87092   1.95029   0.00000   1.002E+00   0.000E+00  -1.708E-03
 820  9.79247325   0.705  -1.97095   3.52765   6.87090   1.95021   0.00000   1.002E+00   0.000E+00  -1.703E-03
 821  9.79347436   0.705  -1.97090   3.52765   6.87088   1.95013   0.00000   1.002E+00   0.000E+00  -1.699E-03
 822  9.79447316   0.705  -1.97084   3.52765   6.87086   1.95005   0.00000   1.002E+00   0.000E+00  -1.695E-03
 823  9.79546967   0.705  -1.97079   3.52765   6.87083   1.94997   0.00000   1.002E+00   0.000E+00  -1.691E-03
 824  9.79646390   0.705  -1.97073   3.52765   6.87081   1.94989   0.00000   1.002E+00   0.000E+00  -1.686E-03
 825  9.79745585   0.705  -1.97068   3.52765   6.87079   1.94981   0.00000   1.002E+00   0.000E+00  -1.682E-03
 826  9.79844555   0.705  -1.97062   3.52765   6.87077   1.94973   0.00000   1.002E+00   0.000E+00  -1.678E-03
 827  9.79943300   0.705  -1.97057   3.52765   6.87075   1.94965   0.00000   1.002E+00   0.000E+00  -1.673E-03
 828  9.80041821   0.705  -1.97051   3.52765   6.87073   1.94957   0.00000   1.002E+00   0.000E+00  -1.669E-03
 829  9.80140118   0.705  -1.97046   3.52765   6.87071   1.94950   0.00000   1.002E+00   0.000E+00  -1.665E-03
 830  9.80238194   0.705  -1.97041   3.52765   6.87069   1.94942   0.00000   1.002E+00   0.000E+00  -1.661E-03
 831  9.80336049   0.705  -1.97035   3.52765   6.87067   1.94934   0.00000   1.002E+00   0.000E+00  -1.656E-03
 832  9.80433684   0.705  -1.97030   3.52765   6.87064   1.94927   0.00000   1.002E+00   0.000E+00  -1.652E-03
 833  9.80531099   0.705  -1.97025   3.52765   6.87062   1.94919   0.00000   1.002E+00   0.000E+00  -1.648E-03
 834  9.80628297   0.705  -1.97019   3.52765   6.87060   1.94911   0.00000   1.002E+00   0.000E+00  -1.643E-03
 835  9.80725278   0.705  -1.97014   3.52765   6.87058   1.94903   0.00000   1.002E+00   0.000E+00  -1.639E-03
 836  9.80822042   0.705  -1.97008   3.52765   6.87056   1.94896   0.00000   1.002E+00   0.000E+00  -1.635E-03
 837  9.80918592   0.705  -1.97003   3.52765   6.87054   1.94888   0.00000   1.002E+00   0.000E+00  -1.630E-03
 838  9.81014927   0.705  -1.96998   3.52765   6.87052   1.94880   0.00000   1.002E+00   0.000E+00  -1.626E-03
 839  9.81111049   0.705  -1.96992   3.52765   6.87050   1.94872   0.00000   1.002E+00   0.000E+00  -1.622E-03
 840  9.81206959   0.705  -1.96987   3.52765   6.87048   1.94865   0.00000   1.002E+00   0.000E+00  -1.618E-03
 841  9.81302658   0.705  -1.96982   3.52765   6.87046   1.94857   0.00000   1.002E+00   0.000E+00  -1.614E-03
 842  9.81398146   0.705  -1.96977   3.52765   6.87044   1.94850   0.00000   1.002E+00   0.000E+00  -1.611E-03
 843  9.81493424   0.705  -1.96971   3.52765   6.87042   1.94842   0.00000   1.002E+00   0.000E+00  -1.607E-03
 844  9.81588494   0.705  -1.96966   3.52765   6.87040   1.94835   0.00000   1.002E+00   0.000E+00  -1.604E-03
 845  9.81683357   0.705  -1.96961   3.52765   6.87037   1.94827   0.00000   1.002E+00   0.000E+00  -1.600E-03
 846  9.81778012   0.705  -1.96956   3.52765   6.87035   1.94820   0.00000   1.002E+00   0.000E+00  -1.597E-03
 847  9.81872462   0.705  -1.96951   3.52766   6.87033   1.94812   0.00000   1.002E+00   0.000E+00  -1.593E-03
 848  9.81966707   0.705  -1.96945   3.52766   6.87031   1.94805   0.00000   1.002E+00   0.000E+00  -1.589E-03
 849  9.82060747   0.705  -1.96940   3.52766   6.87029   1.94797   0.00000   1.002E+00   0.000E+00  -1.586E-03
 850  9.82154585   0.705  -1.96935   3.52766   6.87027   1.94790   0.00000   1.002E+00   0.000E+00  -1.582E-03
 851  9.82248220   0.705  -1.96930   3.52766   6.87025   1.94782   0.00000   1.002E+00   0.000E+00  -1.579E-03
 852  9.82341654   0.705  -1.96924   3.52766   6.87023   1.94775   0.00000   1.002E+00   0.000E+00  -1.575E-03
 853  9.82434887   0.705  -1.96919   3.52766   6.87021   1.94767   0.00000   1.002E+00   0.000E+00  -1.572E-03
 854  9.82527921   0.705  -1.96914   3.52766   6.87019   1.94760   0.00000   1.002E+00   0.000E+00  -1.568E-03
 855  9.82620755   0.705  -1.96909   3.52766   6.87017   1.94752   0.00000   1.002E+00   0.000E+00  -1.563E-03
 856  9.82713392   0.705  -1.96904   3.52766   6.87015   1.94745   0.00000   1.002E+00   0.000E+00  -1.559E-03
 857  9.82805831   0.705  -1.96899   3.52766   6.87013   1.94738   0.00000   1.002E+00   0.000E+00  -1.555E-03
 858  9.82898074   0.705  -1.96894   3.52766   6.87011   1.94731   0.00000   1.002E+00   0.000E+00  -1.550E-03
 859  9.82990122   0.705  -1.96889   3.52766   6.87009   1.94723   0.00000   1.002E+00   0.000E+00  -1.546E-03
 860  9.83081975   0.705  -1.96884   3.52766   6.87007   1.94716   0.00000   1.002E+00   0.000E+00  -1.542E-03
 861  9.83173634   0.705  -1.96879   3.52766   6.87005   1.94709   0.00000   1.002E+00   0.000E+00  -1.537E-03
 862  9.83265099   0.705  -1.96874   3.52766   6.87003   1.94701   0.00000   1.002E+00   0.000E+00  -1.533E-03
 863  9.83356373   0.705  -1.96869   3.52766   6.87001   1.94694   0.00000   1.002E+00   0.000E+00  -1.529E-03
 864  9.83447456   0.705  -1.96864   3.52766   6.87000   1.94687   0.00000   1.002E+00   0.000E+00  -1.525E-03
 865  9.83538347   0.705  -1.96859   3.52766   6.86998   1.94679   0.00000   1.002E+00   0.000E+00  -1.520E-03
 866  9.83629049   0.705  -1.96854   3.52766   6.86996   1.94672   0.00000   1.002E+00   0.000E+00  -1.516E-03
 867  9.83719562   0.705  -1.96849   3.52766   6.86994   1.94665   0.00000   1.002E+00   0.000E+00  -1.512E-03
 868  9.83809886   0.705  -1.96844   3.52766   6.86992   1.94658   0.00000   1.002E+00   0.000E+00  -1.508E-03
 869  9.83900024   0.705  -1.96839   3.52766   6.86990   1.94651   0.00000   1.002E+00   0.000E+00  -1.504E-03
 870  9.83989974   0.705  -1.96834   3.52766   6.86988   1.94644   0.00000   1.002E+00   0.000E+00  -1.501E-03
 871  9.84079738   0.705  -1.96829   3.52766   6.86986   1.94636   0.00000   1.002E+00   0.000E+00  -1.497E-03
 872  9.84169318   0.705  -1.96824   3.52766   6.86984   1.94629   0.00000   1.002E+00   0.000E+00  -1.494E-03
 873  9.84258713   0.705  -1.96819   3.52766   6.86982   1.94622   0.00000   1.002E+00   0.000E+00  -1.490E-03
 874  9.84347924   0.705  -1.96814   3.52766   6.86980   1.94615   0.00000   1.002E+00   0.000E+00  -1.486E-03
 875  9.84436953   0.705  -1.96809   3.52766   6.86978   1.94608   0.00000   1.001E+00   0.000E+00  -1.483E-03
 876  9.84525799   0.705  -1.96805   3.52766   6.86976   1.94601   0.00000   1.001E+00   0.000E+00  -1.479E-03
 877  9.84614464   0.705  -1.96800   3.52766   6.86974   1.94594   0.00000   1.001E+00   0.000E+00  -1.476E-03
 878  9.84702948   0.705  -1.96795   3.52766   6.86973   1.94587   0.00000   1.001E+00   0.000E+00  -1.472E-03
 879  9.84791252   0.705  -1.96790   3.52766   6.86971   1.94580   0.00000   1.001E+00   0.000E+00  -1.468E-03
 880  9.84879378   0.705  -1.96785   3.52766   6.86969   1.94573   0.00000   1.001E+00   0.000E+00  -1.465E-03
 881  9.84967324   0.705  -1.96780   3.52766   6.86967   1.94566   0.00000   1.001E+00   0.000E+00  -1.461E-03
 882  9.85055093   0.705  -1.96775   3.52766   6.86965   1.94559   0.00000   1.001E+00   0.000E+00  -1.458E-03
 883  9.85142685   0.705  -1.96770   3.52766   6.86963   1.94552   0.00000   1.001E+00   0.000E+00  -1.454E-03
 884  9.85230101   0.705  -1.96766   3.52766   6.86961   1.94545   0.00000   1.001E+00   0.000E+00  -1.451E-03
 885  9.85317341   0.705  -1.96761   3.52766   6.86960   1.94538   0.00000   1.001E+00   0.000E+00  -1.447E-03
 886  9.85404406   0.705  -1.96756   3.52766   6.86958   1.94531   0.00000   1.001E+00   0.000E+00  -1.443E-03
 887  9.85491297   0.705  -1.96751   3.52766   6.86956   1.94524   0.00000   1.001E+00   0.000E+00  -1.440E-03
 888  9.85578015   0.705  -1.96747   3.52766   6.86954   1.94517   0.00000   1.001E+00   0.000E+00  -1.436E-03
 889  9.85664559   0.705  -1.96742   3.52767   6.86952   1.94511   0.00000   1.001E+00   0.000E+00  -1.433E-03
 890  9.85750932   0.705  -1.96737   3.52767   6.86951   1.94504   0.00000   1.001E+00   0.000E+00  -1.429E-03
 891  9.85837133   0.704  -1.96733   3.52767   6.86949   1.94497   0.00000   1.001E+00   0.000E+00  -1.426E-03
 892  9.85923163   0.704  -1.96728   3.52767   6.86947   1.94490   0.00000   1.001E+00   0.000E+00  -1.422E-03
 893  9.86009024   0.704  -1.96723   3.52767   6.86945   1.94483   0.00000   1.001E+00   0.000E+00  -1.418E-03
 894  9.86094714   0.704  -1.96718   3.52767   6.86943   1.94476   0.00000   1.001E+00   0.000E+00  -1.415E-03
 895  9.86180237   0.704  -1.96714   3.52767   6.86942   1.94469   0.00000   1.001E+00   0.000E+00  -1.411E-03
 896  9.86265591   0.704  -1.96709   3.52767   6.86940   1.94463   0.00000   1.001E+00   0.000E+00  -1.408E-03
 897  9.86350777   0.704  -1.96704   3.52767   6.86938   1.94456   0.00000   1.001E+00   0.000E+00  -1.405E-03
 898  9.86435797   0.704  -1.96700   3.52767   6.86936   1.94449   0.00000   1.001E+00   0.000E+00  -1.402E-03
 899  9.86520651   0.704  -1.96695   3.52767   6.86934   1.94443   0.00000   1.001E+00   0.000E+00  -1.400E-03
 900  9.86605339   0.704  -1.96691   3.52767   6.86933   1.94436   0.00000   1.001E+00   0.000E+00  -1.397E-03
 901  9.86689862   0.704  -1.96686   3.52767   6.86931   1.94429   0.00000   1.001E+00   0.000E+00  -1.394E-03
 902  9.86774222   0.704  -1.96682   3.52767   6.86929   1.94423   0.00000   1.001E+00   0.000E+00  -1.391E-03
 903  9.86858417   0.704  -1.96677   3.52767   6.86927   1.94416   0.00000   1.001E+00   0.000E+00  -1.388E-03
 904  9.86942450   0.704  -1.96672   3.52767   6.86926   1.94409   0.00000   1.001E+00   0.000E+00  -1.385E-03
 905  9.87026321   0.704  -1.96668   3.52767   6.86924   1.94403   0.00000   1.001E+00   0.000E+00  -1.382E-03
 906  9.87110030   0.704  -1.96663   3.52767   6.86922   1.94396   0.00000   1.001E+00   0.000E+00  -1.380E-03
 907  9.87193577   0.704  -1.96659   3.52767   6.86920   1.94389   0.00000   1.001E+00   0.000E+00  -1.377E-03
 908  9.87276965   0.704  -1.96654   3.52767   6.86918   1.94383   0.00000   1.001E+00   0.000E+00  -1.374E-03
 909  9.87360192   0.704  -1.96649   3.52767   6.86917   1.94376   0.00000   1.001E+00   0.000E+00  -1.371E-03
 910  9.87443261   0.704  -1.96645   3.52767   6.86915   1.94369   0.00000   1.001E+00   0.000E+00  -1.369E-03
 911  9.87526171   0.704  -1.96640   3.52767   6.86913   1.94363   0.00000   1.001E+00   0.000E+00  -1.366E-03
 912  9.87608922   0.704  -1.96636   3.52767   6.86911   1.94356   0.00000   1.001E+00   0.000E+00  -1.364E-03
 913  9.87691517   0.704  -1.96631   3.52767   6.86909   1.94349   0.00000   1.001E+00   0.000E+00  -1.362E-03
 914  9.87773955   0.704  -1.96627   3.52767   6.86907   1.94342   0.00000   1.001E+00   0.000E+00  -1.360E-03
 915  9.87856236   0.704  -1.96622   3.52767   6.86905   1.94335   0.00000   1.001E+00   0.000E+00  -1.358E-03
 916  9.87938362   0.704  -1.96618   3.52767   6.86903   1.94329   0.00000   1.001E+00   0.000E+00  -1.356E-03
 917  9.88020333   0.704  -1.96613   3.52768   6.86901   1.94322   0.00000   1.001E+00   0.000E+00  -1.354E-03
 918  9.88102149   0.704  -1.96609   3.52768   6.86899   1.94315   0.00000   1.001E+00   0.000E+00  -1.351E-03
 919  9.88183812   0.704  -1.96604   3.52768   6.86897   1.94308   0.00000   1.001E+00   0.000E+00  -1.349E-03
 920  9.88265321   0.704  -1.96600   3.52768   6.86895   1.94301   0.00000   1.001E+00   0.000E+00  -1.347E-03
 921  9.88346678   0.704  -1.96595   3.52768   6.86893   1.94295   0.00000   1.001E+00   0.000E+00  -1.345E-03
 922  9.88427883   0.704  -1.96591   3.52768   6.86892   1.94288   0.00000   1.001E+00   0.000E+00  -1.343E-03
 923  9.88508936   0.704  -1.96586   3.52768   6.86890   1.94281   0.00000   1.001E+00   0.000E+00  -1.341E-03
 924  9.88589838   0.704  -1.96582   3.52768   6.86888   1.94275   0.00000   1.001E+00   0.000E+00  -1.337E-03
 925  9.88670589   0.704  -1.96578   3.52768   6.86886   1.94268   0.00000   1.001E+00   0.000E+00  -1.333E-03
 926  9.88751191   0.704  -1.96573   3.52768   6.86885   1.94262   0.00000   1.001E+00   0.000E+00  -1.328E-03
 927  9.88831643   0.704  -1.96569   3.52768   6.86883   1.94256   0.00000   1.001E+00   0.000E+00  -1.324E-03
 928  9.88911947   0.704  -1.96564   3.52768   6.86881   1.94250   0.00000   1.001E+00   0.000E+00  -1.320E-03
 929  9.88992102   0.704  -1.96560   3.52768   6.86880   1.94243   0.00000   1.001E+00   0.000E+00  -1.316E-03
 930  9.89072110   0.704  -1.96556   3.52768   6.86878   1.94237   0.00000   1.001E+00   0.000E+00  -1.311E-03
 931  9.89151971   0.704  -1.96551   3.52768   6.86876   1.94231   0.00000   1.001E+00   0.000E+00  -1.307E-03
 932  9.89231685   0.704  -1.96547   3.52768   6.86875   1.94225   0.00000   1.001E+00   0.000E+00  -1.303E-03
 933  9.89311253   0.704  -1.96543   3.52768   6.86873   1.94219   0.00000   1.001E+00   0.000E+00  -1.298E-03
 934  9.89390675   0.704  -1.96538   3.52768   6.86871   1.94212   0.00000   1.001E+00   0.000E+00  -1.294E-03
 935  9.89469953   0.704  -1.96534   3.52768   6.86870   1.94206   0.00000   1.001E+00   0.000E+00  -1.290E-03
 936  9.89549086   0.704  -1.96530   3.52768   6.86868   1.94200   0.00000   1.001E+00   0.000E+00  -1.285E-03
 937  9.89628075   0.704  -1.96525   3.52768   6.86866   1.94194   0.00000   1.001E+00   0.000E+00  -1.281E-03
 938  9.89706921   0.704  -1.96521   3.52768   6.86865   1.94188   0.00000   1.001E+00   0.000E+00  -1.278E-03
 939  9.89785624   0.704  -1.96517   3.52768   6.86863   1.94181   0.00000   1.001E+00   0.000E+00  -1.275E-03
 940  9.89864184   0.704  -1.96512   3.52768   6.86862   1.94175   0.00000   1.001E+00   0.000E+00  -1.272E-03
 941  9.89942603   0.704  -1.96508   3.52768   6.86860   1.94169   0.00000   1.001E+00   0.000E+00  -1.269E-03
 942  9.90020880   0.704  -1.96504   3.52768   6.86859   1.94163   0.00000   1.001E+00   0.000E+00  -1.266E-03
 943  9.90099017   0.704  -1.96500   3.52768   6.86857   1.94157   0.00000   1.001E+00   0.000E+00  -1.264E-03
 944  9.90177013   0.704  -1.96496   3.52768   6.86855   1.94151   0.00000   1.001E+00   0.000E+00  -1.261E-03
 945  9.90254869   0.704  -1.96491   3.52769   6.86854   1.94145   0.00000   1.001E+00   0.000E+00  -1.258E-03
 946  9.90332586   0.704  -1.96487   3.52769   6.86852   1.94139   0.00000   1.001E+00   0.000E+00  -1.255E-03
 947  9.90410164   0.704  -1.96483   3.52769   6.86851   1.94133   0.00000   1.001E+00   0.000E+00  -1.252E-03
 948  9.90487604   0.704  -1.96479   3.52769   6.86849   1.94127   0.00000   1.001E+00   0.000E+00  -1.249E-03
 949  9.90564906   0.704  -1.96474   3.52769   6.86848   1.94121   0.00000   1.001E+00   0.000E+00  -1.246E-03
 950  9.90642071   0.704  -1.96470   3.52769   6.86846   1.94115   0.00000   1.001E+00   0.000E+00  -1.244E-03
 951  9.90719098   0.704  -1.96466   3.52769   6.86844   1.94109   0.00000   1.001E+00   0.000E+00  -1.241E-03
 952  9.90795990   0.704  -1.96462   3.52769   6.86843   1.94103   0.00000   1.001E+00   0.000E+00  -1.238E-03
 953  9.90872745   0.704  -1.96458   3.52769   6.86841   1.94097   0.00000   1.001E+00   0.000E+00  -1.235E-03
 954  9.90949365   0.704  -1.96454   3.52769   6.86840   1.94091   0.00000   1.001E+00   0.000E+00  -1.232E-03
 955  9.91025850   0.704  -1.96449   3.52769   6.86838   1.94085   0.00000   1.001E+00   0.000E+00  -1.229E-03
 956  9.91102201   0.704  -1.96445   3.52769   6.86837   1.94079   0.00000   1.001E+00   0.000E+00  -1.226E-03
 957  9.91178418   0.704  -1.96441   3.52769   6.86835   1.94073   0.00000   1.001E+00   0.000E+00  -1.224E-03
 958  9.91254501   0.704  -1.96437   3.52769   6.86833   1.94067   0.00000   1.001E+00   0.000E+00  -1.221E-03
 959  9.91330451   0.704  -1.96433   3.52769   6.86832   1.94061   0.00000   1.001E+00   0.000E+00  -1.218E-03
 960  9.91406269   0.704  -1.96429   3.52769   6.86830   1.94055   0.00000   1.001E+00   0.000E+00  -1.215E-03
 961  9.91481954   0.704  -1.96425   3.52769   6.86829   1.94049   0.00000   1.001E+00   0.000E+00  -1.212E-03
 962  9.91557508   0.704  -1.96420   3.52769   6.86827   1.94043   0.00000   1.001E+00   0.000E+00  -1.209E-03
 963  9.91632930   0.704  -1.96416   3.52769   6.86825   1.94037   0.00000   1.001E+00   0.000E+00  -1.206E-03
 964  9.91708222   0.704  -1.96412   3.52769   6.86824   1.94031   0.00000   1.001E+00   0.000E+00  -1.203E-03
 965  9.91783383   0.704  -1.96408   3.52769   6.86822   1.94025   0.00000   1.001E+00   0.000E+00  -1.201E-03
 966  9.91858415   0.704  -1.96404   3.52769   6.86821   1.94020   0.00000   1.001E+00   0.000E+00  -1.198E-03
 967  9.91933317   0.704  -1.96400   3.52769   6.86819   1.94014   0.00000   1.001E+00   0.000E+00  -1.196E-03
 968  9.92008090   0.704  -1.96396   3.52769   6.86818   1.94008   0.00000   1.001E+00   0.000E+00  -1.194E-03
 969  9.92082735   0.704  -1.96392   3.52769   6.86816   1.94002   0.00000   1.001E+00   0.000E+00  -1.192E-03
 970  9.92157252   0.704  -1.96388   3.52769   6.86815   1.93997   0.00000   1.001E+00   0.000E+00  -1.190E-03
 971  9.92231641   0.704  -1.96384   3.52769   6.86813   1.93991   0.00000   1.001E+00   0.000E+00  -1.188E-03
 972  9.92305903   0.704  -1.96380   3.52769   6.86812   1.93985   0.00000   1.001E+00   0.000E+00  -1.185E-03
 973  9.92380038   0.704  -1.96376   3.52770   6.86810   1.93979   0.00000   1.001E+00   0.000E+00  -1.183E-03
 974  9.92454046   0.704  -1.96372   3.52770   6.86809   1.93974   0.00000   1.001E+00   0.000E+00  -1.181E-03
 975  9.92527929   0.704  -1.96369   3.52770   6.86807   1.93968   0.00000   1.001E+00   0.000E+00  -1.179E-03
 976  9.92601686   0.704  -1.96365   3.52770   6.86806   1.93962   0.00000   1.001E+00   0.000E+00  -1.177E-03
 977  9.92675319   0.704  -1.96361   3.52770   6.86804   1.93957   0.00000   1.001E+00   0.000E+00  -1.175E-03
 978  9.92748826   0.704  -1.96357   3.52770   6.86803   1.93951   0.00000   1.001E+00   0.000E+00  -1.173E-03
 979  9.92822210   0.704  -1.96353   3.52770   6.86801   1.93945   0.00000   1.001E+00   0.000E+00  -1.170E-03
 980  9.92895469   0.704  -1.96349   3.52770   6.86800   1.93940   0.00000   1.001E+00   0.000E+00  -1.168E-03
 981  9.92968606   0.704  -1.96345   3.52770   6.86798   1.93934   0.00000   1.001E+00   0.000E+00  -1.165E-03
 982  9.93041619   0.704  -1.96341   3.52770   6.86797   1.93929   0.00000   1.001E+00   0.000E+00  -1.162E-03
 983  9.93114510   0.704  -1.96337   3.52770   6.86796   1.93923   0.00000   1.001E+00   0.000E+00  -1.159E-03
 984  9.93187278   0.704  -1.96333   3.52770   6.86794   1.93918   0.00000   1.001E+00   0.000E+00  -1.156E-03
 985  9.93259925   0.704  -1.96330   3.52770   6.86793   1.93912   0.00000   1.001E+00   0.000E+00  -1.153E-03
 986  9.93332451   0.704  -1.96326   3.52770   6.86791   1.93907   0.00000   1.001E+00   0.000E+00  -1.151E-03
 987  9.93404856   0.704  -1.96322   3.52770   6.86790   1.93901   0.00000   1.001E+00   0.000E+00  -1.148E-03
 988  9.93477140   0.704  -1.96318   3.52770   6.86788   1.93896   0.00000   1.001E+00   0.000E+00  -1.145E-03
 989  9.93549304   0.704  -1.96314   3.52770   6.86787   1.93890   0.00000   1.001E+00   0.000E+00  -1.142E-03
 990  9.93621348   0.704  -1.96310   3.52770   6.86786   1.93884   0.00000   1.001E+00   0.000E+00  -1.139E-03
 991  9.93693273   0.704  -1.96306   3.52770   6.86784   1.93879   0.00000   1.001E+00   0.000E+00  -1.136E-03
 992  9.93765079   0.704  -1.96303   3.52770   6.86783   1.93873   0.00000   1.001E+00   0.000E+00  -1.133E-03
 993  9.93836767   0.704  -1.96299   3.52770   6.86781   1.93868   0.00000   1.001E+00   0.000E+00  -1.130E-03
 994  9.93908336   0.704  -1.96295   3.52770   6.86780   1.93863   0.00000   1.001E+00   0.000E+00  -1.128E-03
 995  9.93979788   0.704  -1.96291   3.52770   6.86778   1.93857   0.00000   1.001E+00   0.000E+00  -1.126E-03
 996  9.94051122   0.704  -1.96287   3.52770   6.86777   1.93852   0.00000   1.001E+00   0.000E+00  -1.124E-03
 997  9.94122340   0.704  -1.96283   3.52770   6.86776   1.93846   0.00000   1.001E+00   0.000E+00  -1.122E-03
 998  9.94193441   0.704  -1.96280   3.52770   6.86774   1.93841   0.00000   1.001E+00   0.000E+00  -1.120E-03
 999  9.94264425   0.704  -1.96276   3.52770   6.86773   1.93835   0.00000   1.001E+00   0.000E+00  -1.117E-03
1000  9.94335294   0.704  -1.96272   3.52770   6.86771   1.93830   0.00000   1.001E+00   0.000E+00  -1.115E-03
1001  9.94406047   0.704  -1.96268   3.52771   6.86770   1.93824   0.00000   1.001E+00   0.000E+00  -1.113E-03
1002  9.94476685   0.704  -1.96265   3.52771   6.86768   1.93819   0.00000   1.001E+00   0.000E+00  -1.111E-03
1003  9.94547209   0.704  -1.96261   3.52771   6.86767   1.93814   0.00000   1.001E+00   0.000E+00  -1.109E-03
1004  9.94617618   0.704  -1.96257   3.52771   6.86766   1.93808   0.00000   1.001E+00   0.000E+00  -1.107E-03
1005  9.94687913   0.704  -1.96253   3.52771   6.86764   1.93803   0.00000   1.001E+00   0.000E+00  -1.105E-03
1006  9.94758095   0.704  -1.96249   3.52771   6.86763   1.93797   0.00000   1.001E+00   0.000E+00  -1.102E-03
1007  9.94828163   0.704  -1.96246   3.52771   6.86761   1.93792   0.00000   1.001E+00   0.000E+00  -1.100E-03
1008  9.94898119   0.704  -1.96242   3.52771   6.86760   1.93787   0.00000   1.001E+00   0.000E+00  -1.098E-03
1009  9.94967962   0.704  -1.96238   3.52771   6.86758   1.93781   0.00000   1.001E+00   0.000E+00  -1.095E-03
1010  9.95037692   0.704  -1.96235   3.52771   6.86757   1.93776   0.00000   1.001E+00   0.000E+00  -1.092E-03
1011  9.95107311   0.703  -1.96231   3.52771   6.86756   1.93771   0.00000   1.001E+00   0.000E+00  -1.089E-03
1012  9.95176819   0.703  -1.96227   3.52771   6.86754   1.93766   0.00000   1.001E+00   0.000E+00  -1.086E-03
1013  9.95246216   0.703  -1.96224   3.52771   6.86753   1.93760   0.00000   1.001E+00   0.000E+00  -1.083E-03
1014  9.95315502   0.703  -1.96220   3.52771   6.86752   1.93755   0.00000   1.001E+00   0.000E+00  -1.080E-03
1015  9.95384677   0.703  -1.96216   3.52771   6.86750   1.93750   0.00000   1.001E+00   0.000E+00  -1.078E-03
1016  9.95453742   0.703  -1.96213   3.52771   6.86749   1.93745   0.00000   1.001E+00   0.000E+00  -1.075E-03
1017  9.95522698   0.703  -1.96209   3.52771   6.86748   1.93740   0.00000   1.001E+00   0.000E+00  -1.072E-03
1018  9.95591545   0.703  -1.96205   3.52771   6.86746   1.93734   0.00000   1.001E+00   0.000E+00  -1.069E-03
1019  9.95660282   0.703  -1.96202   3.52771   6.86745   1.93729   0.00000   1.001E+00   0.000E+00  -1.066E-03
1020  9.95728911   0.703  -1.96198   3.52771   6.86744   1.93724   0.00000   1.001E+00   0.000E+00  -1.063E-03
1021  9.95797432   0.703  -1.96194   3.52771   6.86742   1.93719   0.00000   1.001E+00   0.000E+00  -1.060E-03
1022  9.95865845   0.703  -1.96191   3.52771   6.86741   1.93714   0.00000   1.001E+00   0.000E+00  -1.058E-03
1023  9.95934150   0.703  -1.96187   3.52771   6.86740   1.93708   0.00000   1.001E+00   0.000E+00  -1.056E-03
1024  9.96002348   0.703  -1.96184   3.52771   6.86738   1.93703   0.00000   1.001E+00   0.000E+00  -1.054E-03
1025  9.96070439   0.703  -1.96180   3.52771   6.86737   1.93698   0.00000   1.001E+00   0.000E+00  -1.052E-03
1026  9.96138423   0.703  -1.96177   3.52771   6.86736   1.93693   0.00000   1.001E+00   0.000E+00  -1.050E-03
1027  9.96206301   0.703  -1.96173   3.52771   6.86734   1.93688   0.00000   1.001E+00   0.000E+00  -1.047E-03
1028  9.96274073   0.703  -1.96169   3.52771   6.86733   1.93683   0.00000   1.001E+00   0.000E+00  -1.045E-03
1029  9.96341740   0.703  -1.96166   3.52772   6.86732   1.93678   0.00000   1.001E+00   0.000E+00  -1.043E-03
1030  9.96409301   0.703  -1.96162   3.52772   6.86731   1.93673   0.00000   1.001E+00   0.000E+00  -1.041E-03
1031  9.96476757   0.703  -1.96159   3.52772   6.86729   1.93668   0.00000   1.001E+00   0.000E+00  -1.039E-03
1032  9.96544109   0.703  -1.96155   3.52772   6.86728   1.93663   0.00000   1.001E+00   0.000E+00  -1.037E-03
1033  9.96611357   0.703  -1.96152   3.52772   6.86727   1.93658   0.00000   1.001E+00   0.000E+00  -1.035E-03
1034  9.96678500   0.703  -1.96148   3.52772   6.86725   1.93653   0.00000   1.001E+00   0.000E+00  -1.032E-03
1035  9.96745540   0.703  -1.96144   3.52772   6.86724   1.93648   0.00000   1.001E+00   0.000E+00  -1.030E-03
1036  9.96812476   0.703  -1.96141   3.52772   6.86723   1.93643   0.00000   1.001E+00   0.000E+00  -1.028E-03
1037  9.96879310   0.703  -1.96137   3.52772   6.86722   1.93638   0.00000   1.001E+00   0.000E+00  -1.026E-03
1038  9.96946041   0.703  -1.96134   3.52772   6.86720   1.93633   0.00000   1.001E+00   0.000E+00  -1.024E-03
1039  9.97012669   0.703  -1.96130   3.52772   6.86719   1.93628   0.00000   1.001E+00   0.000E+00  -1.022E-03
1040  9.97079196   0.703  -1.96127   3.52772   6.86718   1.93623   0.00000   1.001E+00   0.000E+00  -1.019E-03
1041  9.97145620   0.703  -1.96123   3.52772   6.86716   1.93618   0.00000   1.001E+00   0.000E+00  -1.017E-03
1042  9.97211943   0.703  -1.96120   3.52772   6.86715   1.93613   0.00000   1.001E+00   0.000E+00  -1.015E-03
1043  9.97278165   0.703  -1.96116   3.52772   6.86714   1.93608   0.00000   1.001E+00   0.000E+00  -1.013E-03
1044  9.97344287   0.703  -1.96113   3.52772   6.86713   1.93603   0.00000   1.001E+00   0.000E+00  -1.011E-03
1045  9.97410307   0.703  -1.96109   3.52772   6.86711   1.93598   0.00000   1.001E+00   0.000E+00  -1.009E-03
1046  9.97476228   0.703  -1.96106   3.52772   6.86710   1.93593   0.00000   1.001E+00   0.000E+00  -1.007E-03
1047  9.97542049   0.703  -1.96102   3.52772   6.86709   1.93588   0.00000   1.001E+00   0.000E+00  -1.004E-03
1048  9.97607770   0.703  -1.96099   3.52772   6.86707   1.93583   0.00000   1.001E+00   0.000E+00  -1.002E-03
1049  9.97673391   0.703  -1.96095   3.52772   6.86706   1.93578   0.00000   1.001E+00   0.000E+00  -1.000E-03
1050  9.97738914   0.703  -1.96092   3.52772   6.86705   1.93573   0.00000   1.001E+00   0.000E+00  -9.982E-04
1051  9.97804338   0.703  -1.96089   3.52772   6.86704   1.93569   0.00000   1.001E+00   0.000E+00  -9.963E-04
1052  9.97869663   0.703  -1.96085   3.52772   6.86702   1.93564   0.00000   1.001E+00   0.000E+00  -9.943E-04
1053  9.97934891   0.703  -1.96082   3.52772   6.86701   1.93559   0.00000   1.001E+00   0.000E+00  -9.924E-04
1054  9.98000021   0.703  -1.96078   3.52772   6.86700   1.93554   0.00000   1.001E+00   0.000E+00  -9.905E-04
1055  9.98065053   0.703  -1.96075   3.52772   6.86699   1.93549   0.00000   1.001E+00   0.000E+00  -9.886E-04
1056  9.98129987   0.703  -1.96072   3.52772   6.86698   1.93544   0.00000   1.001E+00   0.000E+00  -9.866E-04
1057  9.98194825   0.703  -1.96068   3.52773   6.86696   1.93539   0.00000   1.001E+00   0.000E+00  -9.847E-04
1058  9.98259567   0.703  -1.96065   3.52773   6.86695   1.93535   0.00000   1.001E+00   0.000E+00  -9.828E-04
1059  9.98324212   0.703  -1.96062   3.52773   6.86694   1.93530   0.00000   1.001E+00   0.000E+00  -9.808E-04
1060  9.98388760   0.703  -1.96058   3.52773   6.86693   1.93525   0.00000   1.001E+00   0.000E+00  -9.789E-04
1061  9.98453213   0.703  -1.96055   3.52773   6.86691   1.93520   0.00000   1.001E+00   0.000E+00  -9.770E-04
1062  9.98517571   0.703  -1.96052   3.52773   6.86690   1.93515   0.00000   1.001E+00   0.000E+00  -9.750E-04
1063  9.98581833   0.703  -1.96048   3.52773   6.86689   1.93510   0.00000   1.001E+00   0.000E+00  -9.731E-04
1064  9.98646001   0.703  -1.96045   3.52773   6.86688   1.93505   0.00000   1.001E+00   0.000E+00  -9.762E-04
1065  9.98710073   0.703  -1.96041   3.52773   6.86686   1.93500   0.00000   1.001E+00   0.000E+00  -9.796E-04
1066  9.98774052   0.703  -1.96038   3.52773   6.86685   1.93495   0.00000   1.001E+00   0.000E+00  -9.829E-04
1067  9.98837936   0.703  -1.96034   3.52773   6.86684   1.93490   0.00000   1.001E+00   0.000E+00  -9.863E-04
1068  9.98901726   0.703  -1.96031   3.52773   6.86682   1.93484   0.00000   1.001E+00   0.000E+00  -9.896E-04
1069  9.98965423   0.703  -1.96027   3.52773   6.86681   1.93479   0.00000   1.001E+00   0.000E+00  -9.930E-04
1070  9.99029026   0.703  -1.96024   3.52773   6.86680   1.93474   0.00000   1.001E+00   0.000E+00  -9.964E-04
1071  9.99092537   0.703  -1.96020   3.52773   6.86678   1.93469   0.00000   1.001E+00   0.000E+00  -9.997E-04
1072  9.99155955   0.703  -1.96017   3.52773   6.86677   1.93464   0.00000   1.001E+00   0.000E+00  -1.003E-03
1073  9.99219280   0.703  -1.96013   3.52773   6.86675   1.93459   0.00000   1.001E+00   0.000E+00  -1.006E-03
1074  9.99282513   0.703  -1.96010   3.52773   6.86674   1.93454   0.00000   1.001E+00   0.000E+00  -1.010E-03
1075  9.99345654   0.703  -1.96006   3.52773   6.86673   1.93448   0.00000   1.001E+00   0.000E+00  -1.013E-03
1076  9.99408703   0.703  -1.96003   3.52773   6.86671   1.93443   0.00000   1.001E+00   0.000E+00  -1.017E-03
1077  9.99471662   0.703  -1.95999   3.52773   6.86670   1.93438   0.00000   1.001E+00   0.000E+00  -1.020E-03
1078  9.99534528   0.703  -1.95996   3.52773   6.86669   1.93433   0.00000   1.001E+00   0.000E+00  -1.018E-03
1079  9.99597305   0.703  -1.95992   3.52773   6.86667   1.93428   0.00000   1.001E+00   0.000E+00  -1.017E-03
1080  9.99659990   0.703  -1.95989   3.52773   6.86666   1.93423   0.00000   1.001E+00   0.000E+00  -1.015E-03
1081  9.99722585   0.703  -1.95985   3.52773   6.86665   1.93418   0.00000   1.001E+00   0.000E+00  -1.013E-03
1082  9.99785090   0.703  -1.95982   3.52773   6.86664   1.93413   0.00000   1.001E+00   0.000E+00  -1.012E-03
1083  9.99847505   0.703  -1.95978   3.52773   6.86662   1.93408   0.00000   1.001E+00   0.000E+00  -1.010E-03
1084  9.99909831   0.703  -1.95975   3.52773   6.86661   1.93404   0.00000   1.001E+00   0.000E+00  -1.009E-03
1085  9.99972067   0.703  -1.95971   3.52774   6.86660   1.93399   0.00000   1.001E+00   0.000E+00  -1.007E-03
1086 10.00034214   0.703  -1.95968   3.52774   6.86658   1.93394   0.00000   1.001E+00   0.000E+00  -1.005E-03
1087 10.00096273   0.703  -1.95964   3.52774   6.86657   1.93389   0.00000   1.001E+00   0.000E+00  -1.004E-03
1088 10.00158243   0.703  -1.95961   3.52774   6.86656   1.93384   0.00000   1.001E+00   0.000E+00  -1.002E-03
1089 10.00220124   0.703  -1.95957   3.52774   6.86655   1.93379   0.00000   1.001E+00   0.000E+00  -1.000E-03
1090 10.00281918   0.703  -1.95954   3.52774   6.86653   1.93374   0.00000   1.001E+00   0.000E+00  -9.986E-04
1091 10.00343624   0.703  -1.95950   3.52774   6.86652   1.93369   0.00000   1.001E+00   0.000E+00  -9.970E-04
