 # M = 0.60 Mo, Y = 0.2700, Z = 2.00000E-02, alpha = 1.68, X_D = 4.0E-05
 # Solar Mixture: Asplund et al. (2005)         
 # ------------------------------------------------------------------------------------------------------------
 # NMD   LOG AGE    Xc      LOG L     LOG TE    LOG Tc   LOG RHOc    M-CC       L-PP       L-CNO       L-GRA
 #        (yr)              (Lo)        (K)       (K)   (gr/cm^3)    (Mo)        (L)         (L)         (L)
 # ------------------------------------------------------------------------------------------------------------
   1  4.94510706   0.710   0.59390   3.60233   6.06750  -1.09350   0.00000   9.420E-01   0.000E+00   5.800E-02
   2  5.12258489   0.710   0.58543   3.60238   6.07168  -1.08095   0.00000   9.331E-01   0.000E+00   6.731E-02
   3  5.24821525   0.710   0.57762   3.60242   6.07552  -1.06941   0.00000   9.358E-01   0.000E+00   6.449E-02
   4  5.34553971   0.710   0.57053   3.60246   6.07902  -1.05893   0.00000   9.391E-01   0.000E+00   6.110E-02
   5  5.42499703   0.710   0.56396   3.60250   6.08225  -1.04922   0.00000   9.428E-01   0.000E+00   5.730E-02
   6  5.49214092   0.710   0.55776   3.60253   6.08529  -1.04009   0.00000   9.458E-01   0.000E+00   5.421E-02
   7  5.55028062   0.710   0.55214   3.60254   6.08803  -1.03183   0.00000   9.478E-01   0.000E+00   5.220E-02
   8  5.60154804   0.710   0.54652   3.60256   6.09077  -1.02358   0.00000   9.497E-01   0.000E+00   5.020E-02
   9  5.64739742   0.710   0.54100   3.60258   6.09347  -1.01547   0.00000   9.510E-01   0.000E+00   4.893E-02
  10  5.68886527   0.710   0.53565   3.60260   6.09609  -1.00761   0.00000   9.510E-01   0.000E+00   4.901E-02
  11  5.72671646   0.710   0.53030   3.60262   6.09871  -0.99975   0.00000   9.510E-01   0.000E+00   4.910E-02
  12  5.76153155   0.710   0.52495   3.60264   6.10132  -0.99189   0.00000   9.510E-01   0.000E+00   4.918E-02
  13  5.79376165   0.710   0.51940   3.60264   6.10402  -0.98380   0.00000   9.499E-01   0.000E+00   5.028E-02
  14  5.82376423   0.710   0.51381   3.60265   6.10673  -0.97565   0.00000   9.486E-01   0.000E+00   5.165E-02
  15  5.85182738   0.710   0.50821   3.60265   6.10944  -0.96750   0.00000   9.473E-01   0.000E+00   5.301E-02
  16  5.87818670   0.710   0.50258   3.60266   6.11218  -0.95929   0.00000   9.458E-01   0.000E+00   5.447E-02
  17  5.90303729   0.710   0.49630   3.60266   6.11521  -0.95017   0.00000   9.428E-01   0.000E+00   5.749E-02
  18  5.92654254   0.710   0.49003   3.60267   6.11824  -0.94106   0.00000   9.397E-01   0.000E+00   6.051E-02
  19  5.94884068   0.710   0.48376   3.60267   6.12128  -0.93194   0.00000   9.366E-01   0.000E+00   6.353E-02
  20  5.97004964   0.710   0.47693   3.60266   6.12457  -0.92204   0.00000   9.323E-01   0.000E+00   6.776E-02
  21  5.99027091   0.710   0.46948   3.60265   6.12815  -0.91130   0.00000   9.266E-01   0.000E+00   7.327E-02
  22  6.00959239   0.710   0.46203   3.60264   6.13173  -0.90056   0.00000   9.210E-01   0.000E+00   7.879E-02
  23  6.02809076   0.710   0.45408   3.60262   6.13554  -0.88910   0.00000   9.141E-01   0.000E+00   8.567E-02
  24  6.04583330   0.710   0.44489   3.60260   6.13993  -0.87590   0.00000   9.040E-01   0.000E+00   9.583E-02
  25  6.06287934   0.710   0.43571   3.60257   6.14432  -0.86270   0.00000   8.940E-01   0.000E+00   1.060E-01
  26  6.07928152   0.710   0.42507   3.60253   6.14939  -0.84747   0.00000   8.789E-01   0.000E+00   1.211E-01
  27  6.09508672   0.710   0.41348   3.60248   6.15490  -0.83092   0.00000   8.605E-01   0.000E+00   1.395E-01
  28  6.11033685   0.710   0.40053   3.60240   6.16102  -0.81252   0.00000   8.361E-01   0.000E+00   1.639E-01
  29  6.12506960   0.710   0.38577   3.60229   6.16796  -0.79169   0.00000   8.036E-01   0.000E+00   1.964E-01
  30  6.13931892   0.710   0.36839   3.60215   6.17611  -0.76721   0.00000   7.556E-01   0.000E+00   2.444E-01
  31  6.15311553   0.710   0.34852   3.60196   6.18540  -0.73930   0.00000   6.910E-01   0.000E+00   3.090E-01
  32  6.16648731   0.710   0.32498   3.60171   6.19633  -0.70643   0.00000   6.004E-01   0.000E+00   3.996E-01
  33  6.17945965   0.710   0.29718   3.60135   6.20911  -0.66803   0.00000   4.797E-01   0.000E+00   5.203E-01
  34  6.19205572   0.710   0.26561   3.60086   6.22354  -0.62470   0.00000   3.379E-01   0.000E+00   6.621E-01
  35  6.20429673   0.710   0.23107   3.60024   6.23919  -0.57778   0.00000   2.037E-01   0.000E+00   7.963E-01
  36  6.21620215   0.710   0.19593   3.59952   6.25498  -0.53046   0.00000   1.044E-01   0.000E+00   8.956E-01
  37  6.22778990   0.710   0.16205   3.59874   6.27005  -0.48530   0.00000   5.176E-02   0.000E+00   9.482E-01
  38  6.23907648   0.710   0.13057   3.59795   6.28386  -0.44380   0.00000   2.668E-02   0.000E+00   9.733E-01
  39  6.25007716   0.710   0.10142   3.59717   6.29655  -0.40567   0.00000   1.274E-02   0.000E+00   9.873E-01
  40  6.26080606   0.710   0.07445   3.59640   6.30819  -0.37069   0.00000   6.301E-03   0.000E+00   9.937E-01
  41  6.27127628   0.710   0.04935   3.59564   6.31897  -0.33828   0.00000   3.000E-03   0.000E+00   9.970E-01
  42  6.29713428   0.710  -0.00735   3.59384   6.34312  -0.26568   0.00000   0.000E+00   0.000E+00   1.000E+00
  43  6.32153883   0.710  -0.05524   3.59225   6.36339  -0.20471   0.00000   0.000E+00   0.000E+00   1.000E+00
  44  6.34464465   0.710  -0.09684   3.59083   6.38097  -0.15185   0.00000   0.000E+00   0.000E+00   1.000E+00
  45  6.36658302   0.710  -0.13341   3.58958   6.39641  -0.10542   0.00000   0.000E+00   0.000E+00   1.000E+00
  46  6.38746626   0.710  -0.16608   3.58846   6.41019  -0.06398   0.00000   0.000E+00   0.000E+00   1.000E+00
  47  6.40739122   0.710  -0.19577   3.58742   6.42269  -0.02636   0.00000   0.000E+00   0.000E+00   1.000E+00
  48  6.42644201   0.710  -0.22249   3.58651   6.43398   0.00760   0.00000   0.000E+00   0.000E+00   1.000E+00
  49  6.44469212   0.710  -0.24719   3.58566   6.44443   0.03903   0.00000   0.000E+00   0.000E+00   1.000E+00
  50  6.46220614   0.710  -0.27010   3.58489   6.45411   0.06818   0.00000   0.000E+00   0.000E+00   1.000E+00
  51  6.47904115   0.710  -0.29122   3.58418   6.46307   0.09514   0.00000   0.000E+00   0.000E+00   1.000E+00
  52  6.49524786   0.710  -0.31096   3.58351   6.47145   0.12035   0.00000   0.000E+00   0.000E+00   1.000E+00
  53  6.51087146   0.710  -0.32950   3.58290   6.47933   0.14407   0.00000   0.000E+00   0.000E+00   1.000E+00
  54  6.52595248   0.710  -0.34697   3.58233   6.48677   0.16648   0.00000   0.000E+00   0.000E+00   1.000E+00
  55  6.54052733   0.710  -0.36343   3.58180   6.49381   0.18766   0.00000   0.000E+00   0.000E+00   1.000E+00
  56  6.55462889   0.710  -0.37895   3.58130   6.50045   0.20765   0.00000   0.000E+00   0.000E+00   1.000E+00
  57  6.56828694   0.710  -0.39368   3.58084   6.50677   0.22669   0.00000   0.000E+00   0.000E+00   1.000E+00
  58  6.58152852   0.710  -0.40777   3.58041   6.51282   0.24492   0.00000   0.000E+00   0.000E+00   1.000E+00
  59  6.59437828   0.710  -0.42130   3.57999   6.51865   0.26247   0.00000   0.000E+00   0.000E+00   1.000E+00
  60  6.60685875   0.710  -0.43402   3.57961   6.52414   0.27901   0.00000   0.000E+00   0.000E+00   1.000E+00
  61  6.61899056   0.710  -0.44628   3.57925   6.52944   0.29498   0.00000   0.000E+00   0.000E+00   1.000E+00
  62  6.63079266   0.710  -0.45820   3.57890   6.53460   0.31052   0.00000   0.000E+00   0.000E+00   1.000E+00
  63  6.64228251   0.710  -0.46938   3.57858   6.53946   0.32513   0.00000   0.000E+00   0.000E+00   1.000E+00
  64  6.65347619   0.710  -0.48032   3.57826   6.54421   0.33946   0.00000   0.000E+00   0.000E+00   1.000E+00
  65  6.66438860   0.710  -0.49079   3.57797   6.54877   0.35320   0.00000   0.000E+00   0.000E+00   1.000E+00
  66  6.67503352   0.710  -0.50092   3.57769   6.55319   0.36650   0.00000   0.000E+00   0.000E+00   1.000E+00
  67  6.68542376   0.710  -0.51074   3.57742   6.55748   0.37942   0.00000   0.000E+00   0.000E+00   1.000E+00
  68  6.69557121   0.710  -0.52018   3.57716   6.56160   0.39186   0.00000   0.000E+00   0.000E+00   1.000E+00
  69  6.70548697   0.710  -0.52939   3.57691   6.56563   0.40400   0.00000   0.000E+00   0.000E+00   1.000E+00
  70  6.71518137   0.710  -0.53826   3.57667   6.56951   0.41571   0.00000   0.000E+00   0.000E+00   1.000E+00
  71  6.72466409   0.710  -0.54689   3.57644   6.57330   0.42712   0.00000   0.000E+00   0.000E+00   1.000E+00
  72  6.73394418   0.710  -0.55530   3.57622   6.57699   0.43824   0.00000   0.000E+00   0.000E+00   1.000E+00
  73  6.74303011   0.710  -0.56340   3.57600   6.58054   0.44897   0.00000   0.000E+00   0.000E+00   1.000E+00
  74  6.75192984   0.710  -0.57145   3.57579   6.58408   0.45962   0.00000   0.000E+00   0.000E+00   1.000E+00
  75  6.76065085   0.710  -0.57905   3.57559   6.58743   0.46969   0.00000   0.000E+00   0.000E+00   1.000E+00
  76  6.76920017   0.710  -0.58664   3.57540   6.59077   0.47976   0.00000   0.000E+00   0.000E+00   1.000E+00
  77  6.77758444   0.710  -0.59395   3.57521   6.59398   0.48944   0.00000   0.000E+00   0.000E+00   1.000E+00
  78  6.78580991   0.710  -0.60108   3.57502   6.59712   0.49891   0.00000   0.000E+00   0.000E+00   1.000E+00
  79  6.79388249   0.710  -0.60821   3.57484   6.60026   0.50837   0.00000   0.000E+00   0.000E+00   1.000E+00
  80  6.80180774   0.710  -0.61490   3.57467   6.60321   0.51727   0.00000   0.000E+00   0.000E+00   1.000E+00
  81  6.80959096   0.710  -0.62158   3.57450   6.60616   0.52617   0.00000   0.000E+00   0.000E+00   1.000E+00
  82  6.81723714   0.710  -0.62819   3.57433   6.60907   0.53495   0.00000   0.000E+00   0.000E+00   1.000E+00
  83  6.82475103   0.710  -0.63448   3.57417   6.61184   0.54331   0.00000   0.000E+00   0.000E+00   1.000E+00
  84  6.83213713   0.710  -0.64078   3.57401   6.61461   0.55167   0.00000   0.000E+00   0.000E+00   1.000E+00
  85  6.83939971   0.710  -0.64699   3.57385   6.61733   0.55992   0.00000   0.000E+00   0.000E+00   1.000E+00
  86  6.84654284   0.710  -0.65288   3.57370   6.61990   0.56781   0.00000   0.000E+00   0.000E+00   1.000E+00
  87  6.85357037   0.710  -0.65877   3.57355   6.62247   0.57570   0.00000   0.000E+00   0.000E+00   1.000E+00
  88  6.86048600   0.710  -0.66465   3.57341   6.62503   0.58357   0.00000   0.000E+00   0.000E+00   1.000E+00
  89  6.86729323   0.710  -0.67018   3.57327   6.62738   0.59106   0.00000   0.000E+00   0.000E+00   1.000E+00
  90  6.87399540   0.710  -0.67572   3.57313   6.62973   0.59855   0.00000   0.000E+00   0.000E+00   1.000E+00
  91  6.88059572   0.710  -0.68125   3.57299   6.63207   0.60604   0.00000   0.000E+00   0.000E+00   1.000E+00
  92  6.88709722   0.710  -0.68656   3.57286   6.63430   0.61329   0.00000   0.000E+00   0.000E+00   1.000E+00
  93  6.89350283   0.710  -0.69176   3.57273   6.63644   0.62040   0.00000   0.000E+00   0.000E+00   1.000E+00
  94  6.89981533   0.710  -0.69695   3.57260   6.63859   0.62751   0.00000   0.000E+00   0.000E+00   1.000E+00
  95  6.90603739   0.710  -0.70214   3.57247   6.64074   0.63461   0.00000   0.000E+00   0.000E+00   1.000E+00
  96  6.91217157   0.710  -0.70700   3.57235   6.64271   0.64136   0.00000   0.000E+00   0.000E+00   1.000E+00
  97  6.91822031   0.710  -0.71187   3.57223   6.64468   0.64811   0.00000   0.000E+00   0.000E+00   1.000E+00
  98  6.92418596   0.710  -0.71673   3.57211   6.64665   0.65486   0.00000   0.000E+00   0.000E+00   1.000E+00
  99  6.93007077   0.710  -0.72154   3.57199   6.64860   0.66156   0.00000   0.000E+00   0.000E+00   1.000E+00
 100  6.93587691   0.710  -0.72610   3.57188   6.65040   0.66797   0.00000   0.000E+00   0.000E+00   1.000E+00
 101  6.94160645   0.710  -0.73067   3.57177   6.65221   0.67439   0.00000   0.000E+00   0.000E+00   1.000E+00
 102  6.94726138   0.710  -0.73523   3.57165   6.65402   0.68081   0.00000   0.000E+00   0.000E+00   1.000E+00
 103  6.95284363   0.710  -0.73977   3.57154   6.65582   0.68720   0.00000   0.000E+00   0.000E+00   1.000E+00
 104  6.95835503   0.710  -0.74404   3.57144   6.65749   0.69330   0.00000   0.000E+00   0.000E+00   1.000E+00
 105  6.96379737   0.710  -0.74831   3.57134   6.65915   0.69940   0.00000   0.000E+00   0.000E+00   1.000E+00
 106  6.96917234   0.710  -0.75258   3.57124   6.66081   0.70550   0.00000   0.000E+00   0.000E+00   1.000E+00
 107  6.97448161   0.710  -0.75686   3.57113   6.66247   0.71160   0.00000   0.000E+00   0.000E+00   1.000E+00
 108  6.97972676   0.710  -0.76094   3.57104   6.66405   0.71749   0.00000   0.000E+00   0.000E+00   1.000E+00
 109  6.98490931   0.710  -0.76493   3.57094   6.66558   0.72328   0.00000   0.000E+00   0.000E+00   1.000E+00
 110  6.99003075   0.710  -0.76892   3.57085   6.66711   0.72908   0.00000   0.000E+00   0.000E+00   1.000E+00
 111  6.99509249   0.710  -0.77291   3.57075   6.66864   0.73487   0.00000   0.000E+00   0.000E+00   1.000E+00
 112  7.00009592   0.710  -0.77690   3.57066   6.67017   0.74067   0.00000   0.000E+00   0.000E+00   1.000E+00
 113  7.00504237   0.710  -0.78064   3.57057   6.67158   0.74618   0.00000   0.000E+00   0.000E+00   1.000E+00
 114  7.00993310   0.710  -0.78438   3.57048   6.67299   0.75169   0.00000   0.000E+00   0.000E+00   1.000E+00
 115  7.01476938   0.710  -0.78811   3.57040   6.67440   0.75720   0.00000   0.000E+00   0.000E+00   1.000E+00
 116  7.01955239   0.710  -0.79185   3.57031   6.67581   0.76272   0.00000   0.000E+00   0.000E+00   1.000E+00
 117  7.02428329   0.710  -0.79558   3.57022   6.67722   0.76823   0.00000   0.000E+00   0.000E+00   1.000E+00
 118  7.02896322   0.710  -0.79907   3.57014   6.67852   0.77347   0.00000   1.840E-04   0.000E+00   9.998E-01
 119  7.03359325   0.710  -0.80255   3.57007   6.67982   0.77871   0.00000   3.708E-04   0.000E+00   9.996E-01
 120  7.03817445   0.710  -0.80603   3.56999   6.68112   0.78395   0.00000   5.575E-04   0.000E+00   9.994E-01
 121  7.04270782   0.710  -0.80951   3.56991   6.68242   0.78920   0.00000   7.443E-04   0.000E+00   9.993E-01
 122  7.04719436   0.710  -0.81300   3.56984   6.68372   0.79444   0.00000   9.311E-04   0.000E+00   9.991E-01
 123  7.05163502   0.710  -0.81633   3.56976   6.68496   0.79952   0.00000   1.000E-03   0.000E+00   9.990E-01
 124  7.05603073   0.710  -0.81958   3.56969   6.68616   0.80450   0.00000   1.000E-03   0.000E+00   9.990E-01
 125  7.06038241   0.710  -0.82283   3.56962   6.68736   0.80949   0.00000   1.000E-03   0.000E+00   9.990E-01
 126  7.06469090   0.710  -0.82608   3.56955   6.68856   0.81447   0.00000   1.000E-03   0.000E+00   9.990E-01
 127  7.06895708   0.710  -0.82933   3.56948   6.68976   0.81946   0.00000   1.000E-03   0.000E+00   9.990E-01
 128  7.07318175   0.710  -0.83258   3.56941   6.69097   0.82444   0.00000   1.000E-03   0.000E+00   9.990E-01
 129  7.07736573   0.710  -0.83563   3.56934   6.69209   0.82921   0.00000   1.000E-03   0.000E+00   9.990E-01
 130  7.08150978   0.710  -0.83866   3.56928   6.69320   0.83395   0.00000   1.000E-03   0.000E+00   9.990E-01
 131  7.08561466   0.710  -0.84168   3.56922   6.69432   0.83869   0.00000   1.000E-03   0.000E+00   9.990E-01
 132  7.08968110   0.710  -0.84470   3.56915   6.69543   0.84343   0.00000   1.000E-03   0.000E+00   9.990E-01
 133  7.09370983   0.710  -0.84773   3.56909   6.69654   0.84816   0.00000   1.000E-03   0.000E+00   9.990E-01
 134  7.09770152   0.710  -0.85075   3.56903   6.69766   0.85290   0.00000   1.000E-03   0.000E+00   9.990E-01
 135  7.10165686   0.710  -0.85362   3.56897   6.69871   0.85747   0.00000   1.000E-03   0.000E+00   9.990E-01
 136  7.10557650   0.710  -0.85643   3.56891   6.69975   0.86198   0.00000   1.000E-03   0.000E+00   9.990E-01
 137  7.10946108   0.710  -0.85924   3.56886   6.70078   0.86648   0.00000   1.000E-03   0.000E+00   9.990E-01
 138  7.11331122   0.710  -0.86205   3.56880   6.70182   0.87099   0.00000   1.000E-03   0.000E+00   9.990E-01
 139  7.11712753   0.710  -0.86486   3.56875   6.70285   0.87549   0.00000   1.000E-03   0.000E+00   9.990E-01
 140  7.12091060   0.710  -0.86767   3.56869   6.70389   0.88000   0.00000   1.000E-03   0.000E+00   9.990E-01
 141  7.12466099   0.710  -0.87046   3.56863   6.70491   0.88448   0.00000   1.000E-03   0.000E+00   9.990E-01
 142  7.12837928   0.710  -0.87307   3.56859   6.70588   0.88876   0.00000   1.000E-03   0.000E+00   9.990E-01
 143  7.13206600   0.710  -0.87567   3.56854   6.70684   0.89304   0.00000   1.000E-03   0.000E+00   9.990E-01
 144  7.13572169   0.710  -0.87828   3.56849   6.70780   0.89732   0.00000   1.000E-03   0.000E+00   9.990E-01
 145  7.13934687   0.710  -0.88088   3.56844   6.70877   0.90160   0.00000   1.000E-03   0.000E+00   9.990E-01
 146  7.14294203   0.710  -0.88349   3.56840   6.70973   0.90588   0.00000   1.000E-03   0.000E+00   9.990E-01
 147  7.14650768   0.710  -0.88609   3.56835   6.71069   0.91017   0.00000   1.000E-03   0.000E+00   9.990E-01
 148  7.15004429   0.710  -0.88870   3.56830   6.71165   0.91445   0.00000   1.001E-03   0.000E+00   9.990E-01
 149  7.15355233   0.710  -0.89111   3.56826   6.71255   0.91852   0.00000   1.131E-03   0.000E+00   9.989E-01
 150  7.15703226   0.710  -0.89353   3.56821   6.71344   0.92258   0.00000   1.261E-03   0.000E+00   9.987E-01
 151  7.16048453   0.710  -0.89594   3.56817   6.71433   0.92665   0.00000   1.391E-03   0.000E+00   9.986E-01
 152  7.16390958   0.710  -0.89836   3.56813   6.71523   0.93072   0.00000   1.522E-03   0.000E+00   9.985E-01
 153  7.16730782   0.710  -0.90077   3.56808   6.71612   0.93479   0.00000   1.652E-03   0.000E+00   9.983E-01
 154  7.17067968   0.710  -0.90318   3.56804   6.71702   0.93886   0.00000   1.782E-03   0.000E+00   9.982E-01
 155  7.17402557   0.710  -0.90560   3.56800   6.71791   0.94293   0.00000   1.912E-03   0.000E+00   9.981E-01
 156  7.17734587   0.710  -0.90795   3.56796   6.71878   0.94693   0.00000   2.000E-03   0.000E+00   9.980E-01
 157  7.18064098   0.710  -0.91018   3.56793   6.71961   0.95080   0.00000   2.000E-03   0.000E+00   9.980E-01
 158  7.18391128   0.710  -0.91240   3.56789   6.72045   0.95466   0.00000   2.000E-03   0.000E+00   9.980E-01
 159  7.18715713   0.710  -0.91463   3.56786   6.72128   0.95853   0.00000   2.000E-03   0.000E+00   9.980E-01
 160  7.19037891   0.710  -0.91686   3.56782   6.72211   0.96240   0.00000   2.000E-03   0.000E+00   9.980E-01
 161  7.19357696   0.710  -0.91909   3.56779   6.72294   0.96626   0.00000   2.000E-03   0.000E+00   9.980E-01
 162  7.19675163   0.710  -0.92131   3.56776   6.72377   0.97013   0.00000   2.000E-03   0.000E+00   9.980E-01
 163  7.19990327   0.710  -0.92354   3.56772   6.72460   0.97400   0.00000   2.000E-03   0.000E+00   9.980E-01
 164  7.20303220   0.710  -0.92576   3.56769   6.72543   0.97786   0.00000   2.005E-03   0.000E+00   9.980E-01
 165  7.20613874   0.710  -0.92781   3.56766   6.72621   0.98153   0.00000   2.118E-03   0.000E+00   9.979E-01
 166  7.20922323   0.710  -0.92986   3.56763   6.72698   0.98520   0.00000   2.232E-03   0.000E+00   9.978E-01
 167  7.21228596   0.710  -0.93191   3.56760   6.72775   0.98887   0.00000   2.345E-03   0.000E+00   9.977E-01
 168  7.21532724   0.710  -0.93396   3.56758   6.72852   0.99253   0.00000   2.459E-03   0.000E+00   9.975E-01
 169  7.21834738   0.710  -0.93601   3.56755   6.72930   0.99620   0.00000   2.572E-03   0.000E+00   9.974E-01
 170  7.22134665   0.710  -0.93807   3.56752   6.73007   0.99987   0.00000   2.686E-03   0.000E+00   9.973E-01
 171  7.22432536   0.710  -0.94012   3.56749   6.73084   1.00354   0.00000   2.799E-03   0.000E+00   9.972E-01
 172  7.22728377   0.710  -0.94217   3.56746   6.73161   1.00721   0.00000   2.912E-03   0.000E+00   9.971E-01
 173  7.23022217   0.710  -0.94418   3.56744   6.73238   1.01084   0.00000   3.000E-03   0.000E+00   9.970E-01
 174  7.23314082   0.710  -0.94607   3.56741   6.73310   1.01433   0.00000   3.000E-03   0.000E+00   9.970E-01
 175  7.23603999   0.710  -0.94795   3.56739   6.73382   1.01782   0.00000   3.000E-03   0.000E+00   9.970E-01
 176  7.23891993   0.710  -0.94984   3.56737   6.73454   1.02131   0.00000   3.000E-03   0.000E+00   9.970E-01
 177  7.24178090   0.710  -0.95172   3.56735   6.73527   1.02480   0.00000   3.000E-03   0.000E+00   9.970E-01
 178  7.24462314   0.710  -0.95361   3.56733   6.73599   1.02829   0.00000   3.000E-03   0.000E+00   9.970E-01
 179  7.24744691   0.710  -0.95549   3.56731   6.73671   1.03178   0.00000   3.000E-03   0.000E+00   9.970E-01
 180  7.25025243   0.710  -0.95738   3.56728   6.73744   1.03527   0.00000   3.000E-03   0.000E+00   9.970E-01
 181  7.25303995   0.710  -0.95926   3.56726   6.73816   1.03877   0.00000   3.000E-03   0.000E+00   9.970E-01
 182  7.25580969   0.710  -0.96115   3.56724   6.73888   1.04226   0.00000   3.000E-03   0.000E+00   9.970E-01
 183  7.25856187   0.710  -0.96289   3.56723   6.73957   1.04559   0.00000   3.092E-03   0.000E+00   9.969E-01
 184  7.26129673   0.710  -0.96462   3.56721   6.74024   1.04891   0.00000   3.194E-03   0.000E+00   9.968E-01
 185  7.26401447   0.710  -0.96636   3.56719   6.74092   1.05223   0.00000   3.296E-03   0.000E+00   9.967E-01
 186  7.26671531   0.710  -0.96809   3.56718   6.74160   1.05555   0.00000   3.398E-03   0.000E+00   9.966E-01
 187  7.26939946   0.710  -0.96982   3.56716   6.74228   1.05887   0.00000   3.500E-03   0.000E+00   9.965E-01
 188  7.27206712   0.710  -0.97156   3.56714   6.74296   1.06219   0.00000   3.601E-03   0.000E+00   9.964E-01
 189  7.27471849   0.710  -0.97329   3.56713   6.74363   1.06550   0.00000   3.703E-03   0.000E+00   9.963E-01
 190  7.27735378   0.710  -0.97502   3.56711   6.74431   1.06882   0.00000   3.805E-03   0.000E+00   9.962E-01
 191  7.27997317   0.710  -0.97675   3.56709   6.74499   1.07214   0.00000   3.907E-03   0.000E+00   9.961E-01
 192  7.28257685   0.710  -0.97847   3.56708   6.74566   1.07545   0.00000   4.008E-03   0.000E+00   9.960E-01
 193  7.28516502   0.710  -0.98006   3.56707   6.74630   1.07861   0.00000   4.105E-03   0.000E+00   9.959E-01
 194  7.28773786   0.710  -0.98165   3.56706   6.74694   1.08177   0.00000   4.201E-03   0.000E+00   9.958E-01
 195  7.29029555   0.710  -0.98323   3.56705   6.74758   1.08492   0.00000   4.298E-03   0.000E+00   9.957E-01
 196  7.29283826   0.710  -0.98482   3.56704   6.74822   1.08808   0.00000   4.395E-03   0.000E+00   9.956E-01
 197  7.29536617   0.710  -0.98640   3.56703   6.74886   1.09124   0.00000   4.491E-03   0.000E+00   9.955E-01
 198  7.29787945   0.710  -0.98799   3.56702   6.74950   1.09440   0.00000   4.588E-03   0.000E+00   9.954E-01
 199  7.30037827   0.710  -0.98958   3.56700   6.75013   1.09756   0.00000   4.684E-03   0.000E+00   9.953E-01
 200  7.30286279   0.710  -0.99116   3.56699   6.75077   1.10072   0.00000   4.781E-03   0.000E+00   9.952E-01
 201  7.30533318   0.710  -0.99275   3.56698   6.75141   1.10388   0.00000   4.878E-03   0.000E+00   9.951E-01
 202  7.30778960   0.710  -0.99434   3.56697   6.75205   1.10703   0.00000   4.974E-03   0.000E+00   9.950E-01
 203  7.31023220   0.710  -0.99582   3.56697   6.75266   1.11008   0.00000   5.134E-03   0.000E+00   9.949E-01
 204  7.31266115   0.710  -0.99727   3.56696   6.75326   1.11309   0.00000   5.318E-03   0.000E+00   9.947E-01
 205  7.31507658   0.710  -0.99873   3.56696   6.75387   1.11610   0.00000   5.502E-03   0.000E+00   9.945E-01
 206  7.31747865   0.710  -1.00018   3.56695   6.75447   1.11910   0.00000   5.685E-03   0.000E+00   9.943E-01
 207  7.31986751   0.710  -1.00163   3.56695   6.75507   1.12211   0.00000   5.869E-03   0.000E+00   9.941E-01
 208  7.32224330   0.710  -1.00308   3.56694   6.75567   1.12512   0.00000   6.052E-03   0.000E+00   9.939E-01
 209  7.32460617   0.710  -1.00453   3.56694   6.75627   1.12813   0.00000   6.236E-03   0.000E+00   9.938E-01
 210  7.32695625   0.710  -1.00598   3.56693   6.75688   1.13113   0.00000   6.420E-03   0.000E+00   9.936E-01
 211  7.32929368   0.710  -1.00743   3.56693   6.75748   1.13414   0.00000   6.603E-03   0.000E+00   9.934E-01
 212  7.33161860   0.710  -1.00888   3.56693   6.75808   1.13715   0.00000   6.787E-03   0.000E+00   9.932E-01
 213  7.33393114   0.710  -1.01034   3.56692   6.75868   1.14016   0.00000   6.970E-03   0.000E+00   9.930E-01
 214  7.33623143   0.710  -1.01168   3.56692   6.75926   1.14305   0.00000   7.073E-03   0.000E+00   9.929E-01
 215  7.33851960   0.710  -1.01301   3.56692   6.75983   1.14591   0.00000   7.160E-03   0.000E+00   9.928E-01
 216  7.34079578   0.710  -1.01433   3.56692   6.76040   1.14878   0.00000   7.248E-03   0.000E+00   9.928E-01
 217  7.34306009   0.710  -1.01566   3.56692   6.76097   1.15165   0.00000   7.335E-03   0.000E+00   9.927E-01
 218  7.34531265   0.710  -1.01699   3.56692   6.76155   1.15452   0.00000   7.422E-03   0.000E+00   9.926E-01
 219  7.34755360   0.710  -1.01831   3.56693   6.76212   1.15739   0.00000   7.510E-03   0.000E+00   9.925E-01
 220  7.34978304   0.710  -1.01964   3.56693   6.76269   1.16025   0.00000   7.597E-03   0.000E+00   9.924E-01
 221  7.35200109   0.710  -1.02096   3.56693   6.76326   1.16312   0.00000   7.684E-03   0.000E+00   9.923E-01
 222  7.35420787   0.710  -1.02229   3.56693   6.76383   1.16599   0.00000   7.771E-03   0.000E+00   9.922E-01
 223  7.35640350   0.710  -1.02361   3.56693   6.76440   1.16886   0.00000   7.859E-03   0.000E+00   9.921E-01
 224  7.35858808   0.710  -1.02494   3.56693   6.76498   1.17173   0.00000   7.946E-03   0.000E+00   9.921E-01
 225  7.36076172   0.710  -1.02622   3.56693   6.76554   1.17454   0.00000   8.064E-03   0.000E+00   9.919E-01
 226  7.36292455   0.710  -1.02743   3.56694   6.76608   1.17728   0.00000   8.230E-03   0.000E+00   9.918E-01
 227  7.36507665   0.710  -1.02864   3.56694   6.76662   1.18002   0.00000   8.396E-03   0.000E+00   9.916E-01
 228  7.36721814   0.710  -1.02985   3.56695   6.76717   1.18275   0.00000   8.563E-03   0.000E+00   9.914E-01
 229  7.36934913   0.710  -1.03106   3.56696   6.76771   1.18549   0.00000   8.729E-03   0.000E+00   9.913E-01
 230  7.37146971   0.710  -1.03226   3.56696   6.76826   1.18823   0.00000   8.896E-03   0.000E+00   9.911E-01
 231  7.37357998   0.710  -1.03347   3.56697   6.76880   1.19096   0.00000   9.062E-03   0.000E+00   9.909E-01
 232  7.37568005   0.710  -1.03468   3.56697   6.76934   1.19370   0.00000   9.229E-03   0.000E+00   9.908E-01
 233  7.37777002   0.710  -1.03589   3.56698   6.76989   1.19644   0.00000   9.395E-03   0.000E+00   9.906E-01
 234  7.37984997   0.710  -1.03710   3.56698   6.77043   1.19917   0.00000   9.562E-03   0.000E+00   9.904E-01
 235  7.38192001   0.710  -1.03831   3.56699   6.77097   1.20191   0.00000   9.728E-03   0.000E+00   9.903E-01
 236  7.38398023   0.710  -1.03952   3.56700   6.77152   1.20465   0.00000   9.895E-03   0.000E+00   9.901E-01
 237  7.38603073   0.710  -1.04068   3.56700   6.77205   1.20734   0.00000   1.006E-02   0.000E+00   9.899E-01
 238  7.38807159   0.710  -1.04178   3.56701   6.77257   1.20995   0.00000   1.022E-02   0.000E+00   9.898E-01
 239  7.39010290   0.710  -1.04288   3.56702   6.77309   1.21257   0.00000   1.038E-02   0.000E+00   9.896E-01
 240  7.39212476   0.710  -1.04398   3.56703   6.77361   1.21518   0.00000   1.053E-02   0.000E+00   9.895E-01
 241  7.39413724   0.710  -1.04508   3.56705   6.77412   1.21780   0.00000   1.069E-02   0.000E+00   9.893E-01
 242  7.39614045   0.710  -1.04618   3.56706   6.77464   1.22041   0.00000   1.085E-02   0.000E+00   9.891E-01
 243  7.39813445   0.710  -1.04727   3.56707   6.77516   1.22302   0.00000   1.101E-02   0.000E+00   9.890E-01
 244  7.40011935   0.710  -1.04837   3.56708   6.77568   1.22564   0.00000   1.117E-02   0.000E+00   9.888E-01
 245  7.40209521   0.710  -1.04947   3.56709   6.77620   1.22825   0.00000   1.133E-02   0.000E+00   9.887E-01
 246  7.40406212   0.710  -1.05057   3.56710   6.77672   1.23086   0.00000   1.149E-02   0.000E+00   9.885E-01
 247  7.40602017   0.710  -1.05167   3.56711   6.77723   1.23348   0.00000   1.165E-02   0.000E+00   9.884E-01
 248  7.40796943   0.710  -1.05277   3.56712   6.77775   1.23609   0.00000   1.180E-02   0.000E+00   9.882E-01
 249  7.40990997   0.710  -1.05387   3.56713   6.77827   1.23871   0.00000   1.196E-02   0.000E+00   9.880E-01
 250  7.41184189   0.710  -1.05489   3.56714   6.77877   1.24123   0.00000   1.217E-02   0.000E+00   9.878E-01
 251  7.41376525   0.710  -1.05588   3.56716   6.77927   1.24373   0.00000   1.240E-02   0.000E+00   9.876E-01
 252  7.41568013   0.710  -1.05688   3.56717   6.77976   1.24622   0.00000   1.263E-02   0.000E+00   9.874E-01
 253  7.41758660   0.710  -1.05787   3.56718   6.78026   1.24872   0.00000   1.286E-02   0.000E+00   9.871E-01
 254  7.41948474   0.710  -1.05887   3.56720   6.78075   1.25122   0.00000   1.308E-02   0.000E+00   9.869E-01
 255  7.42137462   0.710  -1.05987   3.56721   6.78125   1.25371   0.00000   1.331E-02   0.000E+00   9.867E-01
 256  7.42325631   0.710  -1.06086   3.56723   6.78174   1.25621   0.00000   1.354E-02   0.000E+00   9.865E-01
 257  7.42512989   0.710  -1.06186   3.56724   6.78224   1.25870   0.00000   1.377E-02   0.000E+00   9.862E-01
 258  7.42699541   0.710  -1.06286   3.56726   6.78273   1.26120   0.00000   1.399E-02   0.000E+00   9.860E-01
 259  7.42885296   0.710  -1.06385   3.56727   6.78323   1.26370   0.00000   1.422E-02   0.000E+00   9.858E-01
 260  7.43070260   0.710  -1.06485   3.56729   6.78372   1.26619   0.00000   1.445E-02   0.000E+00   9.856E-01
 261  7.43254439   0.710  -1.06584   3.56730   6.78422   1.26869   0.00000   1.468E-02   0.000E+00   9.853E-01
 262  7.43437840   0.710  -1.06684   3.56731   6.78471   1.27119   0.00000   1.490E-02   0.000E+00   9.851E-01
 263  7.43620470   0.710  -1.06778   3.56733   6.78519   1.27362   0.00000   1.513E-02   0.000E+00   9.849E-01
 264  7.43802336   0.710  -1.06868   3.56735   6.78567   1.27601   0.00000   1.534E-02   0.000E+00   9.847E-01
 265  7.43983443   0.710  -1.06958   3.56737   6.78615   1.27839   0.00000   1.556E-02   0.000E+00   9.844E-01
 266  7.44163798   0.710  -1.07047   3.56739   6.78662   1.28078   0.00000   1.578E-02   0.000E+00   9.842E-01
 267  7.44343407   0.710  -1.07137   3.56741   6.78710   1.28317   0.00000   1.600E-02   0.000E+00   9.840E-01
 268  7.44522276   0.710  -1.07227   3.56743   6.78757   1.28556   0.00000   1.621E-02   0.000E+00   9.838E-01
 269  7.44700412   0.710  -1.07317   3.56744   6.78805   1.28794   0.00000   1.643E-02   0.000E+00   9.836E-01
 270  7.44877819   0.710  -1.07407   3.56746   6.78852   1.29033   0.00000   1.665E-02   0.000E+00   9.834E-01
 271  7.45054506   0.710  -1.07497   3.56748   6.78900   1.29272   0.00000   1.686E-02   0.000E+00   9.831E-01
 272  7.45230476   0.710  -1.07587   3.56750   6.78947   1.29511   0.00000   1.708E-02   0.000E+00   9.829E-01
 273  7.45405736   0.710  -1.07676   3.56752   6.78995   1.29749   0.00000   1.730E-02   0.000E+00   9.827E-01
 274  7.45580292   0.710  -1.07766   3.56754   6.79042   1.29988   0.00000   1.752E-02   0.000E+00   9.825E-01
 275  7.45754148   0.710  -1.07856   3.56756   6.79090   1.30227   0.00000   1.773E-02   0.000E+00   9.823E-01
 276  7.45927312   0.710  -1.07946   3.56758   6.79137   1.30466   0.00000   1.795E-02   0.000E+00   9.820E-01
 277  7.46099788   0.710  -1.08029   3.56760   6.79183   1.30696   0.00000   1.816E-02   0.000E+00   9.818E-01
 278  7.46271582   0.710  -1.08109   3.56762   6.79229   1.30925   0.00000   1.837E-02   0.000E+00   9.816E-01
 279  7.46442699   0.710  -1.08190   3.56764   6.79275   1.31153   0.00000   1.858E-02   0.000E+00   9.814E-01
 280  7.46613144   0.710  -1.08271   3.56767   6.79321   1.31382   0.00000   1.879E-02   0.000E+00   9.812E-01
 281  7.46782923   0.710  -1.08352   3.56769   6.79366   1.31610   0.00000   1.899E-02   0.000E+00   9.810E-01
 282  7.46952041   0.710  -1.08432   3.56771   6.79412   1.31839   0.00000   1.920E-02   0.000E+00   9.808E-01
 283  7.47120502   0.710  -1.08513   3.56774   6.79458   1.32067   0.00000   1.941E-02   0.000E+00   9.806E-01
 284  7.47288313   0.710  -1.08594   3.56776   6.79504   1.32295   0.00000   1.962E-02   0.000E+00   9.804E-01
 285  7.47455478   0.710  -1.08675   3.56778   6.79549   1.32524   0.00000   1.983E-02   0.000E+00   9.802E-01
 286  7.47622002   0.710  -1.08755   3.56780   6.79595   1.32752   0.00000   2.003E-02   0.000E+00   9.800E-01
 287  7.47787890   0.710  -1.08836   3.56783   6.79641   1.32981   0.00000   2.024E-02   0.000E+00   9.798E-01
 288  7.47953147   0.710  -1.08917   3.56785   6.79686   1.33209   0.00000   2.045E-02   0.000E+00   9.795E-01
 289  7.48117777   0.710  -1.08998   3.56787   6.79732   1.33438   0.00000   2.066E-02   0.000E+00   9.793E-01
 290  7.48281785   0.710  -1.09078   3.56790   6.79778   1.33666   0.00000   2.087E-02   0.000E+00   9.791E-01
 291  7.48445177   0.710  -1.09156   3.56792   6.79823   1.33891   0.00000   2.112E-02   0.000E+00   9.789E-01
 292  7.48607956   0.710  -1.09228   3.56795   6.79867   1.34110   0.00000   2.145E-02   0.000E+00   9.785E-01
 293  7.48770127   0.710  -1.09300   3.56798   6.79911   1.34329   0.00000   2.178E-02   0.000E+00   9.782E-01
 294  7.48931695   0.710  -1.09372   3.56800   6.79955   1.34547   0.00000   2.212E-02   0.000E+00   9.779E-01
 295  7.49092664   0.710  -1.09444   3.56803   6.79999   1.34766   0.00000   2.245E-02   0.000E+00   9.776E-01
 296  7.49253038   0.710  -1.09516   3.56806   6.80044   1.34985   0.00000   2.278E-02   0.000E+00   9.772E-01
 297  7.49412823   0.710  -1.09588   3.56809   6.80088   1.35203   0.00000   2.311E-02   0.000E+00   9.769E-01
 298  7.49572022   0.710  -1.09660   3.56812   6.80132   1.35422   0.00000   2.345E-02   0.000E+00   9.766E-01
 299  7.49730639   0.710  -1.09732   3.56814   6.80176   1.35641   0.00000   2.378E-02   0.000E+00   9.762E-01
 300  7.49888679   0.710  -1.09804   3.56817   6.80220   1.35859   0.00000   2.411E-02   0.000E+00   9.759E-01
 301  7.50046147   0.710  -1.09876   3.56820   6.80264   1.36078   0.00000   2.444E-02   0.000E+00   9.756E-01
 302  7.50203045   0.710  -1.09948   3.56823   6.80308   1.36297   0.00000   2.478E-02   0.000E+00   9.752E-01
 303  7.50359378   0.710  -1.10020   3.56826   6.80352   1.36516   0.00000   2.511E-02   0.000E+00   9.749E-01
 304  7.50515151   0.710  -1.10092   3.56828   6.80397   1.36734   0.00000   2.544E-02   0.000E+00   9.746E-01
 305  7.50670367   0.710  -1.10164   3.56831   6.80441   1.36953   0.00000   2.577E-02   0.000E+00   9.742E-01
 306  7.50825030   0.710  -1.10233   3.56834   6.80484   1.37169   0.00000   2.610E-02   0.000E+00   9.739E-01
 307  7.50979145   0.710  -1.10297   3.56837   6.80527   1.37378   0.00000   2.642E-02   0.000E+00   9.736E-01
 308  7.51132714   0.710  -1.10360   3.56840   6.80570   1.37587   0.00000   2.674E-02   0.000E+00   9.733E-01
 309  7.51285743   0.710  -1.10424   3.56843   6.80612   1.37796   0.00000   2.706E-02   0.000E+00   9.729E-01
 310  7.51438234   0.710  -1.10488   3.56846   6.80655   1.38006   0.00000   2.737E-02   0.000E+00   9.726E-01
 311  7.51590191   0.710  -1.10552   3.56850   6.80698   1.38215   0.00000   2.769E-02   0.000E+00   9.723E-01
 312  7.51741619   0.710  -1.10615   3.56853   6.80740   1.38424   0.00000   2.801E-02   0.000E+00   9.720E-01
 313  7.51892520   0.710  -1.10679   3.56856   6.80783   1.38633   0.00000   2.833E-02   0.000E+00   9.717E-01
 314  7.52042899   0.710  -1.10743   3.56859   6.80825   1.38843   0.00000   2.865E-02   0.000E+00   9.714E-01
 315  7.52192759   0.710  -1.10806   3.56862   6.80868   1.39052   0.00000   2.897E-02   0.000E+00   9.710E-01
 316  7.52342104   0.710  -1.10870   3.56865   6.80911   1.39261   0.00000   2.929E-02   0.000E+00   9.707E-01
 317  7.52490937   0.710  -1.10934   3.56868   6.80953   1.39470   0.00000   2.960E-02   0.000E+00   9.704E-01
 318  7.52639262   0.710  -1.10998   3.56871   6.80996   1.39680   0.00000   2.992E-02   0.000E+00   9.701E-01
 319  7.52787081   0.710  -1.11061   3.56875   6.81039   1.39889   0.00000   3.024E-02   0.000E+00   9.698E-01
 320  7.52934400   0.710  -1.11125   3.56878   6.81081   1.40098   0.00000   3.056E-02   0.000E+00   9.694E-01
 321  7.53081220   0.710  -1.11189   3.56881   6.81124   1.40307   0.00000   3.088E-02   0.000E+00   9.691E-01
 322  7.53227545   0.710  -1.11248   3.56884   6.81166   1.40511   0.00000   3.123E-02   0.000E+00   9.688E-01
 323  7.53373380   0.710  -1.11303   3.56888   6.81207   1.40712   0.00000   3.159E-02   0.000E+00   9.684E-01
 324  7.53518726   0.710  -1.11359   3.56891   6.81248   1.40912   0.00000   3.196E-02   0.000E+00   9.680E-01
 325  7.53663587   0.710  -1.11415   3.56895   6.81290   1.41112   0.00000   3.233E-02   0.000E+00   9.677E-01
 326  7.53807967   0.710  -1.11471   3.56899   6.81331   1.41313   0.00000   3.269E-02   0.000E+00   9.673E-01
 327  7.53951869   0.710  -1.11527   3.56902   6.81373   1.41513   0.00000   3.306E-02   0.000E+00   9.669E-01
 328  7.54095295   0.710  -1.11583   3.56906   6.81414   1.41714   0.00000   3.343E-02   0.000E+00   9.666E-01
 329  7.54238249   0.710  -1.11639   3.56909   6.81455   1.41914   0.00000   3.379E-02   0.000E+00   9.662E-01
 330  7.54380734   0.710  -1.11695   3.56913   6.81497   1.42114   0.00000   3.416E-02   0.000E+00   9.658E-01
 331  7.54522753   0.710  -1.11750   3.56917   6.81538   1.42315   0.00000   3.453E-02   0.000E+00   9.655E-01
 332  7.54664309   0.710  -1.11806   3.56920   6.81580   1.42515   0.00000   3.490E-02   0.000E+00   9.651E-01
 333  7.54805405   0.710  -1.11862   3.56924   6.81621   1.42715   0.00000   3.526E-02   0.000E+00   9.647E-01
 334  7.54946045   0.710  -1.11918   3.56928   6.81662   1.42916   0.00000   3.563E-02   0.000E+00   9.644E-01
 335  7.55086230   0.710  -1.11974   3.56931   6.81704   1.43116   0.00000   3.600E-02   0.000E+00   9.640E-01
 336  7.55225965   0.710  -1.12030   3.56935   6.81745   1.43317   0.00000   3.636E-02   0.000E+00   9.636E-01
 337  7.55365251   0.710  -1.12086   3.56938   6.81786   1.43517   0.00000   3.673E-02   0.000E+00   9.633E-01
 338  7.55504092   0.710  -1.12140   3.56942   6.81828   1.43715   0.00000   3.711E-02   0.000E+00   9.629E-01
 339  7.55642490   0.710  -1.12188   3.56946   6.81868   1.43907   0.00000   3.752E-02   0.000E+00   9.625E-01
 340  7.55780449   0.710  -1.12236   3.56950   6.81908   1.44099   0.00000   3.793E-02   0.000E+00   9.621E-01
 341  7.55917971   0.710  -1.12285   3.56954   6.81948   1.44291   0.00000   3.834E-02   0.000E+00   9.617E-01
 342  7.56055059   0.710  -1.12333   3.56958   6.81989   1.44483   0.00000   3.875E-02   0.000E+00   9.612E-01
 343  7.56191715   0.710  -1.12381   3.56962   6.82029   1.44675   0.00000   3.916E-02   0.000E+00   9.608E-01
 344  7.56327943   0.710  -1.12429   3.56966   6.82069   1.44867   0.00000   3.957E-02   0.000E+00   9.604E-01
 345  7.56463745   0.710  -1.12478   3.56970   6.82109   1.45058   0.00000   3.998E-02   0.000E+00   9.600E-01
 346  7.56599124   0.710  -1.12526   3.56974   6.82150   1.45250   0.00000   4.039E-02   0.000E+00   9.596E-01
 347  7.56734081   0.710  -1.12574   3.56978   6.82190   1.45442   0.00000   4.080E-02   0.000E+00   9.592E-01
 348  7.56868621   0.710  -1.12623   3.56982   6.82230   1.45634   0.00000   4.122E-02   0.000E+00   9.588E-01
 349  7.57002746   0.710  -1.12671   3.56986   6.82270   1.45826   0.00000   4.163E-02   0.000E+00   9.584E-01
 350  7.57136457   0.710  -1.12719   3.56990   6.82311   1.46018   0.00000   4.204E-02   0.000E+00   9.580E-01
 351  7.57269758   0.710  -1.12767   3.56994   6.82351   1.46210   0.00000   4.245E-02   0.000E+00   9.576E-01
 352  7.57402651   0.710  -1.12816   3.56998   6.82391   1.46402   0.00000   4.286E-02   0.000E+00   9.571E-01
 353  7.57535138   0.710  -1.12864   3.57002   6.82431   1.46594   0.00000   4.327E-02   0.000E+00   9.567E-01
 354  7.57667223   0.710  -1.12912   3.57006   6.82472   1.46786   0.00000   4.368E-02   0.000E+00   9.563E-01
 355  7.57798907   0.710  -1.12959   3.57010   6.82512   1.46976   0.00000   4.411E-02   0.000E+00   9.559E-01
 356  7.57930193   0.710  -1.13000   3.57014   6.82551   1.47159   0.00000   4.462E-02   0.000E+00   9.554E-01
 357  7.58061084   0.710  -1.13041   3.57019   6.82590   1.47343   0.00000   4.513E-02   0.000E+00   9.549E-01
 358  7.58191581   0.710  -1.13082   3.57023   6.82629   1.47527   0.00000   4.563E-02   0.000E+00   9.544E-01
 359  7.58321687   0.710  -1.13123   3.57028   6.82669   1.47711   0.00000   4.614E-02   0.000E+00   9.539E-01
 360  7.58451405   0.710  -1.13164   3.57032   6.82708   1.47894   0.00000   4.665E-02   0.000E+00   9.534E-01
 361  7.58580736   0.710  -1.13205   3.57037   6.82747   1.48078   0.00000   4.716E-02   0.000E+00   9.528E-01
 362  7.58709683   0.710  -1.13246   3.57041   6.82786   1.48262   0.00000   4.766E-02   0.000E+00   9.523E-01
 363  7.58838249   0.710  -1.13287   3.57046   6.82825   1.48446   0.00000   4.817E-02   0.000E+00   9.518E-01
 364  7.58966435   0.710  -1.13328   3.57050   6.82865   1.48629   0.00000   4.868E-02   0.000E+00   9.513E-01
 365  7.59094244   0.710  -1.13369   3.57055   6.82904   1.48813   0.00000   4.918E-02   0.000E+00   9.508E-01
 366  7.59221677   0.710  -1.13410   3.57059   6.82943   1.48997   0.00000   4.969E-02   0.000E+00   9.503E-01
 367  7.59348738   0.710  -1.13451   3.57063   6.82982   1.49181   0.00000   5.020E-02   0.000E+00   9.498E-01
 368  7.59475429   0.710  -1.13492   3.57068   6.83022   1.49365   0.00000   5.071E-02   0.000E+00   9.493E-01
 369  7.59601750   0.710  -1.13533   3.57072   6.83061   1.49548   0.00000   5.121E-02   0.000E+00   9.488E-01
 370  7.59727706   0.710  -1.13574   3.57077   6.83100   1.49732   0.00000   5.172E-02   0.000E+00   9.483E-01
 371  7.59853297   0.710  -1.13615   3.57081   6.83139   1.49916   0.00000   5.223E-02   0.000E+00   9.478E-01
 372  7.59978526   0.710  -1.13656   3.57086   6.83178   1.50100   0.00000   5.273E-02   0.000E+00   9.473E-01
 373  7.60103395   0.710  -1.13694   3.57090   6.83217   1.50280   0.00000   5.323E-02   0.000E+00   9.468E-01
 374  7.60227906   0.710  -1.13728   3.57095   6.83256   1.50455   0.00000   5.372E-02   0.000E+00   9.463E-01
 375  7.60352061   0.710  -1.13762   3.57100   6.83294   1.50631   0.00000   5.421E-02   0.000E+00   9.458E-01
 376  7.60475862   0.710  -1.13797   3.57105   6.83332   1.50807   0.00000   5.469E-02   0.000E+00   9.453E-01
 377  7.60599312   0.710  -1.13831   3.57110   6.83371   1.50983   0.00000   5.518E-02   0.000E+00   9.448E-01
 378  7.60722411   0.710  -1.13865   3.57115   6.83409   1.51159   0.00000   5.567E-02   0.000E+00   9.443E-01
 379  7.60845162   0.710  -1.13899   3.57120   6.83447   1.51334   0.00000   5.615E-02   0.000E+00   9.438E-01
 380  7.60967568   0.710  -1.13933   3.57124   6.83485   1.51510   0.00000   5.664E-02   0.000E+00   9.434E-01
 381  7.61089629   0.710  -1.13967   3.57129   6.83524   1.51686   0.00000   5.713E-02   0.000E+00   9.429E-01
 382  7.61211348   0.710  -1.14001   3.57134   6.83562   1.51862   0.00000   5.762E-02   0.000E+00   9.424E-01
 383  7.61332727   0.710  -1.14035   3.57139   6.83600   1.52038   0.00000   5.810E-02   0.000E+00   9.419E-01
 384  7.61453768   0.710  -1.14069   3.57144   6.83639   1.52213   0.00000   5.859E-02   0.000E+00   9.414E-01
 385  7.61574473   0.710  -1.14103   3.57149   6.83677   1.52389   0.00000   5.908E-02   0.000E+00   9.409E-01
 386  7.61694842   0.710  -1.14138   3.57154   6.83715   1.52565   0.00000   5.956E-02   0.000E+00   9.404E-01
 387  7.61814880   0.710  -1.14172   3.57159   6.83754   1.52741   0.00000   6.005E-02   0.000E+00   9.399E-01
 388  7.61934586   0.710  -1.14206   3.57163   6.83792   1.52917   0.00000   6.054E-02   0.000E+00   9.395E-01
 389  7.62053963   0.710  -1.14240   3.57168   6.83830   1.53092   0.00000   6.103E-02   0.000E+00   9.390E-01
 390  7.62173013   0.710  -1.14274   3.57173   6.83869   1.53268   0.00000   6.151E-02   0.000E+00   9.385E-01
 391  7.62291738   0.710  -1.14308   3.57178   6.83907   1.53444   0.00000   6.200E-02   0.000E+00   9.380E-01
 392  7.63305408   0.710  -1.14545   3.57224   6.84232   1.54896   0.00000   6.740E-02   0.000E+00   9.326E-01
 393  7.64295958   0.710  -1.14782   3.57270   6.84556   1.56349   0.00000   7.279E-02   0.000E+00   9.272E-01
 394  7.65264417   0.710  -1.14977   3.57318   6.84876   1.57747   0.00000   7.869E-02   0.000E+00   9.213E-01
 395  7.66211751   0.710  -1.15159   3.57367   6.85195   1.59129   0.00000   8.473E-02   0.000E+00   9.153E-01
 396  7.67138860   0.710  -1.15317   3.57419   6.85511   1.60480   0.00000   9.085E-02   0.000E+00   9.091E-01
 397  7.68046591   0.710  -1.15444   3.57472   6.85824   1.61795   0.00000   9.706E-02   0.000E+00   9.029E-01
 398  7.68935737   0.710  -1.15569   3.57525   6.86136   1.63107   0.00000   1.033E-01   0.000E+00   8.967E-01
 399  7.69807044   0.710  -1.15645   3.57583   6.86443   1.64353   0.00000   1.109E-01   0.000E+00   8.891E-01
 400  7.70661213   0.710  -1.15722   3.57640   6.86750   1.65599   0.00000   1.184E-01   0.000E+00   8.816E-01
 401  7.71498907   0.710  -1.15773   3.57699   6.87054   1.66809   0.00000   1.263E-01   0.000E+00   8.737E-01
 402  7.72320747   0.710  -1.15801   3.57759   6.87356   1.67986   0.00000   1.344E-01   0.000E+00   8.656E-01
 403  7.73127324   0.710  -1.15829   3.57820   6.87657   1.69163   0.00000   1.425E-01   0.000E+00   8.575E-01
 404  7.73919194   0.710  -1.15816   3.57883   6.87954   1.70273   0.00000   1.512E-01   0.000E+00   8.488E-01
 405  7.74696883   0.710  -1.15800   3.57947   6.88250   1.71379   0.00000   1.599E-01   0.000E+00   8.401E-01
 406  7.75460891   0.710  -1.15772   3.58012   6.88544   1.72465   0.00000   1.688E-01   0.000E+00   8.312E-01
 407  7.76211691   0.710  -1.15715   3.58079   6.88835   1.73500   0.00000   1.784E-01   0.000E+00   8.216E-01
 408  7.76949731   0.710  -1.15658   3.58146   6.89126   1.74535   0.00000   1.879E-01   0.000E+00   8.121E-01
 409  7.77675438   0.710  -1.15582   3.58215   6.89414   1.75529   0.00000   1.980E-01   0.000E+00   8.020E-01
 410  7.78389218   0.710  -1.15493   3.58284   6.89700   1.76492   0.00000   2.083E-01   0.000E+00   7.917E-01
 411  7.79091455   0.710  -1.15403   3.58354   6.89985   1.77455   0.00000   2.187E-01   0.000E+00   7.813E-01
 412  7.79782519   0.710  -1.15292   3.58424   6.90266   1.78358   0.00000   2.299E-01   0.000E+00   7.701E-01
 413  7.80462758   0.710  -1.15175   3.58495   6.90546   1.79243   0.00000   2.413E-01   0.000E+00   7.587E-01
 414  7.81132506   0.710  -1.15058   3.58565   6.90826   1.80129   0.00000   2.528E-01   0.000E+00   7.472E-01
 415  7.81792083   0.710  -1.14920   3.58637   6.91097   1.80949   0.00000   2.644E-01   0.000E+00   7.356E-01
 416  7.82441792   0.710  -1.14778   3.58708   6.91365   1.81753   0.00000   2.761E-01   0.000E+00   7.239E-01
 417  7.83081924   0.710  -1.14628   3.58778   6.91630   1.82521   0.00000   2.881E-01   0.000E+00   7.119E-01
 418  7.83712758   0.710  -1.14476   3.58848   6.91892   1.83264   0.00000   3.001E-01   0.000E+00   6.999E-01
 419  7.84334560   0.710  -1.14321   3.58917   6.92153   1.83985   0.00000   3.122E-01   0.000E+00   6.878E-01
 420  7.84947585   0.710  -1.14165   3.58986   6.92412   1.84682   0.00000   3.246E-01   0.000E+00   6.754E-01
 421  7.85552077   0.710  -1.14010   3.59055   6.92669   1.85348   0.00000   3.378E-01   0.000E+00   6.622E-01
 422  7.86148270   0.710  -1.13855   3.59122   6.92924   1.85988   0.00000   3.504E-01   0.000E+00   6.496E-01
 423  7.86736390   0.710  -1.13703   3.59188   6.93177   1.86604   0.00000   3.637E-01   0.000E+00   6.363E-01
 424  7.87316651   0.710  -1.13554   3.59253   6.93428   1.87197   0.00000   3.774E-01   0.000E+00   6.226E-01
 425  7.87889262   0.710  -1.13408   3.59317   6.93678   1.87764   0.00000   3.910E-01   0.000E+00   6.090E-01
 426  7.88454422   0.710  -1.13268   3.59379   6.93918   1.88283   0.00000   4.055E-01   0.000E+00   5.945E-01
 427  7.89012321   0.710  -1.13132   3.59440   6.94161   1.88784   0.00000   4.197E-01   0.000E+00   5.803E-01
 428  7.89563144   0.710  -1.12999   3.59499   6.94407   1.89268   0.00000   4.338E-01   0.000E+00   5.662E-01
 429  7.90107068   0.710  -1.12871   3.59558   6.94651   1.89715   0.00000   4.492E-01   0.000E+00   5.508E-01
 430  7.90644264   0.710  -1.12750   3.59614   6.94896   1.90135   0.00000   4.645E-01   0.000E+00   5.355E-01
 431  7.91174897   0.710  -1.12633   3.59669   6.95141   1.90535   0.00000   4.799E-01   0.000E+00   5.201E-01
 432  7.91699124   0.710  -1.12530   3.59722   6.95386   1.90886   0.00000   4.957E-01   0.000E+00   5.043E-01
 433  7.92217099   0.710  -1.12433   3.59773   6.95631   1.91213   0.00000   5.118E-01   0.000E+00   4.882E-01
 434  7.92728968   0.710  -1.12347   3.59822   6.95876   1.91497   0.00000   5.283E-01   0.000E+00   4.717E-01
 435  7.93234875   0.710  -1.12271   3.59868   6.96122   1.91749   0.00009   5.451E-01   0.000E+00   4.549E-01
 436  7.93734957   0.710  -1.12210   3.59911   6.96369   1.91956   0.00029   5.623E-01   0.000E+00   4.377E-01
 437  7.94229345   0.710  -1.12151   3.59953   6.96614   1.92155   0.00064   5.795E-01   0.000E+00   4.204E-01
 438  7.94718169   0.709  -1.12128   3.59988   6.96839   1.92277   0.00256   5.981E-01   0.000E+00   4.016E-01
 439  7.95201553   0.709  -1.12104   3.60022   6.97063   1.92400   0.00449   6.167E-01   0.000E+00   3.827E-01
 440  7.95679615   0.709  -1.12081   3.60057   6.97288   1.92522   0.00641   6.352E-01   0.000E+00   3.638E-01
 441  7.96152472   0.709  -1.12111   3.60079   6.97468   1.92553   0.00846   6.547E-01   1.755E-04   3.443E-01
 442  7.96620235   0.709  -1.12150   3.60100   6.97641   1.92569   0.01054   6.743E-01   3.818E-04   3.247E-01
 443  7.97083015   0.709  -1.12189   3.60120   6.97814   1.92585   0.01261   6.939E-01   5.881E-04   3.051E-01
 444  7.97540915   0.709  -1.12229   3.60141   6.97987   1.92600   0.01468   7.135E-01   7.943E-04   2.855E-01
 445  7.97994037   0.709  -1.12268   3.60161   6.98159   1.92616   0.01676   7.331E-01   1.000E-03   2.659E-01
 446  7.98442481   0.709  -1.12373   3.60166   6.98274   1.92545   0.01905   7.518E-01   1.000E-03   2.472E-01
 447  7.98886341   0.709  -1.12477   3.60170   6.98390   1.92474   0.02135   7.705E-01   1.000E-03   2.285E-01
 448  7.99325711   0.709  -1.12581   3.60175   6.98505   1.92403   0.02365   7.892E-01   1.000E-03   2.098E-01
 449  7.99760680   0.709  -1.12685   3.60180   6.98620   1.92332   0.02594   8.080E-01   1.000E-03   1.910E-01
 450  8.00191336   0.709  -1.12790   3.60185   6.98735   1.92261   0.02824   8.267E-01   1.000E-03   1.723E-01
 451  8.00617764   0.709  -1.12917   3.60180   6.98851   1.91984   0.03358   8.847E-01   1.000E-03   1.141E-01
 452  8.01040045   0.709  -1.13046   3.60174   6.98967   1.91690   0.03915   9.454E-01   1.000E-03   5.328E-02
 453  8.01458259   0.709  -1.13210   3.60161   6.99049   1.91349   0.04439   9.828E-01   1.000E-03   1.590E-02
 454  8.01872485   0.709  -1.13386   3.60145   6.99120   1.90999   0.04914   1.017E+00   1.000E-03  -1.796E-02
 455  8.02282797   0.709  -1.13582   3.60124   6.99177   1.90638   0.05290   1.044E+00   1.000E-03  -4.548E-02
 456  8.02689269   0.709  -1.13800   3.60099   6.99219   1.90283   0.05488   1.063E+00   1.000E-03  -6.421E-02
 457  8.03091971   0.709  -1.14038   3.60070   6.99248   1.89944   0.05564   1.073E+00   1.000E-03  -7.434E-02
 458  8.03490974   0.709  -1.14293   3.60039   6.99266   1.89625   0.05743   1.079E+00   1.000E-03  -8.074E-02
 459  8.03886345   0.709  -1.14563   3.60004   6.99276   1.89323   0.05743   1.085E+00   1.000E-03  -8.597E-02
 460  8.04278148   0.709  -1.14846   3.59967   6.99278   1.89042   0.05743   1.087E+00   1.000E-03  -8.849E-02
 461  8.04666449   0.709  -1.15138   3.59928   6.99274   1.88780   0.05743   1.089E+00   1.000E-03  -8.997E-02
 462  8.05051308   0.709  -1.15437   3.59887   6.99264   1.88537   0.05743   1.089E+00   1.000E-03  -9.081E-02
 463  8.05432787   0.709  -1.15737   3.59846   6.99250   1.88314   0.05743   1.090E+00   1.000E-03  -9.090E-02
 464  8.05810944   0.709  -1.16037   3.59805   6.99233   1.88106   0.05728   1.089E+00   1.000E-03  -9.058E-02
 465  8.06185837   0.709  -1.16335   3.59763   6.99213   1.87918   0.05488   1.088E+00   1.000E-03  -8.975E-02
 466  8.06557521   0.709  -1.16630   3.59722   6.99191   1.87744   0.05488   1.087E+00   1.000E-03  -8.845E-02
 467  8.06926052   0.709  -1.16919   3.59681   6.99166   1.87587   0.05357   1.085E+00   1.000E-03  -8.699E-02
 468  8.07291481   0.709  -1.17201   3.59639   6.99140   1.87442   0.05233   1.084E+00   1.000E-03  -8.517E-02
 469  8.07653861   0.709  -1.17472   3.59600   6.99113   1.87314   0.05233   1.082E+00   1.000E-03  -8.319E-02
 470  8.08013242   0.709  -1.17732   3.59562   6.99086   1.87197   0.05057   1.080E+00   1.000E-03  -8.103E-02
 471  8.08369674   0.709  -1.17976   3.59526   6.99058   1.87094   0.04977   1.077E+00   1.000E-03  -7.856E-02
 472  8.08723205   0.709  -1.18203   3.59491   6.99029   1.87002   0.04935   1.075E+00   1.000E-03  -7.602E-02
 473  8.09073880   0.709  -1.18416   3.59459   6.99001   1.86920   0.04722   1.072E+00   1.000E-03  -7.334E-02
 474  8.09421747   0.709  -1.18614   3.59429   6.98973   1.86849   0.04722   1.069E+00   1.000E-03  -7.052E-02
 475  8.09766850   0.709  -1.18796   3.59400   6.98945   1.86787   0.04635   1.067E+00   1.000E-03  -6.772E-02
 476  8.10109232   0.709  -1.18963   3.59374   6.98919   1.86733   0.04467   1.064E+00   1.000E-03  -6.490E-02
 477  8.10448935   0.709  -1.19115   3.59349   6.98893   1.86686   0.04467   1.061E+00   1.000E-03  -6.189E-02
 478  8.10786003   0.709  -1.19248   3.59327   6.98868   1.86647   0.04467   1.057E+00   1.000E-03  -5.895E-02
 479  8.11120474   0.709  -1.19362   3.59308   6.98844   1.86615   0.04351   1.055E+00   1.000E-03  -5.610E-02
 480  8.11452389   0.709  -1.19465   3.59290   6.98821   1.86588   0.04230   1.052E+00   1.000E-03  -5.327E-02
 481  8.11781787   0.709  -1.19553   3.59274   6.98799   1.86566   0.04141   1.049E+00   1.000E-03  -5.049E-02
 482  8.12108705   0.709  -1.19628   3.59261   6.98779   1.86549   0.04100   1.047E+00   1.000E-03  -4.774E-02
 483  8.12433180   0.709  -1.19691   3.59249   6.98759   1.86536   0.04100   1.044E+00   1.000E-03  -4.501E-02
 484  8.12755249   0.709  -1.19748   3.59238   6.98741   1.86525   0.04084   1.041E+00   1.000E-03  -4.239E-02
 485  8.13074948   0.709  -1.19783   3.59230   6.98724   1.86519   0.04023   1.039E+00   1.000E-03  -4.007E-02
 486  8.13392310   0.709  -1.19819   3.59222   6.98708   1.86514   0.03963   1.037E+00   1.000E-03  -3.776E-02
 487  8.13707370   0.709  -1.19852   3.59215   6.98692   1.86509   0.03909   1.035E+00   1.000E-03  -3.549E-02
 488  8.14020160   0.709  -1.19858   3.59211   6.98680   1.86510   0.03909   1.033E+00   1.000E-03  -3.355E-02
 489  8.14330714   0.709  -1.19865   3.59208   6.98668   1.86511   0.03909   1.031E+00   1.000E-03  -3.161E-02
 490  8.14639063   0.709  -1.19872   3.59205   6.98656   1.86512   0.03909   1.028E+00   1.000E-03  -2.966E-02
 491  8.14945238   0.709  -1.19879   3.59201   6.98644   1.86513   0.03909   1.026E+00   1.000E-03  -2.772E-02
 492  8.15249270   0.709  -1.19879   3.59199   6.98633   1.86515   0.03897   1.025E+00   1.000E-03  -2.607E-02
 493  8.15551188   0.709  -1.19867   3.59199   6.98626   1.86517   0.03866   1.023E+00   1.000E-03  -2.492E-02
 494  8.15851022   0.709  -1.19856   3.59198   6.98618   1.86520   0.03834   1.022E+00   1.000E-03  -2.376E-02
 495  8.16148800   0.709  -1.19844   3.59198   6.98610   1.86522   0.03803   1.021E+00   1.000E-03  -2.261E-02
 496  8.16444550   0.709  -1.19833   3.59198   6.98603   1.86524   0.03771   1.020E+00   1.000E-03  -2.146E-02
 497  8.16738299   0.709  -1.19821   3.59197   6.98595   1.86527   0.03740   1.019E+00   1.000E-03  -2.030E-02
 498  8.17030075   0.709  -1.19809   3.59197   6.98588   1.86529   0.03708   1.018E+00   1.000E-03  -1.915E-02
 499  8.17319904   0.709  -1.19797   3.59197   6.98581   1.86531   0.03681   1.017E+00   1.000E-03  -1.814E-02
 500  8.17607812   0.709  -1.19781   3.59198   6.98577   1.86532   0.03664   1.016E+00   1.000E-03  -1.753E-02
 501  8.17893823   0.709  -1.19765   3.59199   6.98573   1.86532   0.03648   1.016E+00   1.000E-03  -1.692E-02
 502  8.18177963   0.709  -1.19749   3.59200   6.98569   1.86533   0.03631   1.015E+00   1.000E-03  -1.631E-02
 503  8.18460256   0.709  -1.19733   3.59201   6.98564   1.86534   0.03615   1.015E+00   1.000E-03  -1.570E-02
 504  8.18740727   0.709  -1.19718   3.59202   6.98560   1.86534   0.03599   1.014E+00   1.000E-03  -1.509E-02
 505  8.19019397   0.709  -1.19702   3.59203   6.98556   1.86535   0.03582   1.013E+00   1.000E-03  -1.448E-02
 506  8.19296291   0.709  -1.19686   3.59204   6.98552   1.86536   0.03566   1.013E+00   1.000E-03  -1.387E-02
 507  8.19571430   0.709  -1.19670   3.59206   6.98548   1.86536   0.03549   1.012E+00   1.000E-03  -1.326E-02
 508  8.19844838   0.709  -1.19654   3.59207   6.98544   1.86537   0.03533   1.012E+00   1.000E-03  -1.265E-02
 509  8.20116535   0.709  -1.19638   3.59208   6.98540   1.86538   0.03516   1.011E+00   1.000E-03  -1.204E-02
 510  8.20386542   0.709  -1.19625   3.59208   6.98536   1.86537   0.03504   1.011E+00   1.000E-03  -1.167E-02
 511  8.20654882   0.709  -1.19614   3.59209   6.98534   1.86534   0.03494   1.011E+00   1.000E-03  -1.146E-02
 512  8.20921573   0.709  -1.19603   3.59210   6.98531   1.86532   0.03484   1.010E+00   1.000E-03  -1.125E-02
 513  8.21186637   0.709  -1.19591   3.59211   6.98528   1.86530   0.03473   1.010E+00   1.000E-03  -1.104E-02
 514  8.21450093   0.709  -1.19580   3.59212   6.98526   1.86527   0.03463   1.010E+00   1.000E-03  -1.083E-02
 515  8.21711961   0.709  -1.19569   3.59212   6.98523   1.86525   0.03453   1.010E+00   1.000E-03  -1.062E-02
 516  8.21972259   0.709  -1.19557   3.59213   6.98520   1.86523   0.03443   1.009E+00   1.000E-03  -1.040E-02
 517  8.22231006   0.709  -1.19546   3.59214   6.98518   1.86521   0.03433   1.009E+00   1.000E-03  -1.019E-02
 518  8.22488220   0.709  -1.19535   3.59215   6.98515   1.86518   0.03423   1.009E+00   1.000E-03  -9.981E-03
 519  8.22743920   0.709  -1.19523   3.59216   6.98512   1.86516   0.03413   1.009E+00   1.000E-03  -9.769E-03
 520  8.22998124   0.709  -1.19512   3.59216   6.98509   1.86514   0.03403   1.008E+00   1.000E-03  -9.558E-03
 521  8.23250848   0.709  -1.19501   3.59217   6.98507   1.86511   0.03392   1.008E+00   1.000E-03  -9.347E-03
 522  8.23502110   0.709  -1.19489   3.59218   6.98504   1.86509   0.03382   1.008E+00   1.000E-03  -9.135E-03
 523  8.23751927   0.709  -1.19484   3.59218   6.98502   1.86505   0.03374   1.008E+00   1.000E-03  -9.078E-03
 524  8.24000315   0.709  -1.19479   3.59218   6.98499   1.86501   0.03366   1.008E+00   1.000E-03  -9.025E-03
 525  8.24247290   0.709  -1.19474   3.59218   6.98497   1.86497   0.03358   1.008E+00   1.000E-03  -8.972E-03
 526  8.24492869   0.709  -1.19469   3.59218   6.98495   1.86492   0.03350   1.008E+00   1.000E-03  -8.919E-03
 527  8.24737067   0.709  -1.19464   3.59219   6.98492   1.86488   0.03342   1.008E+00   1.000E-03  -8.866E-03
 528  8.24979900   0.709  -1.19459   3.59219   6.98490   1.86484   0.03334   1.008E+00   1.000E-03  -8.812E-03
 529  8.25221382   0.709  -1.19454   3.59219   6.98487   1.86480   0.03326   1.008E+00   1.000E-03  -8.759E-03
 530  8.25461529   0.709  -1.19449   3.59219   6.98485   1.86476   0.03318   1.008E+00   1.000E-03  -8.706E-03
 531  8.25700355   0.709  -1.19444   3.59219   6.98483   1.86471   0.03309   1.007E+00   1.000E-03  -8.653E-03
 532  8.25937876   0.709  -1.19439   3.59219   6.98480   1.86467   0.03301   1.007E+00   1.000E-03  -8.600E-03
 533  8.26174104   0.709  -1.19434   3.59219   6.98478   1.86463   0.03293   1.007E+00   1.000E-03  -8.547E-03
 534  8.26409054   0.709  -1.19429   3.59219   6.98476   1.86459   0.03285   1.007E+00   1.000E-03  -8.494E-03
 535  8.26642740   0.708  -1.19424   3.59219   6.98473   1.86455   0.03277   1.007E+00   1.000E-03  -8.440E-03
 536  8.26875176   0.708  -1.19419   3.59220   6.98471   1.86451   0.03269   1.007E+00   1.000E-03  -8.387E-03
 537  8.27106374   0.708  -1.19414   3.59220   6.98468   1.86446   0.03261   1.007E+00   1.000E-03  -8.334E-03
 538  8.27336347   0.708  -1.19410   3.59220   6.98466   1.86442   0.03253   1.007E+00   1.000E-03  -8.281E-03
 539  8.27565110   0.708  -1.19405   3.59220   6.98464   1.86438   0.03245   1.007E+00   1.000E-03  -8.228E-03
 540  8.27792673   0.708  -1.19401   3.59220   6.98461   1.86434   0.03236   1.007E+00   1.000E-03  -8.185E-03
 541  8.28019051   0.708  -1.19399   3.59220   6.98459   1.86430   0.03223   1.007E+00   1.000E-03  -8.168E-03
 542  8.28244254   0.708  -1.19398   3.59219   6.98456   1.86425   0.03211   1.007E+00   1.000E-03  -8.150E-03
 543  8.28468296   0.708  -1.19397   3.59219   6.98454   1.86421   0.03199   1.007E+00   1.000E-03  -8.133E-03
 544  8.28691188   0.708  -1.19396   3.59219   6.98451   1.86417   0.03187   1.007E+00   1.000E-03  -8.116E-03
 545  8.28912942   0.708  -1.19394   3.59218   6.98449   1.86413   0.03175   1.007E+00   1.000E-03  -8.098E-03
 546  8.29133569   0.708  -1.19393   3.59218   6.98447   1.86408   0.03163   1.007E+00   1.000E-03  -8.081E-03
 547  8.29353082   0.708  -1.19392   3.59218   6.98444   1.86404   0.03151   1.007E+00   1.000E-03  -8.064E-03
 548  8.29571490   0.708  -1.19390   3.59217   6.98442   1.86400   0.03139   1.007E+00   1.000E-03  -8.046E-03
 549  8.29788805   0.708  -1.19389   3.59217   6.98439   1.86396   0.03127   1.007E+00   1.000E-03  -8.029E-03
 550  8.30005038   0.708  -1.19388   3.59217   6.98437   1.86392   0.03115   1.007E+00   1.000E-03  -8.012E-03
 551  8.30220201   0.708  -1.19387   3.59216   6.98434   1.86387   0.03103   1.007E+00   1.000E-03  -7.994E-03
 552  8.30434302   0.708  -1.19385   3.59216   6.98432   1.86383   0.03091   1.007E+00   1.000E-03  -7.977E-03
 553  8.30647353   0.708  -1.19384   3.59215   6.98429   1.86379   0.03079   1.007E+00   1.000E-03  -7.960E-03
 554  8.30859364   0.708  -1.19383   3.59215   6.98427   1.86375   0.03067   1.007E+00   1.000E-03  -7.942E-03
 555  8.31070345   0.708  -1.19381   3.59215   6.98425   1.86370   0.03055   1.007E+00   1.000E-03  -7.925E-03
 556  8.31280306   0.708  -1.19380   3.59214   6.98422   1.86366   0.03043   1.007E+00   1.000E-03  -7.908E-03
 557  8.31489257   0.708  -1.19379   3.59214   6.98420   1.86362   0.03030   1.007E+00   1.000E-03  -7.890E-03
 558  8.31697207   0.708  -1.19378   3.59214   6.98417   1.86358   0.03018   1.007E+00   1.000E-03  -7.873E-03
 559  8.31904166   0.708  -1.19376   3.59213   6.98415   1.86354   0.03006   1.007E+00   1.000E-03  -7.856E-03
 560  8.32110144   0.708  -1.19375   3.59213   6.98412   1.86349   0.02994   1.007E+00   1.000E-03  -7.838E-03
 561  8.32315150   0.708  -1.19374   3.59213   6.98410   1.86345   0.02982   1.007E+00   1.000E-03  -7.821E-03
 562  8.32519192   0.708  -1.19372   3.59212   6.98407   1.86341   0.02970   1.007E+00   1.000E-03  -7.803E-03
 563  8.32722280   0.708  -1.19371   3.59212   6.98405   1.86337   0.02958   1.007E+00   1.000E-03  -7.786E-03
 564  8.32924423   0.708  -1.19370   3.59212   6.98402   1.86332   0.02946   1.007E+00   1.000E-03  -7.769E-03
 565  8.33125629   0.708  -1.19369   3.59211   6.98400   1.86328   0.02934   1.007E+00   1.000E-03  -7.751E-03
 566  8.33325908   0.708  -1.19367   3.59211   6.98398   1.86324   0.02922   1.007E+00   1.000E-03  -7.734E-03
 567  8.33525267   0.708  -1.19367   3.59211   6.98395   1.86321   0.02909   1.007E+00   1.000E-03  -7.718E-03
 568  8.33723715   0.708  -1.19366   3.59210   6.98392   1.86317   0.02896   1.007E+00   1.000E-03  -7.701E-03
 569  8.33921260   0.708  -1.19366   3.59210   6.98390   1.86314   0.02883   1.007E+00   1.000E-03  -7.685E-03
 570  8.34117911   0.708  -1.19365   3.59209   6.98387   1.86311   0.02870   1.007E+00   1.000E-03  -7.669E-03
 571  8.34313676   0.708  -1.19365   3.59209   6.98385   1.86308   0.02857   1.007E+00   1.000E-03  -7.652E-03
 572  8.34508562   0.708  -1.19365   3.59209   6.98382   1.86304   0.02844   1.007E+00   1.000E-03  -7.636E-03
 573  8.34702577   0.708  -1.19364   3.59208   6.98380   1.86301   0.02831   1.007E+00   1.000E-03  -7.620E-03
 574  8.34895730   0.708  -1.19364   3.59208   6.98377   1.86298   0.02818   1.007E+00   1.000E-03  -7.603E-03
 575  8.35088027   0.708  -1.19363   3.59207   6.98375   1.86295   0.02805   1.007E+00   1.000E-03  -7.587E-03
 576  8.35279477   0.708  -1.19363   3.59207   6.98372   1.86292   0.02792   1.007E+00   1.000E-03  -7.571E-03
 577  8.35470086   0.708  -1.19362   3.59206   6.98369   1.86288   0.02779   1.007E+00   1.000E-03  -7.554E-03
 578  8.35659863   0.708  -1.19362   3.59206   6.98367   1.86285   0.02766   1.007E+00   1.000E-03  -7.538E-03
 579  8.35848813   0.708  -1.19362   3.59206   6.98364   1.86282   0.02753   1.007E+00   1.000E-03  -7.522E-03
 580  8.36036946   0.708  -1.19361   3.59205   6.98362   1.86279   0.02740   1.007E+00   1.000E-03  -7.505E-03
 581  8.36224266   0.708  -1.19361   3.59205   6.98359   1.86276   0.02727   1.007E+00   1.000E-03  -7.489E-03
 582  8.36410783   0.708  -1.19360   3.59204   6.98357   1.86272   0.02714   1.007E+00   1.000E-03  -7.473E-03
 583  8.36596501   0.708  -1.19360   3.59204   6.98354   1.86269   0.02701   1.007E+00   1.000E-03  -7.456E-03
 584  8.36781429   0.708  -1.19359   3.59203   6.98351   1.86266   0.02688   1.007E+00   1.000E-03  -7.440E-03
 585  8.36965573   0.708  -1.19359   3.59203   6.98349   1.86263   0.02675   1.007E+00   1.000E-03  -7.424E-03
 586  8.37148939   0.708  -1.19359   3.59203   6.98346   1.86259   0.02662   1.007E+00   1.000E-03  -7.407E-03
 587  8.37331535   0.708  -1.19358   3.59202   6.98344   1.86256   0.02649   1.006E+00   1.000E-03  -7.391E-03
 588  8.37513365   0.708  -1.19358   3.59202   6.98341   1.86253   0.02636   1.006E+00   1.000E-03  -7.375E-03
 589  8.37694438   0.708  -1.19357   3.59201   6.98339   1.86250   0.02623   1.006E+00   1.000E-03  -7.358E-03
 590  8.37874759   0.708  -1.19357   3.59201   6.98336   1.86247   0.02610   1.006E+00   1.000E-03  -7.342E-03
 591  8.38054334   0.708  -1.19356   3.59200   6.98334   1.86243   0.02597   1.006E+00   1.000E-03  -7.326E-03
 592  8.38233170   0.708  -1.19356   3.59200   6.98331   1.86240   0.02584   1.006E+00   1.000E-03  -7.309E-03
 593  8.38411272   0.708  -1.19356   3.59200   6.98328   1.86237   0.02571   1.006E+00   1.000E-03  -7.293E-03
 594  8.38588647   0.708  -1.19355   3.59199   6.98326   1.86234   0.02558   1.006E+00   1.000E-03  -7.277E-03
 595  8.38765301   0.708  -1.19355   3.59199   6.98323   1.86230   0.02545   1.006E+00   1.000E-03  -7.260E-03
 596  8.38941239   0.708  -1.19354   3.59198   6.98321   1.86227   0.02532   1.006E+00   1.000E-03  -7.244E-03
 597  8.39116467   0.708  -1.19354   3.59198   6.98318   1.86224   0.02519   1.006E+00   1.000E-03  -7.228E-03
 598  8.39290991   0.708  -1.19353   3.59197   6.98316   1.86221   0.02506   1.006E+00   1.000E-03  -7.211E-03
 599  8.39464816   0.708  -1.19353   3.59197   6.98313   1.86218   0.02493   1.006E+00   1.000E-03  -7.195E-03
 600  8.39637948   0.708  -1.19353   3.59197   6.98310   1.86214   0.02480   1.006E+00   1.000E-03  -7.179E-03
 601  8.39810393   0.708  -1.19352   3.59196   6.98308   1.86211   0.02466   1.006E+00   1.000E-03  -7.162E-03
 602  8.39982156   0.708  -1.19352   3.59196   6.98305   1.86208   0.02453   1.006E+00   1.000E-03  -7.146E-03
 603  8.40153242   0.708  -1.19351   3.59195   6.98303   1.86205   0.02440   1.006E+00   1.000E-03  -7.130E-03
 604  8.40323657   0.708  -1.19351   3.59195   6.98300   1.86202   0.02427   1.006E+00   1.000E-03  -7.113E-03
 605  8.40493406   0.708  -1.19350   3.59194   6.98298   1.86198   0.02414   1.006E+00   1.000E-03  -7.097E-03
 606  8.40662494   0.708  -1.19350   3.59194   6.98295   1.86195   0.02401   1.006E+00   1.000E-03  -7.081E-03
 607  8.40830926   0.708  -1.19350   3.59194   6.98292   1.86192   0.02391   1.006E+00   1.000E-03  -7.074E-03
 608  8.40998708   0.708  -1.19349   3.59193   6.98290   1.86190   0.02382   1.006E+00   1.000E-03  -7.067E-03
 609  8.41165843   0.708  -1.19349   3.59193   6.98287   1.86187   0.02372   1.006E+00   1.000E-03  -7.060E-03
 610  8.41332338   0.708  -1.19349   3.59192   6.98285   1.86185   0.02362   1.006E+00   1.000E-03  -7.053E-03
 611  8.41498197   0.708  -1.19348   3.59192   6.98282   1.86182   0.02352   1.006E+00   1.000E-03  -7.047E-03
 612  8.41663425   0.708  -1.19348   3.59192   6.98279   1.86179   0.02342   1.006E+00   1.000E-03  -7.040E-03
 613  8.41828027   0.708  -1.19348   3.59191   6.98277   1.86177   0.02333   1.006E+00   1.000E-03  -7.033E-03
 614  8.41992008   0.708  -1.19347   3.59191   6.98274   1.86174   0.02323   1.006E+00   1.000E-03  -7.027E-03
 615  8.42155371   0.708  -1.19347   3.59190   6.98272   1.86171   0.02313   1.006E+00   1.000E-03  -7.020E-03
 616  8.42318123   0.708  -1.19346   3.59190   6.98269   1.86169   0.02303   1.006E+00   1.000E-03  -7.013E-03
 617  8.42480266   0.708  -1.19346   3.59190   6.98266   1.86166   0.02293   1.006E+00   1.000E-03  -7.006E-03
 618  8.42641807   0.708  -1.19346   3.59189   6.98264   1.86164   0.02283   1.006E+00   1.000E-03  -7.000E-03
 619  8.42802749   0.707  -1.19345   3.59189   6.98261   1.86161   0.02274   1.006E+00   1.000E-03  -6.993E-03
 620  8.42963097   0.707  -1.19345   3.59188   6.98258   1.86158   0.02264   1.006E+00   1.000E-03  -6.986E-03
 621  8.43122855   0.707  -1.19345   3.59188   6.98256   1.86156   0.02254   1.006E+00   1.000E-03  -6.980E-03
 622  8.43282027   0.707  -1.19344   3.59188   6.98253   1.86153   0.02244   1.006E+00   1.000E-03  -6.973E-03
 623  8.43440618   0.707  -1.19344   3.59187   6.98251   1.86150   0.02234   1.006E+00   1.000E-03  -6.966E-03
 624  8.43598632   0.707  -1.19344   3.59187   6.98248   1.86148   0.02225   1.006E+00   1.000E-03  -6.960E-03
 625  8.43756073   0.707  -1.19343   3.59186   6.98245   1.86145   0.02215   1.006E+00   1.000E-03  -6.953E-03
 626  8.43912946   0.707  -1.19343   3.59186   6.98243   1.86142   0.02205   1.006E+00   1.000E-03  -6.946E-03
 627  8.44069254   0.707  -1.19343   3.59186   6.98240   1.86140   0.02195   1.006E+00   1.000E-03  -6.939E-03
 628  8.44225001   0.707  -1.19342   3.59185   6.98238   1.86137   0.02185   1.006E+00   1.000E-03  -6.933E-03
 629  8.44380192   0.707  -1.19342   3.59185   6.98235   1.86135   0.02175   1.006E+00   1.000E-03  -6.926E-03
 630  8.44534830   0.707  -1.19342   3.59184   6.98232   1.86132   0.02166   1.006E+00   1.000E-03  -6.919E-03
 631  8.44688920   0.707  -1.19341   3.59184   6.98230   1.86129   0.02156   1.006E+00   1.000E-03  -6.913E-03
 632  8.44842465   0.707  -1.19341   3.59184   6.98227   1.86127   0.02146   1.006E+00   1.000E-03  -6.906E-03
 633  8.44995469   0.707  -1.19341   3.59183   6.98225   1.86124   0.02136   1.006E+00   1.000E-03  -6.899E-03
 634  8.45147936   0.707  -1.19340   3.59183   6.98222   1.86121   0.02126   1.006E+00   1.000E-03  -6.893E-03
 635  8.45299869   0.707  -1.19340   3.59182   6.98219   1.86119   0.02117   1.006E+00   1.000E-03  -6.886E-03
 636  8.45451273   0.707  -1.19339   3.59182   6.98217   1.86116   0.02107   1.006E+00   1.000E-03  -6.879E-03
 637  8.45602150   0.707  -1.19339   3.59182   6.98214   1.86114   0.02097   1.006E+00   1.000E-03  -6.872E-03
 638  8.45752506   0.707  -1.19339   3.59181   6.98211   1.86111   0.02087   1.006E+00   1.000E-03  -6.866E-03
 639  8.45902342   0.707  -1.19338   3.59181   6.98209   1.86108   0.02077   1.006E+00   1.000E-03  -6.859E-03
 640  8.46051664   0.707  -1.19338   3.59180   6.98206   1.86106   0.02068   1.006E+00   1.000E-03  -6.852E-03
 641  8.46200473   0.707  -1.19338   3.59180   6.98204   1.86103   0.02058   1.006E+00   1.000E-03  -6.846E-03
 642  8.46348775   0.707  -1.19337   3.59180   6.98201   1.86100   0.02048   1.006E+00   1.000E-03  -6.839E-03
 643  8.46496572   0.707  -1.19337   3.59179   6.98198   1.86098   0.02038   1.006E+00   1.000E-03  -6.832E-03
 644  8.46643867   0.707  -1.19337   3.59179   6.98196   1.86095   0.02028   1.006E+00   1.000E-03  -6.826E-03
 645  8.46790665   0.707  -1.19336   3.59178   6.98193   1.86092   0.02018   1.006E+00   1.000E-03  -6.819E-03
 646  8.46936968   0.707  -1.19336   3.59178   6.98191   1.86090   0.02009   1.006E+00   1.000E-03  -6.812E-03
 647  8.47082781   0.707  -1.19336   3.59178   6.98188   1.86087   0.01999   1.006E+00   1.000E-03  -6.805E-03
 648  8.47228105   0.707  -1.19335   3.59177   6.98185   1.86085   0.01989   1.006E+00   1.000E-03  -6.799E-03
 649  8.47372944   0.707  -1.19335   3.59177   6.98183   1.86082   0.01979   1.006E+00   1.000E-03  -6.792E-03
 650  8.47517302   0.707  -1.19335   3.59176   6.98180   1.86079   0.01969   1.006E+00   1.000E-03  -6.785E-03
 651  8.47661182   0.707  -1.19334   3.59176   6.98177   1.86077   0.01960   1.006E+00   1.000E-03  -6.779E-03
 652  8.47804587   0.707  -1.19334   3.59176   6.98175   1.86074   0.01950   1.006E+00   1.000E-03  -6.772E-03
 653  8.47947519   0.707  -1.19333   3.59175   6.98172   1.86071   0.01940   1.006E+00   1.000E-03  -6.765E-03
 654  8.48089983   0.707  -1.19333   3.59175   6.98170   1.86069   0.01930   1.006E+00   1.000E-03  -6.759E-03
 655  8.48231981   0.707  -1.19333   3.59174   6.98167   1.86066   0.01920   1.006E+00   1.000E-03  -6.752E-03
 656  8.48373516   0.707  -1.19332   3.59174   6.98164   1.86064   0.01910   1.006E+00   1.000E-03  -6.745E-03
 657  8.48514592   0.707  -1.19332   3.59174   6.98162   1.86061   0.01901   1.006E+00   1.000E-03  -6.738E-03
 658  8.48655211   0.707  -1.19332   3.59173   6.98159   1.86058   0.01891   1.006E+00   1.000E-03  -6.732E-03
 659  8.48795375   0.707  -1.19331   3.59173   6.98157   1.86056   0.01881   1.006E+00   1.000E-03  -6.725E-03
 660  8.48935089   0.707  -1.19331   3.59172   6.98154   1.86053   0.01871   1.006E+00   1.000E-03  -6.718E-03
 661  8.49074355   0.707  -1.19331   3.59172   6.98151   1.86050   0.01861   1.006E+00   1.000E-03  -6.712E-03
 662  8.49213176   0.707  -1.19330   3.59171   6.98149   1.86048   0.01852   1.006E+00   1.000E-03  -6.705E-03
 663  8.49351555   0.707  -1.19330   3.59171   6.98146   1.86045   0.01842   1.006E+00   1.000E-03  -6.698E-03
 664  8.49489494   0.707  -1.19330   3.59171   6.98143   1.86043   0.01832   1.006E+00   1.000E-03  -6.692E-03
 665  8.49626996   0.707  -1.19329   3.59170   6.98141   1.86040   0.01822   1.006E+00   1.000E-03  -6.685E-03
 666  8.49764064   0.707  -1.19329   3.59170   6.98138   1.86037   0.01813   1.006E+00   1.000E-03  -6.678E-03
 667  8.49900701   0.707  -1.19328   3.59170   6.98136   1.86035   0.01806   1.006E+00   1.000E-03  -6.669E-03
 668  8.50036909   0.707  -1.19328   3.59169   6.98134   1.86033   0.01798   1.006E+00   1.000E-03  -6.661E-03
 669  8.50172692   0.707  -1.19328   3.59169   6.98131   1.86031   0.01791   1.006E+00   1.000E-03  -6.653E-03
 670  8.50308051   0.707  -1.19327   3.59169   6.98129   1.86028   0.01784   1.006E+00   1.000E-03  -6.644E-03
 671  8.50442990   0.707  -1.19327   3.59168   6.98126   1.86026   0.01776   1.006E+00   1.000E-03  -6.636E-03
 672  8.50577511   0.707  -1.19326   3.59168   6.98124   1.86024   0.01769   1.006E+00   1.000E-03  -6.627E-03
 673  8.50711617   0.707  -1.19326   3.59167   6.98122   1.86022   0.01761   1.006E+00   1.000E-03  -6.619E-03
 674  8.50845309   0.707  -1.19326   3.59167   6.98119   1.86020   0.01754   1.006E+00   1.000E-03  -6.611E-03
 675  8.50978592   0.707  -1.19325   3.59167   6.98117   1.86017   0.01747   1.006E+00   1.000E-03  -6.602E-03
 676  8.51111466   0.707  -1.19325   3.59166   6.98115   1.86015   0.01739   1.006E+00   1.000E-03  -6.594E-03
 677  8.51243935   0.707  -1.19324   3.59166   6.98112   1.86013   0.01732   1.006E+00   1.000E-03  -6.586E-03
 678  8.51376002   0.707  -1.19324   3.59166   6.98110   1.86011   0.01725   1.006E+00   1.000E-03  -6.577E-03
 679  8.51507668   0.707  -1.19324   3.59165   6.98107   1.86008   0.01717   1.006E+00   1.000E-03  -6.569E-03
 680  8.51638936   0.707  -1.19323   3.59165   6.98105   1.86006   0.01710   1.006E+00   1.000E-03  -6.560E-03
 681  8.51769809   0.707  -1.19323   3.59165   6.98103   1.86004   0.01703   1.006E+00   1.000E-03  -6.552E-03
 682  8.51900288   0.707  -1.19322   3.59164   6.98100   1.86002   0.01695   1.006E+00   1.000E-03  -6.544E-03
 683  8.52030376   0.707  -1.19322   3.59164   6.98098   1.85999   0.01688   1.006E+00   1.000E-03  -6.535E-03
 684  8.52160076   0.707  -1.19321   3.59164   6.98096   1.85997   0.01681   1.006E+00   1.000E-03  -6.527E-03
 685  8.52289390   0.707  -1.19321   3.59163   6.98093   1.85995   0.01673   1.006E+00   1.000E-03  -6.518E-03
 686  8.52418320   0.707  -1.19321   3.59163   6.98091   1.85993   0.01666   1.006E+00   1.000E-03  -6.510E-03
 687  8.52546868   0.707  -1.19320   3.59163   6.98088   1.85990   0.01659   1.006E+00   1.000E-03  -6.502E-03
 688  8.52675037   0.707  -1.19320   3.59162   6.98086   1.85988   0.01651   1.006E+00   1.000E-03  -6.493E-03
 689  8.52802829   0.707  -1.19319   3.59162   6.98084   1.85986   0.01644   1.006E+00   1.000E-03  -6.485E-03
 690  8.52930246   0.707  -1.19319   3.59162   6.98081   1.85984   0.01637   1.006E+00   1.000E-03  -6.477E-03
 691  8.53057290   0.707  -1.19319   3.59161   6.98079   1.85982   0.01629   1.006E+00   1.000E-03  -6.468E-03
 692  8.53183963   0.707  -1.19318   3.59161   6.98076   1.85979   0.01622   1.006E+00   1.000E-03  -6.460E-03
 693  8.53310269   0.707  -1.19318   3.59161   6.98074   1.85977   0.01615   1.006E+00   1.000E-03  -6.451E-03
 694  8.53436207   0.707  -1.19317   3.59160   6.98072   1.85975   0.01607   1.006E+00   1.000E-03  -6.443E-03
 695  8.53561782   0.707  -1.19317   3.59160   6.98069   1.85973   0.01600   1.006E+00   1.000E-03  -6.435E-03
 696  8.53686995   0.707  -1.19316   3.59160   6.98067   1.85970   0.01592   1.006E+00   1.000E-03  -6.426E-03
 697  8.53811848   0.707  -1.19316   3.59159   6.98065   1.85968   0.01585   1.006E+00   1.000E-03  -6.418E-03
 698  8.53936342   0.707  -1.19316   3.59159   6.98062   1.85966   0.01578   1.006E+00   1.000E-03  -6.410E-03
 699  8.54060481   0.707  -1.19315   3.59158   6.98060   1.85964   0.01570   1.006E+00   1.000E-03  -6.401E-03
 700  8.54184266   0.707  -1.19315   3.59158   6.98057   1.85961   0.01563   1.006E+00   1.000E-03  -6.393E-03
 701  8.54307700   0.706  -1.19314   3.59158   6.98055   1.85959   0.01556   1.006E+00   1.000E-03  -6.384E-03
 702  8.54430783   0.706  -1.19314   3.59157   6.98053   1.85957   0.01548   1.006E+00   1.000E-03  -6.376E-03
 703  8.54553519   0.706  -1.19314   3.59157   6.98050   1.85955   0.01541   1.006E+00   1.000E-03  -6.368E-03
 704  8.54675909   0.706  -1.19313   3.59157   6.98048   1.85952   0.01534   1.006E+00   1.000E-03  -6.359E-03
 705  8.54797954   0.706  -1.19313   3.59156   6.98046   1.85950   0.01526   1.006E+00   1.000E-03  -6.351E-03
 706  8.54919658   0.706  -1.19312   3.59156   6.98043   1.85948   0.01519   1.006E+00   1.000E-03  -6.343E-03
 707  8.55041022   0.706  -1.19312   3.59156   6.98041   1.85946   0.01512   1.006E+00   1.000E-03  -6.334E-03
 708  8.55162047   0.706  -1.19312   3.59155   6.98038   1.85944   0.01504   1.006E+00   1.000E-03  -6.326E-03
 709  8.55282737   0.706  -1.19311   3.59155   6.98036   1.85941   0.01497   1.006E+00   1.000E-03  -6.317E-03
 710  8.55403091   0.706  -1.19311   3.59155   6.98034   1.85939   0.01490   1.006E+00   1.000E-03  -6.309E-03
 711  8.55523113   0.706  -1.19310   3.59154   6.98031   1.85937   0.01482   1.005E+00   1.000E-03  -6.301E-03
 712  8.55642805   0.706  -1.19310   3.59154   6.98029   1.85935   0.01475   1.005E+00   1.000E-03  -6.292E-03
 713  8.55762167   0.706  -1.19309   3.59154   6.98027   1.85932   0.01468   1.005E+00   1.000E-03  -6.284E-03
 714  8.55881202   0.706  -1.19309   3.59153   6.98024   1.85930   0.01460   1.005E+00   1.000E-03  -6.276E-03
 715  8.55999912   0.706  -1.19309   3.59153   6.98022   1.85928   0.01453   1.005E+00   1.000E-03  -6.267E-03
 716  8.56118298   0.706  -1.19308   3.59153   6.98019   1.85926   0.01445   1.005E+00   1.000E-03  -6.259E-03
 717  8.56236363   0.706  -1.19308   3.59152   6.98017   1.85923   0.01438   1.005E+00   1.000E-03  -6.250E-03
 718  8.56354107   0.706  -1.19307   3.59152   6.98015   1.85921   0.01431   1.005E+00   1.000E-03  -6.242E-03
 719  8.56471533   0.706  -1.19307   3.59152   6.98012   1.85919   0.01423   1.005E+00   1.000E-03  -6.234E-03
 720  8.56588642   0.706  -1.19307   3.59151   6.98010   1.85917   0.01416   1.005E+00   1.000E-03  -6.225E-03
 721  8.56705436   0.706  -1.19306   3.59151   6.98007   1.85915   0.01409   1.005E+00   1.000E-03  -6.217E-03
 722  8.56821917   0.706  -1.19306   3.59151   6.98005   1.85912   0.01401   1.005E+00   1.000E-03  -6.209E-03
 723  8.56938087   0.706  -1.19305   3.59150   6.98003   1.85910   0.01394   1.005E+00   1.000E-03  -6.200E-03
 724  8.57053947   0.706  -1.19305   3.59150   6.98000   1.85908   0.01387   1.005E+00   1.000E-03  -6.192E-03
 725  8.57169498   0.706  -1.19305   3.59149   6.97998   1.85906   0.01379   1.005E+00   1.000E-03  -6.183E-03
 726  8.57284743   0.706  -1.19304   3.59149   6.97996   1.85903   0.01372   1.005E+00   1.000E-03  -6.175E-03
 727  8.57399682   0.706  -1.19304   3.59149   6.97993   1.85901   0.01365   1.005E+00   1.000E-03  -6.167E-03
 728  8.57514319   0.706  -1.19303   3.59148   6.97991   1.85899   0.01357   1.005E+00   1.000E-03  -6.158E-03
 729  8.57628653   0.706  -1.19303   3.59148   6.97988   1.85897   0.01350   1.005E+00   1.000E-03  -6.150E-03
 730  8.57742687   0.706  -1.19302   3.59148   6.97986   1.85894   0.01343   1.005E+00   1.000E-03  -6.142E-03
 731  8.57856423   0.706  -1.19302   3.59147   6.97984   1.85892   0.01335   1.005E+00   1.000E-03  -6.133E-03
 732  8.57969862   0.706  -1.19302   3.59147   6.97981   1.85890   0.01328   1.005E+00   1.000E-03  -6.125E-03
 733  8.58083005   0.706  -1.19301   3.59147   6.97979   1.85888   0.01321   1.005E+00   1.000E-03  -6.116E-03
 734  8.58195854   0.706  -1.19301   3.59146   6.97977   1.85885   0.01313   1.005E+00   1.000E-03  -6.108E-03
 735  8.58308410   0.706  -1.19300   3.59146   6.97974   1.85883   0.01306   1.005E+00   1.000E-03  -6.100E-03
 736  8.58420676   0.706  -1.19300   3.59146   6.97972   1.85881   0.01298   1.005E+00   1.000E-03  -6.091E-03
 737  8.58532652   0.706  -1.19300   3.59145   6.97969   1.85879   0.01291   1.005E+00   1.000E-03  -6.083E-03
 738  8.58644340   0.706  -1.19299   3.59145   6.97967   1.85877   0.01284   1.005E+00   1.000E-03  -6.075E-03
 739  8.58755742   0.706  -1.19299   3.59145   6.97965   1.85874   0.01276   1.005E+00   1.000E-03  -6.066E-03
 740  8.58866859   0.706  -1.19298   3.59144   6.97962   1.85872   0.01269   1.005E+00   1.000E-03  -6.058E-03
 741  8.58977692   0.706  -1.19298   3.59144   6.97960   1.85870   0.01262   1.005E+00   1.000E-03  -6.049E-03
 742  8.59088243   0.706  -1.19297   3.59144   6.97958   1.85868   0.01254   1.005E+00   1.000E-03  -6.041E-03
 743  8.59198513   0.706  -1.19297   3.59143   6.97955   1.85865   0.01247   1.005E+00   1.000E-03  -6.033E-03
 744  8.59308504   0.706  -1.19297   3.59143   6.97953   1.85863   0.01240   1.005E+00   1.000E-03  -6.024E-03
 745  8.59418217   0.706  -1.19296   3.59143   6.97950   1.85861   0.01232   1.005E+00   1.000E-03  -6.016E-03
 746  8.59527654   0.706  -1.19296   3.59142   6.97948   1.85859   0.01225   1.005E+00   1.000E-03  -6.008E-03
 747  8.59636815   0.706  -1.19295   3.59142   6.97946   1.85856   0.01218   1.005E+00   1.000E-03  -5.999E-03
 748  8.59745703   0.706  -1.19295   3.59142   6.97943   1.85854   0.01210   1.005E+00   1.000E-03  -5.991E-03
 749  8.59854319   0.706  -1.19295   3.59141   6.97941   1.85852   0.01203   1.005E+00   1.000E-03  -5.982E-03
 750  8.59962664   0.706  -1.19294   3.59141   6.97938   1.85850   0.01196   1.005E+00   1.000E-03  -5.974E-03
 751  8.60070738   0.706  -1.19294   3.59140   6.97936   1.85847   0.01188   1.005E+00   1.000E-03  -5.966E-03
 752  8.60178545   0.706  -1.19293   3.59140   6.97934   1.85845   0.01181   1.005E+00   1.000E-03  -5.957E-03
 753  8.60286085   0.706  -1.19293   3.59140   6.97931   1.85843   0.01174   1.005E+00   1.000E-03  -5.949E-03
 754  8.60393359   0.706  -1.19293   3.59139   6.97929   1.85841   0.01166   1.005E+00   1.000E-03  -5.940E-03
 755  8.60500369   0.706  -1.19292   3.59139   6.97927   1.85839   0.01159   1.005E+00   1.000E-03  -5.932E-03
 756  8.60607116   0.706  -1.19291   3.59139   6.97925   1.85838   0.01154   1.005E+00   1.000E-03  -5.917E-03
 757  8.60713601   0.706  -1.19291   3.59139   6.97923   1.85837   0.01150   1.005E+00   1.000E-03  -5.900E-03
 758  8.60819825   0.706  -1.19290   3.59139   6.97922   1.85837   0.01146   1.005E+00   1.000E-03  -5.883E-03
 759  8.60925791   0.706  -1.19289   3.59138   6.97920   1.85836   0.01143   1.005E+00   1.000E-03  -5.866E-03
 760  8.61031498   0.706  -1.19289   3.59138   6.97918   1.85835   0.01139   1.005E+00   1.000E-03  -5.849E-03
 761  8.61136949   0.706  -1.19288   3.59138   6.97917   1.85835   0.01135   1.005E+00   1.000E-03  -5.832E-03
 762  8.61242144   0.706  -1.19287   3.59138   6.97915   1.85834   0.01131   1.005E+00   1.000E-03  -5.815E-03
 763  8.61347086   0.706  -1.19287   3.59138   6.97914   1.85834   0.01127   1.005E+00   1.000E-03  -5.798E-03
 764  8.61451774   0.706  -1.19286   3.59138   6.97912   1.85833   0.01123   1.005E+00   1.000E-03  -5.781E-03
 765  8.61556210   0.706  -1.19285   3.59137   6.97910   1.85833   0.01119   1.005E+00   1.000E-03  -5.765E-03
 766  8.61660396   0.706  -1.19284   3.59137   6.97909   1.85832   0.01115   1.005E+00   1.000E-03  -5.748E-03
 767  8.61764333   0.706  -1.19284   3.59137   6.97907   1.85832   0.01112   1.005E+00   1.000E-03  -5.731E-03
 768  8.61868021   0.706  -1.19283   3.59137   6.97906   1.85831   0.01108   1.005E+00   1.000E-03  -5.714E-03
 769  8.61971463   0.706  -1.19282   3.59137   6.97904   1.85831   0.01104   1.005E+00   1.000E-03  -5.697E-03
 770  8.62074659   0.706  -1.19282   3.59136   6.97902   1.85830   0.01100   1.005E+00   1.000E-03  -5.680E-03
 771  8.62177610   0.706  -1.19281   3.59136   6.97901   1.85829   0.01096   1.005E+00   1.000E-03  -5.663E-03
 772  8.62280317   0.706  -1.19280   3.59136   6.97899   1.85829   0.01092   1.005E+00   1.000E-03  -5.646E-03
 773  8.62382783   0.706  -1.19279   3.59136   6.97898   1.85828   0.01088   1.005E+00   1.000E-03  -5.629E-03
 774  8.62485007   0.706  -1.19279   3.59136   6.97896   1.85828   0.01085   1.005E+00   1.000E-03  -5.612E-03
 775  8.62586991   0.706  -1.19278   3.59136   6.97894   1.85827   0.01081   1.005E+00   1.000E-03  -5.595E-03
 776  8.62688736   0.706  -1.19277   3.59135   6.97893   1.85827   0.01077   1.005E+00   1.000E-03  -5.578E-03
 777  8.62790243   0.706  -1.19277   3.59135   6.97891   1.85826   0.01073   1.005E+00   1.000E-03  -5.561E-03
 778  8.62891514   0.706  -1.19276   3.59135   6.97890   1.85826   0.01069   1.005E+00   1.000E-03  -5.544E-03
 779  8.62992549   0.706  -1.19275   3.59135   6.97888   1.85825   0.01065   1.005E+00   1.000E-03  -5.527E-03
 780  8.63093349   0.705  -1.19274   3.59135   6.97886   1.85825   0.01061   1.005E+00   1.000E-03  -5.510E-03
 781  8.63193916   0.705  -1.19274   3.59135   6.97885   1.85824   0.01057   1.005E+00   1.000E-03  -5.493E-03
 782  8.63294251   0.705  -1.19273   3.59134   6.97883   1.85823   0.01054   1.005E+00   1.000E-03  -5.476E-03
 783  8.63394355   0.705  -1.19272   3.59134   6.97882   1.85823   0.01050   1.005E+00   1.000E-03  -5.459E-03
 784  8.63494228   0.705  -1.19272   3.59134   6.97880   1.85822   0.01046   1.005E+00   1.000E-03  -5.442E-03
 785  8.63593872   0.705  -1.19271   3.59134   6.97878   1.85822   0.01042   1.005E+00   1.000E-03  -5.425E-03
 786  8.63693288   0.705  -1.19270   3.59134   6.97877   1.85821   0.01038   1.005E+00   1.000E-03  -5.408E-03
 787  8.63792477   0.705  -1.19270   3.59134   6.97875   1.85821   0.01034   1.005E+00   1.000E-03  -5.391E-03
 788  8.63891440   0.705  -1.19269   3.59133   6.97874   1.85820   0.01030   1.005E+00   1.000E-03  -5.374E-03
 789  8.63990178   0.705  -1.19268   3.59133   6.97872   1.85820   0.01027   1.004E+00   1.000E-03  -5.357E-03
 790  8.64088692   0.705  -1.19267   3.59133   6.97870   1.85819   0.01023   1.004E+00   1.000E-03  -5.340E-03
 791  8.64186983   0.705  -1.19267   3.59133   6.97869   1.85819   0.01019   1.004E+00   1.000E-03  -5.323E-03
 792  8.64285052   0.705  -1.19266   3.59133   6.97867   1.85818   0.01015   1.004E+00   1.000E-03  -5.306E-03
 793  8.64382900   0.705  -1.19265   3.59133   6.97866   1.85817   0.01011   1.004E+00   1.000E-03  -5.289E-03
 794  8.64480528   0.705  -1.19265   3.59132   6.97864   1.85817   0.01007   1.004E+00   1.000E-03  -5.272E-03
 795  8.64577938   0.705  -1.19264   3.59132   6.97862   1.85816   0.01003   1.004E+00   1.000E-03  -5.255E-03
 796  8.64675129   0.705  -1.19263   3.59132   6.97861   1.85816   0.01000   1.004E+00   1.000E-03  -5.238E-03
 797  8.64772103   0.705  -1.19262   3.59132   6.97859   1.85815   0.00996   1.004E+00   1.000E-03  -5.221E-03
 798  8.64868861   0.705  -1.19262   3.59132   6.97858   1.85815   0.00992   1.004E+00   1.000E-03  -5.204E-03
 799  8.64965404   0.705  -1.19261   3.59132   6.97856   1.85814   0.00988   1.004E+00   1.000E-03  -5.187E-03
 800  8.65061733   0.705  -1.19260   3.59131   6.97854   1.85814   0.00984   1.004E+00   1.000E-03  -5.170E-03
 801  8.65157849   0.705  -1.19260   3.59131   6.97853   1.85813   0.00980   1.004E+00   1.000E-03  -5.153E-03
 802  8.65253752   0.705  -1.19259   3.59131   6.97851   1.85813   0.00976   1.004E+00   1.000E-03  -5.136E-03
 803  8.65349444   0.705  -1.19258   3.59131   6.97850   1.85812   0.00972   1.004E+00   1.000E-03  -5.119E-03
 804  8.65444926   0.705  -1.19258   3.59131   6.97848   1.85812   0.00969   1.004E+00   1.000E-03  -5.102E-03
 805  8.65540198   0.705  -1.19257   3.59130   6.97846   1.85811   0.00965   1.004E+00   1.000E-03  -5.085E-03
 806  8.65635262   0.705  -1.19256   3.59130   6.97845   1.85810   0.00961   1.004E+00   1.000E-03  -5.068E-03
 807  8.65730118   0.705  -1.19255   3.59130   6.97843   1.85810   0.00957   1.004E+00   1.000E-03  -5.051E-03
 808  8.65824768   0.705  -1.19255   3.59130   6.97842   1.85809   0.00953   1.004E+00   1.000E-03  -5.034E-03
 809  8.65919211   0.705  -1.19254   3.59130   6.97840   1.85809   0.00949   1.004E+00   1.000E-03  -5.018E-03
 810  8.66013450   0.705  -1.19253   3.59130   6.97838   1.85808   0.00945   1.004E+00   1.000E-03  -5.001E-03
 811  8.66107484   0.705  -1.19253   3.59129   6.97837   1.85808   0.00942   1.004E+00   1.000E-03  -4.984E-03
 812  8.66201316   0.705  -1.19252   3.59129   6.97835   1.85807   0.00938   1.004E+00   1.000E-03  -4.967E-03
 813  8.66294945   0.705  -1.19251   3.59129   6.97834   1.85807   0.00934   1.004E+00   1.000E-03  -4.950E-03
 814  8.66388373   0.705  -1.19250   3.59129   6.97832   1.85806   0.00930   1.004E+00   1.000E-03  -4.933E-03
 815  8.66481600   0.705  -1.19250   3.59129   6.97830   1.85806   0.00926   1.004E+00   1.000E-03  -4.916E-03
 816  8.66574627   0.705  -1.19249   3.59129   6.97829   1.85805   0.00922   1.004E+00   1.000E-03  -4.899E-03
 817  8.66667456   0.705  -1.19248   3.59128   6.97827   1.85804   0.00918   1.004E+00   1.000E-03  -4.882E-03
 818  8.66760086   0.705  -1.19248   3.59128   6.97826   1.85804   0.00915   1.004E+00   1.000E-03  -4.865E-03
 819  8.66852520   0.705  -1.19247   3.59128   6.97824   1.85803   0.00911   1.004E+00   1.000E-03  -4.848E-03
 820  8.66944757   0.705  -1.19246   3.59128   6.97822   1.85803   0.00907   1.004E+00   1.000E-03  -4.831E-03
 821  8.67036799   0.705  -1.19245   3.59128   6.97821   1.85802   0.00903   1.004E+00   1.000E-03  -4.814E-03
 822  8.67128646   0.705  -1.19245   3.59128   6.97819   1.85802   0.00899   1.004E+00   1.000E-03  -4.797E-03
 823  8.67220299   0.705  -1.19244   3.59127   6.97818   1.85801   0.00895   1.004E+00   1.000E-03  -4.780E-03
 824  8.67311759   0.705  -1.19243   3.59127   6.97816   1.85801   0.00891   1.004E+00   1.000E-03  -4.763E-03
 825  8.67403027   0.705  -1.19243   3.59127   6.97814   1.85800   0.00887   1.004E+00   1.000E-03  -4.746E-03
 826  8.67494103   0.705  -1.19242   3.59127   6.97813   1.85800   0.00884   1.004E+00   1.000E-03  -4.729E-03
 827  8.67584989   0.705  -1.19241   3.59127   6.97811   1.85799   0.00880   1.004E+00   1.000E-03  -4.712E-03
 828  8.67675686   0.705  -1.19241   3.59127   6.97810   1.85798   0.00876   1.004E+00   1.000E-03  -4.695E-03
 829  8.67766193   0.705  -1.19240   3.59126   6.97808   1.85798   0.00872   1.004E+00   1.000E-03  -4.678E-03
 830  8.67856512   0.705  -1.19239   3.59126   6.97806   1.85797   0.00868   1.004E+00   1.000E-03  -4.661E-03
 831  8.67946643   0.705  -1.19238   3.59126   6.97805   1.85797   0.00864   1.004E+00   1.000E-03  -4.644E-03
 832  8.68036588   0.705  -1.19238   3.59126   6.97803   1.85796   0.00860   1.004E+00   1.000E-03  -4.627E-03
 833  8.68126347   0.705  -1.19237   3.59126   6.97802   1.85796   0.00857   1.004E+00   1.000E-03  -4.610E-03
 834  8.68215921   0.705  -1.19236   3.59126   6.97800   1.85795   0.00853   1.004E+00   1.000E-03  -4.593E-03
 835  8.68305310   0.705  -1.19236   3.59125   6.97798   1.85795   0.00849   1.004E+00   1.000E-03  -4.576E-03
 836  8.68394516   0.705  -1.19235   3.59125   6.97797   1.85794   0.00845   1.004E+00   1.000E-03  -4.559E-03
 837  8.68483539   0.705  -1.19234   3.59125   6.97795   1.85794   0.00841   1.004E+00   1.000E-03  -4.542E-03
 838  8.68572380   0.705  -1.19233   3.59125   6.97794   1.85793   0.00837   1.004E+00   1.000E-03  -4.525E-03
 839  8.68661039   0.705  -1.19233   3.59125   6.97792   1.85792   0.00833   1.004E+00   1.000E-03  -4.508E-03
 840  8.68749518   0.705  -1.19232   3.59124   6.97790   1.85792   0.00829   1.004E+00   1.000E-03  -4.491E-03
 841  8.68837817   0.705  -1.19231   3.59124   6.97789   1.85791   0.00826   1.004E+00   1.000E-03  -4.474E-03
 842  8.68925937   0.705  -1.19231   3.59124   6.97787   1.85791   0.00822   1.004E+00   1.000E-03  -4.457E-03
 843  8.69013878   0.705  -1.19230   3.59124   6.97786   1.85790   0.00818   1.004E+00   1.000E-03  -4.440E-03
 844  8.69101642   0.705  -1.19229   3.59124   6.97784   1.85790   0.00814   1.004E+00   1.000E-03  -4.423E-03
 845  8.69189228   0.705  -1.19229   3.59124   6.97782   1.85789   0.00810   1.004E+00   1.000E-03  -4.406E-03
 846  8.69276639   0.705  -1.19228   3.59123   6.97781   1.85789   0.00806   1.004E+00   1.000E-03  -4.389E-03
 847  8.69363873   0.705  -1.19227   3.59123   6.97779   1.85788   0.00802   1.004E+00   1.000E-03  -4.372E-03
 848  8.69450933   0.705  -1.19226   3.59123   6.97778   1.85788   0.00799   1.004E+00   1.000E-03  -4.355E-03
 849  8.69537819   0.705  -1.19226   3.59123   6.97776   1.85787   0.00795   1.004E+00   1.000E-03  -4.338E-03
 850  8.69624531   0.705  -1.19225   3.59123   6.97774   1.85786   0.00791   1.004E+00   1.000E-03  -4.321E-03
 851  8.69711071   0.705  -1.19224   3.59123   6.97773   1.85786   0.00787   1.004E+00   1.000E-03  -4.304E-03
 852  8.69797438   0.705  -1.19224   3.59122   6.97771   1.85785   0.00783   1.004E+00   1.000E-03  -4.288E-03
 853  8.69883634   0.705  -1.19223   3.59122   6.97770   1.85785   0.00779   1.004E+00   1.000E-03  -4.271E-03
 854  8.69969659   0.705  -1.19222   3.59122   6.97768   1.85784   0.00775   1.004E+00   1.000E-03  -4.254E-03
 855  8.70055515   0.705  -1.19221   3.59122   6.97766   1.85784   0.00772   1.004E+00   1.000E-03  -4.237E-03
 856  8.70141200   0.705  -1.19221   3.59122   6.97765   1.85783   0.00768   1.003E+00   1.000E-03  -4.220E-03
 857  8.70226717   0.704  -1.19220   3.59122   6.97763   1.85783   0.00764   1.003E+00   1.000E-03  -4.203E-03
 858  8.70312066   0.704  -1.19219   3.59121   6.97762   1.85782   0.00760   1.003E+00   1.000E-03  -4.186E-03
 859  8.70397248   0.704  -1.19219   3.59121   6.97760   1.85782   0.00756   1.003E+00   1.000E-03  -4.169E-03
 860  8.70482263   0.704  -1.19218   3.59121   6.97758   1.85781   0.00752   1.003E+00   1.000E-03  -4.152E-03
 861  8.70567112   0.704  -1.19217   3.59121   6.97757   1.85781   0.00748   1.003E+00   1.000E-03  -4.135E-03
 862  8.70651795   0.704  -1.19216   3.59121   6.97755   1.85780   0.00744   1.003E+00   1.000E-03  -4.118E-03
 863  8.70736313   0.704  -1.19216   3.59121   6.97754   1.85779   0.00741   1.003E+00   1.000E-03  -4.101E-03
 864  8.70820668   0.704  -1.19215   3.59120   6.97752   1.85779   0.00737   1.003E+00   1.000E-03  -4.084E-03
 865  8.70904858   0.704  -1.19214   3.59120   6.97750   1.85778   0.00733   1.003E+00   1.000E-03  -4.067E-03
 866  8.70988886   0.704  -1.19214   3.59120   6.97749   1.85778   0.00729   1.003E+00   1.000E-03  -4.050E-03
 867  8.71072752   0.704  -1.19213   3.59120   6.97747   1.85777   0.00725   1.003E+00   1.000E-03  -4.033E-03
 868  8.71156456   0.704  -1.19212   3.59120   6.97746   1.85777   0.00721   1.003E+00   1.000E-03  -4.016E-03
 869  8.71239999   0.704  -1.19212   3.59120   6.97744   1.85776   0.00717   1.003E+00   1.000E-03  -3.999E-03
 870  8.71323382   0.704  -1.19211   3.59119   6.97742   1.85776   0.00714   1.003E+00   1.000E-03  -3.982E-03
 871  8.71406604   0.704  -1.19210   3.59119   6.97741   1.85775   0.00710   1.003E+00   1.000E-03  -3.965E-03
 872  8.71489668   0.704  -1.19209   3.59119   6.97739   1.85775   0.00706   1.003E+00   1.000E-03  -3.948E-03
 873  8.71572573   0.704  -1.19209   3.59119   6.97737   1.85774   0.00702   1.003E+00   1.000E-03  -3.931E-03
 874  8.71655320   0.704  -1.19208   3.59119   6.97736   1.85773   0.00698   1.003E+00   1.000E-03  -3.914E-03
 875  8.71737910   0.704  -1.19207   3.59118   6.97734   1.85773   0.00694   1.003E+00   1.000E-03  -3.897E-03
 876  8.71820343   0.704  -1.19207   3.59118   6.97733   1.85772   0.00690   1.003E+00   1.000E-03  -3.880E-03
 877  8.71902620   0.704  -1.19206   3.59118   6.97731   1.85772   0.00687   1.003E+00   1.000E-03  -3.863E-03
 878  8.71984741   0.704  -1.19205   3.59118   6.97729   1.85771   0.00683   1.003E+00   1.000E-03  -3.846E-03
 879  8.72066707   0.704  -1.19204   3.59118   6.97728   1.85771   0.00679   1.003E+00   1.000E-03  -3.829E-03
 880  8.72148519   0.704  -1.19204   3.59118   6.97726   1.85770   0.00675   1.003E+00   1.000E-03  -3.812E-03
 881  8.72230177   0.704  -1.19203   3.59117   6.97725   1.85770   0.00671   1.003E+00   1.000E-03  -3.795E-03
 882  8.72311682   0.704  -1.19202   3.59117   6.97723   1.85769   0.00667   1.003E+00   1.000E-03  -3.778E-03
 883  8.72393034   0.704  -1.19202   3.59117   6.97721   1.85769   0.00663   1.003E+00   1.000E-03  -3.761E-03
 884  8.72474234   0.704  -1.19201   3.59117   6.97720   1.85768   0.00659   1.003E+00   1.000E-03  -3.744E-03
 885  8.72555282   0.704  -1.19200   3.59117   6.97718   1.85767   0.00656   1.003E+00   1.000E-03  -3.727E-03
 886  8.72636180   0.704  -1.19200   3.59117   6.97717   1.85767   0.00652   1.003E+00   1.000E-03  -3.710E-03
 887  8.72716927   0.704  -1.19199   3.59116   6.97715   1.85766   0.00648   1.003E+00   1.000E-03  -3.693E-03
 888  8.72797524   0.704  -1.19198   3.59116   6.97713   1.85766   0.00644   1.003E+00   1.000E-03  -3.676E-03
 889  8.72877972   0.704  -1.19197   3.59116   6.97712   1.85765   0.00640   1.003E+00   1.000E-03  -3.659E-03
 890  8.72958271   0.704  -1.19197   3.59116   6.97711   1.85765   0.00637   1.003E+00   1.000E-03  -3.647E-03
 891  8.73038422   0.704  -1.19196   3.59116   6.97710   1.85765   0.00635   1.003E+00   1.000E-03  -3.641E-03
 892  8.73118425   0.704  -1.19195   3.59116   6.97709   1.85765   0.00633   1.003E+00   1.000E-03  -3.635E-03
 893  8.73198282   0.704  -1.19195   3.59116   6.97708   1.85765   0.00631   1.003E+00   1.000E-03  -3.629E-03
 894  8.73277991   0.704  -1.19194   3.59116   6.97707   1.85764   0.00629   1.003E+00   1.000E-03  -3.622E-03
 895  8.73357555   0.704  -1.19194   3.59115   6.97706   1.85764   0.00627   1.003E+00   1.000E-03  -3.616E-03
 896  8.73436973   0.704  -1.19193   3.59115   6.97705   1.85764   0.00625   1.003E+00   1.000E-03  -3.610E-03
 897  8.73516246   0.704  -1.19192   3.59115   6.97704   1.85764   0.00623   1.003E+00   1.000E-03  -3.604E-03
 898  8.73595375   0.704  -1.19192   3.59115   6.97703   1.85764   0.00621   1.003E+00   1.000E-03  -3.598E-03
 899  8.73674360   0.704  -1.19191   3.59115   6.97702   1.85764   0.00619   1.003E+00   1.000E-03  -3.591E-03
 900  8.73753201   0.704  -1.19190   3.59115   6.97701   1.85764   0.00617   1.003E+00   1.000E-03  -3.585E-03
 901  8.73831900   0.704  -1.19190   3.59115   6.97700   1.85764   0.00615   1.003E+00   1.000E-03  -3.579E-03
 902  8.73910456   0.704  -1.19189   3.59115   6.97699   1.85763   0.00613   1.003E+00   1.000E-03  -3.573E-03
 903  8.73988870   0.704  -1.19188   3.59115   6.97698   1.85763   0.00611   1.003E+00   1.000E-03  -3.567E-03
 904  8.74067143   0.704  -1.19188   3.59115   6.97697   1.85763   0.00609   1.003E+00   1.000E-03  -3.560E-03
 905  8.74145276   0.704  -1.19187   3.59115   6.97696   1.85763   0.00607   1.003E+00   1.000E-03  -3.554E-03
 906  8.74223267   0.704  -1.19186   3.59114   6.97695   1.85763   0.00605   1.003E+00   1.000E-03  -3.548E-03
 907  8.74301120   0.704  -1.19186   3.59114   6.97694   1.85763   0.00603   1.003E+00   1.000E-03  -3.542E-03
 908  8.74378832   0.704  -1.19185   3.59114   6.97693   1.85763   0.00601   1.003E+00   1.000E-03  -3.536E-03
 909  8.74456406   0.704  -1.19185   3.59114   6.97692   1.85763   0.00599   1.003E+00   1.000E-03  -3.529E-03
 910  8.74533842   0.704  -1.19184   3.59114   6.97691   1.85762   0.00597   1.003E+00   1.000E-03  -3.523E-03
 911  8.74611140   0.704  -1.19183   3.59114   6.97690   1.85762   0.00596   1.003E+00   1.000E-03  -3.517E-03
 912  8.74688300   0.704  -1.19183   3.59114   6.97689   1.85762   0.00594   1.003E+00   1.000E-03  -3.511E-03
 913  8.74765324   0.704  -1.19182   3.59114   6.97688   1.85762   0.00592   1.003E+00   1.000E-03  -3.504E-03
 914  8.74842211   0.704  -1.19181   3.59114   6.97687   1.85762   0.00590   1.003E+00   1.000E-03  -3.498E-03
 915  8.74918963   0.704  -1.19181   3.59114   6.97686   1.85762   0.00588   1.003E+00   1.000E-03  -3.492E-03
 916  8.74995579   0.704  -1.19180   3.59114   6.97685   1.85762   0.00586   1.003E+00   1.000E-03  -3.486E-03
 917  8.75072060   0.704  -1.19179   3.59113   6.97684   1.85762   0.00584   1.003E+00   1.000E-03  -3.480E-03
 918  8.75148406   0.704  -1.19179   3.59113   6.97683   1.85761   0.00582   1.003E+00   1.000E-03  -3.473E-03
 919  8.75224619   0.704  -1.19178   3.59113   6.97682   1.85761   0.00580   1.003E+00   1.000E-03  -3.467E-03
 920  8.75300698   0.704  -1.19178   3.59113   6.97681   1.85761   0.00578   1.003E+00   1.000E-03  -3.461E-03
 921  8.75376644   0.704  -1.19177   3.59113   6.97680   1.85761   0.00576   1.003E+00   1.000E-03  -3.455E-03
 922  8.75452458   0.704  -1.19176   3.59113   6.97679   1.85761   0.00574   1.003E+00   1.000E-03  -3.449E-03
 923  8.75528139   0.704  -1.19176   3.59113   6.97678   1.85761   0.00572   1.003E+00   1.000E-03  -3.442E-03
 924  8.75603689   0.704  -1.19175   3.59113   6.97677   1.85761   0.00570   1.003E+00   1.000E-03  -3.436E-03
 925  8.75679108   0.704  -1.19174   3.59113   6.97676   1.85761   0.00568   1.003E+00   1.000E-03  -3.430E-03
 926  8.75754395   0.704  -1.19174   3.59113   6.97675   1.85760   0.00566   1.003E+00   1.000E-03  -3.424E-03
 927  8.75829553   0.704  -1.19173   3.59112   6.97674   1.85760   0.00564   1.003E+00   1.000E-03  -3.418E-03
 928  8.75904581   0.704  -1.19172   3.59112   6.97673   1.85760   0.00562   1.003E+00   1.000E-03  -3.411E-03
 929  8.75979479   0.704  -1.19172   3.59112   6.97672   1.85760   0.00560   1.003E+00   1.000E-03  -3.405E-03
 930  8.76054248   0.704  -1.19171   3.59112   6.97671   1.85760   0.00558   1.003E+00   1.000E-03  -3.399E-03
 931  8.76128889   0.704  -1.19170   3.59112   6.97670   1.85760   0.00556   1.003E+00   1.000E-03  -3.393E-03
 932  8.76203402   0.703  -1.19170   3.59112   6.97669   1.85760   0.00554   1.003E+00   1.000E-03  -3.387E-03
 933  8.76277787   0.703  -1.19169   3.59112   6.97668   1.85760   0.00552   1.003E+00   1.000E-03  -3.380E-03
 934  8.76352045   0.703  -1.19169   3.59112   6.97667   1.85759   0.00550   1.003E+00   1.000E-03  -3.374E-03
 935  8.76426176   0.703  -1.19168   3.59112   6.97666   1.85759   0.00548   1.003E+00   1.000E-03  -3.368E-03
 936  8.76500181   0.703  -1.19167   3.59112   6.97665   1.85759   0.00546   1.003E+00   1.000E-03  -3.362E-03
 937  8.76574060   0.703  -1.19167   3.59112   6.97664   1.85759   0.00544   1.003E+00   1.000E-03  -3.356E-03
 938  8.76647814   0.703  -1.19166   3.59111   6.97663   1.85759   0.00542   1.003E+00   1.000E-03  -3.349E-03
 939  8.76721442   0.703  -1.19165   3.59111   6.97662   1.85759   0.00540   1.003E+00   1.000E-03  -3.343E-03
 940  8.76794946   0.703  -1.19165   3.59111   6.97661   1.85759   0.00538   1.003E+00   1.000E-03  -3.337E-03
 941  8.76868326   0.703  -1.19164   3.59111   6.97660   1.85759   0.00536   1.003E+00   1.000E-03  -3.331E-03
 942  8.76941582   0.703  -1.19163   3.59111   6.97659   1.85758   0.00534   1.003E+00   1.000E-03  -3.325E-03
 943  8.77014714   0.703  -1.19163   3.59111   6.97658   1.85758   0.00532   1.003E+00   1.000E-03  -3.318E-03
 944  8.77087724   0.703  -1.19162   3.59111   6.97657   1.85758   0.00530   1.003E+00   1.000E-03  -3.312E-03
 945  8.77160611   0.703  -1.19161   3.59111   6.97656   1.85758   0.00528   1.003E+00   1.000E-03  -3.306E-03
 946  8.77233376   0.703  -1.19161   3.59111   6.97655   1.85758   0.00526   1.003E+00   1.000E-03  -3.300E-03
 947  8.77306019   0.703  -1.19160   3.59111   6.97654   1.85758   0.00524   1.003E+00   1.000E-03  -3.294E-03
 948  8.77378541   0.703  -1.19160   3.59110   6.97653   1.85758   0.00522   1.003E+00   1.000E-03  -3.287E-03
 949  8.77450942   0.703  -1.19159   3.59110   6.97652   1.85758   0.00520   1.003E+00   1.000E-03  -3.281E-03
 950  8.77523223   0.703  -1.19158   3.59110   6.97651   1.85757   0.00518   1.003E+00   1.000E-03  -3.275E-03
 951  8.77595383   0.703  -1.19158   3.59110   6.97650   1.85757   0.00516   1.003E+00   1.000E-03  -3.269E-03
 952  8.77667424   0.703  -1.19157   3.59110   6.97649   1.85757   0.00514   1.003E+00   1.000E-03  -3.263E-03
 953  8.77739346   0.703  -1.19156   3.59110   6.97648   1.85757   0.00512   1.003E+00   1.000E-03  -3.256E-03
 954  8.77811148   0.703  -1.19156   3.59110   6.97647   1.85757   0.00510   1.003E+00   1.000E-03  -3.250E-03
 955  8.77882832   0.703  -1.19155   3.59110   6.97646   1.85757   0.00508   1.003E+00   1.000E-03  -3.244E-03
 956  8.77954398   0.703  -1.19154   3.59110   6.97645   1.85757   0.00506   1.003E+00   1.000E-03  -3.238E-03
 957  8.78025846   0.703  -1.19154   3.59110   6.97644   1.85757   0.00504   1.003E+00   1.000E-03  -3.231E-03
 958  8.78097177   0.703  -1.19153   3.59110   6.97643   1.85757   0.00502   1.003E+00   1.000E-03  -3.225E-03
 959  8.78168391   0.703  -1.19153   3.59109   6.97642   1.85756   0.00500   1.003E+00   1.000E-03  -3.219E-03
 960  8.78239488   0.703  -1.19152   3.59109   6.97641   1.85756   0.00498   1.003E+00   1.000E-03  -3.213E-03
 961  8.78310469   0.703  -1.19151   3.59109   6.97640   1.85756   0.00496   1.003E+00   1.000E-03  -3.207E-03
 962  8.78381334   0.703  -1.19151   3.59109   6.97639   1.85756   0.00495   1.003E+00   1.000E-03  -3.200E-03
 963  8.78452084   0.703  -1.19150   3.59109   6.97638   1.85756   0.00493   1.003E+00   1.000E-03  -3.194E-03
 964  8.78522719   0.703  -1.19149   3.59109   6.97637   1.85756   0.00491   1.003E+00   1.000E-03  -3.188E-03
 965  8.78593239   0.703  -1.19149   3.59109   6.97636   1.85756   0.00489   1.003E+00   1.000E-03  -3.182E-03
 966  8.78663645   0.703  -1.19148   3.59109   6.97635   1.85756   0.00487   1.003E+00   1.000E-03  -3.176E-03
 967  8.78733936   0.703  -1.19147   3.59109   6.97634   1.85755   0.00485   1.003E+00   1.000E-03  -3.169E-03
 968  8.78804115   0.703  -1.19147   3.59109   6.97633   1.85755   0.00483   1.003E+00   1.000E-03  -3.163E-03
 969  8.78874180   0.703  -1.19146   3.59109   6.97632   1.85755   0.00481   1.003E+00   1.000E-03  -3.157E-03
 970  8.78944132   0.703  -1.19145   3.59108   6.97631   1.85755   0.00479   1.003E+00   1.000E-03  -3.151E-03
 971  8.79013971   0.703  -1.19145   3.59108   6.97630   1.85755   0.00477   1.003E+00   1.000E-03  -3.145E-03
 972  8.79083699   0.703  -1.19144   3.59108   6.97629   1.85755   0.00475   1.003E+00   1.000E-03  -3.138E-03
 973  8.79153314   0.703  -1.19144   3.59108   6.97628   1.85755   0.00473   1.003E+00   1.000E-03  -3.132E-03
 974  8.79222819   0.703  -1.19143   3.59108   6.97627   1.85755   0.00471   1.003E+00   1.000E-03  -3.126E-03
 975  8.79292212   0.703  -1.19142   3.59108   6.97626   1.85754   0.00469   1.003E+00   1.000E-03  -3.120E-03
 976  8.79361494   0.703  -1.19142   3.59108   6.97625   1.85754   0.00467   1.003E+00   1.000E-03  -3.114E-03
 977  8.79430667   0.703  -1.19141   3.59108   6.97624   1.85754   0.00465   1.003E+00   1.000E-03  -3.107E-03
 978  8.79499729   0.703  -1.19140   3.59108   6.97623   1.85754   0.00463   1.003E+00   1.000E-03  -3.101E-03
 979  8.79568681   0.703  -1.19140   3.59108   6.97622   1.85754   0.00461   1.003E+00   1.000E-03  -3.095E-03
 980  8.79637525   0.703  -1.19139   3.59107   6.97621   1.85754   0.00459   1.003E+00   1.000E-03  -3.089E-03
 981  8.79706259   0.703  -1.19138   3.59107   6.97620   1.85754   0.00457   1.003E+00   1.000E-03  -3.083E-03
 982  8.79774885   0.703  -1.19138   3.59107   6.97619   1.85754   0.00455   1.003E+00   1.000E-03  -3.076E-03
 983  8.79843402   0.703  -1.19137   3.59107   6.97618   1.85753   0.00453   1.003E+00   1.000E-03  -3.070E-03
 984  8.79911811   0.703  -1.19137   3.59107   6.97617   1.85753   0.00451   1.003E+00   1.000E-03  -3.064E-03
 985  8.79980113   0.703  -1.19136   3.59107   6.97616   1.85753   0.00449   1.003E+00   1.000E-03  -3.058E-03
 986  8.80048308   0.703  -1.19135   3.59107   6.97615   1.85753   0.00447   1.003E+00   1.000E-03  -3.052E-03
 987  8.80116396   0.703  -1.19135   3.59107   6.97614   1.85753   0.00445   1.003E+00   1.000E-03  -3.045E-03
 988  8.80184377   0.703  -1.19134   3.59107   6.97613   1.85753   0.00443   1.003E+00   1.000E-03  -3.039E-03
 989  8.80252252   0.703  -1.19133   3.59107   6.97612   1.85753   0.00441   1.003E+00   1.000E-03  -3.033E-03
 990  8.80320021   0.703  -1.19133   3.59107   6.97611   1.85753   0.00439   1.003E+00   1.000E-03  -3.027E-03
 991  8.80387684   0.703  -1.19132   3.59106   6.97610   1.85752   0.00437   1.002E+00   1.000E-03  -3.021E-03
 992  8.80455242   0.703  -1.19131   3.59106   6.97609   1.85752   0.00435   1.002E+00   1.000E-03  -3.014E-03
 993  8.80522695   0.703  -1.19131   3.59106   6.97608   1.85752   0.00433   1.002E+00   1.000E-03  -3.008E-03
 994  8.80590044   0.703  -1.19130   3.59106   6.97607   1.85752   0.00431   1.002E+00   1.000E-03  -3.002E-03
 995  8.80657288   0.703  -1.19129   3.59106   6.97606   1.85752   0.00429   1.002E+00   1.000E-03  -2.996E-03
 996  8.80724429   0.703  -1.19129   3.59106   6.97605   1.85752   0.00427   1.002E+00   1.000E-03  -2.989E-03
 997  8.80791465   0.703  -1.19128   3.59106   6.97604   1.85752   0.00425   1.002E+00   1.000E-03  -2.983E-03
 998  8.80858399   0.703  -1.19128   3.59106   6.97603   1.85752   0.00423   1.002E+00   1.000E-03  -2.977E-03
 999  8.80925229   0.703  -1.19127   3.59106   6.97602   1.85751   0.00421   1.002E+00   1.000E-03  -2.971E-03
1000  8.80991957   0.703  -1.19126   3.59106   6.97601   1.85751   0.00419   1.002E+00   1.000E-03  -2.965E-03
1001  8.81058582   0.703  -1.19126   3.59105   6.97600   1.85751   0.00417   1.002E+00   1.000E-03  -2.958E-03
1002  8.81125106   0.703  -1.19125   3.59105   6.97599   1.85751   0.00415   1.002E+00   1.000E-03  -2.952E-03
1003  8.81191527   0.703  -1.19124   3.59105   6.97598   1.85751   0.00413   1.002E+00   1.000E-03  -2.946E-03
1004  8.81257847   0.703  -1.19124   3.59105   6.97597   1.85751   0.00411   1.002E+00   1.000E-03  -2.940E-03
1005  8.81324066   0.702  -1.19123   3.59105   6.97596   1.85751   0.00409   1.002E+00   1.000E-03  -2.934E-03
1006  8.81390185   0.702  -1.19122   3.59105   6.97595   1.85751   0.00407   1.002E+00   1.000E-03  -2.927E-03
1007  8.81456202   0.702  -1.19122   3.59105   6.97594   1.85750   0.00405   1.002E+00   1.000E-03  -2.921E-03
1008  8.81522120   0.702  -1.19121   3.59105   6.97593   1.85750   0.00403   1.002E+00   1.000E-03  -2.915E-03
1009  8.81587937   0.702  -1.19121   3.59105   6.97592   1.85750   0.00401   1.002E+00   1.000E-03  -2.909E-03
1010  8.81653655   0.702  -1.19120   3.59105   6.97591   1.85750   0.00399   1.002E+00   1.000E-03  -2.903E-03
1011  8.81719274   0.702  -1.19119   3.59105   6.97590   1.85750   0.00397   1.002E+00   1.000E-03  -2.896E-03
1012  8.81784794   0.702  -1.19119   3.59104   6.97589   1.85750   0.00395   1.002E+00   1.000E-03  -2.890E-03
1013  8.81850215   0.702  -1.19118   3.59104   6.97588   1.85750   0.00393   1.002E+00   1.000E-03  -2.884E-03
1014  8.81915537   0.702  -1.19117   3.59104   6.97587   1.85750   0.00392   1.002E+00   1.000E-03  -2.878E-03
1015  8.81980762   0.702  -1.19117   3.59104   6.97586   1.85749   0.00390   1.002E+00   1.000E-03  -2.872E-03
1016  8.82045889   0.702  -1.19116   3.59104   6.97585   1.85749   0.00388   1.002E+00   1.000E-03  -2.865E-03
1017  8.82110918   0.702  -1.19115   3.59104   6.97584   1.85749   0.00386   1.002E+00   1.000E-03  -2.859E-03
1018  8.82175850   0.702  -1.19115   3.59104   6.97583   1.85749   0.00384   1.002E+00   1.000E-03  -2.853E-03
1019  8.82240685   0.702  -1.19114   3.59104   6.97582   1.85749   0.00382   1.002E+00   1.000E-03  -2.847E-03
1020  8.82305423   0.702  -1.19113   3.59104   6.97581   1.85749   0.00380   1.002E+00   1.000E-03  -2.841E-03
1021  8.82370065   0.702  -1.19113   3.59104   6.97580   1.85749   0.00378   1.002E+00   1.000E-03  -2.834E-03
1022  8.82434611   0.702  -1.19112   3.59104   6.97579   1.85749   0.00376   1.002E+00   1.000E-03  -2.828E-03
1023  8.82499061   0.702  -1.19112   3.59103   6.97578   1.85748   0.00374   1.002E+00   1.000E-03  -2.822E-03
1024  8.82563416   0.702  -1.19111   3.59103   6.97577   1.85748   0.00372   1.002E+00   1.000E-03  -2.816E-03
1025  8.82627675   0.702  -1.19110   3.59103   6.97576   1.85748   0.00370   1.002E+00   1.000E-03  -2.810E-03
1026  8.82691840   0.702  -1.19110   3.59103   6.97575   1.85748   0.00368   1.002E+00   1.000E-03  -2.803E-03
1027  8.82755910   0.702  -1.19109   3.59103   6.97574   1.85748   0.00366   1.002E+00   1.000E-03  -2.797E-03
1028  8.82819885   0.702  -1.19108   3.59103   6.97573   1.85748   0.00364   1.002E+00   1.000E-03  -2.791E-03
1029  8.82883766   0.702  -1.19108   3.59103   6.97572   1.85748   0.00362   1.002E+00   1.000E-03  -2.785E-03
1030  8.82947554   0.702  -1.19107   3.59103   6.97571   1.85748   0.00360   1.002E+00   1.000E-03  -2.779E-03
1031  8.83011248   0.702  -1.19106   3.59103   6.97570   1.85747   0.00358   1.002E+00   1.000E-03  -2.772E-03
1032  8.83074848   0.702  -1.19106   3.59103   6.97569   1.85747   0.00356   1.002E+00   1.000E-03  -2.766E-03
1033  8.83138356   0.702  -1.19105   3.59102   6.97568   1.85747   0.00354   1.002E+00   1.000E-03  -2.760E-03
1034  8.83201771   0.702  -1.19105   3.59102   6.97567   1.85747   0.00352   1.002E+00   1.000E-03  -2.754E-03
1035  8.83265094   0.702  -1.19104   3.59102   6.97566   1.85747   0.00350   1.002E+00   1.000E-03  -2.747E-03
1036  8.83328324   0.702  -1.19103   3.59102   6.97565   1.85747   0.00348   1.002E+00   1.000E-03  -2.741E-03
1037  8.83391462   0.702  -1.19103   3.59102   6.97564   1.85747   0.00346   1.002E+00   1.000E-03  -2.735E-03
1038  8.83454509   0.702  -1.19102   3.59102   6.97563   1.85747   0.00344   1.002E+00   1.000E-03  -2.729E-03
1039  8.83517464   0.702  -1.19101   3.59102   6.97562   1.85746   0.00342   1.002E+00   1.000E-03  -2.723E-03
1040  8.83580328   0.702  -1.19101   3.59102   6.97561   1.85746   0.00340   1.002E+00   1.000E-03  -2.716E-03
1041  8.83643102   0.702  -1.19100   3.59102   6.97560   1.85746   0.00338   1.002E+00   1.000E-03  -2.710E-03
1042  8.83705785   0.702  -1.19099   3.59102   6.97559   1.85746   0.00336   1.002E+00   1.000E-03  -2.704E-03
1043  8.83768377   0.702  -1.19099   3.59102   6.97558   1.85746   0.00334   1.002E+00   1.000E-03  -2.698E-03
1044  8.83830879   0.702  -1.19098   3.59101   6.97557   1.85746   0.00332   1.002E+00   1.000E-03  -2.692E-03
1045  8.83893292   0.702  -1.19097   3.59101   6.97556   1.85746   0.00330   1.002E+00   1.000E-03  -2.685E-03
1046  8.83955615   0.702  -1.19097   3.59101   6.97555   1.85746   0.00328   1.002E+00   1.000E-03  -2.679E-03
1047  8.84017848   0.702  -1.19096   3.59101   6.97554   1.85745   0.00326   1.002E+00   1.000E-03  -2.673E-03
1048  8.84079993   0.702  -1.19096   3.59101   6.97553   1.85745   0.00324   1.002E+00   1.000E-03  -2.667E-03
1049  8.84142049   0.702  -1.19095   3.59101   6.97552   1.85745   0.00322   1.002E+00   1.000E-03  -2.661E-03
1050  8.84204016   0.702  -1.19094   3.59101   6.97551   1.85745   0.00320   1.002E+00   1.000E-03  -2.654E-03
1051  8.84265895   0.702  -1.19094   3.59101   6.97550   1.85745   0.00318   1.002E+00   1.000E-03  -2.648E-03
1052  8.84327686   0.702  -1.19093   3.59101   6.97549   1.85745   0.00316   1.002E+00   1.000E-03  -2.642E-03
1053  8.84389389   0.702  -1.19092   3.59101   6.97548   1.85745   0.00314   1.002E+00   1.000E-03  -2.636E-03
1054  8.84451004   0.702  -1.19092   3.59100   6.97547   1.85745   0.00312   1.002E+00   1.000E-03  -2.630E-03
1055  8.84512532   0.702  -1.19091   3.59100   6.97546   1.85744   0.00310   1.002E+00   1.000E-03  -2.623E-03
1056  8.84573974   0.702  -1.19090   3.59100   6.97545   1.85744   0.00308   1.002E+00   1.000E-03  -2.617E-03
1057  8.84635328   0.702  -1.19090   3.59100   6.97544   1.85744   0.00306   1.002E+00   1.000E-03  -2.611E-03
1058  8.84696596   0.702  -1.19089   3.59100   6.97543   1.85744   0.00304   1.002E+00   1.000E-03  -2.605E-03
1059  8.84757777   0.702  -1.19088   3.59100   6.97542   1.85744   0.00302   1.002E+00   1.000E-03  -2.599E-03
1060  8.84818873   0.702  -1.19088   3.59100   6.97541   1.85744   0.00300   1.002E+00   1.000E-03  -2.592E-03
1061  8.84879883   0.702  -1.19087   3.59100   6.97540   1.85744   0.00298   1.002E+00   1.000E-03  -2.586E-03
1062  8.84940807   0.702  -1.19087   3.59100   6.97539   1.85744   0.00296   1.002E+00   1.000E-03  -2.580E-03
1063  8.85001645   0.702  -1.19086   3.59100   6.97538   1.85743   0.00294   1.002E+00   1.000E-03  -2.574E-03
1064  8.85062399   0.702  -1.19085   3.59100   6.97537   1.85743   0.00292   1.002E+00   1.000E-03  -2.568E-03
1065  8.85123068   0.702  -1.19085   3.59099   6.97536   1.85743   0.00290   1.002E+00   1.000E-03  -2.561E-03
1066  8.85183652   0.702  -1.19084   3.59099   6.97535   1.85743   0.00289   1.002E+00   1.000E-03  -2.555E-03
1067  8.85244151   0.702  -1.19083   3.59099   6.97534   1.85743   0.00287   1.002E+00   1.000E-03  -2.549E-03
1068  8.85304567   0.702  -1.19083   3.59099   6.97533   1.85743   0.00285   1.002E+00   1.000E-03  -2.543E-03
1069  8.85364899   0.702  -1.19082   3.59099   6.97532   1.85743   0.00283   1.002E+00   1.000E-03  -2.537E-03
1070  8.85425147   0.702  -1.19081   3.59099   6.97531   1.85743   0.00281   1.002E+00   1.000E-03  -2.530E-03
1071  8.85485311   0.702  -1.19081   3.59099   6.97530   1.85742   0.00279   1.002E+00   1.000E-03  -2.524E-03
1072  8.85545392   0.702  -1.19080   3.59099   6.97529   1.85742   0.00277   1.002E+00   1.000E-03  -2.518E-03
1073  8.85605390   0.702  -1.19080   3.59099   6.97528   1.85742   0.00275   1.002E+00   1.000E-03  -2.512E-03
1074  8.85665306   0.702  -1.19079   3.59099   6.97527   1.85742   0.00273   1.002E+00   1.000E-03  -2.505E-03
1075  8.85725139   0.702  -1.19078   3.59099   6.97526   1.85742   0.00271   1.002E+00   1.000E-03  -2.499E-03
1076  8.85784889   0.702  -1.19078   3.59098   6.97525   1.85742   0.00269   1.002E+00   1.000E-03  -2.493E-03
1077  8.85844558   0.702  -1.19077   3.59098   6.97524   1.85742   0.00267   1.002E+00   1.000E-03  -2.487E-03
1078  8.85904145   0.701  -1.19076   3.59098   6.97523   1.85742   0.00265   1.002E+00   1.000E-03  -2.481E-03
1079  8.85963650   0.701  -1.19076   3.59098   6.97522   1.85741   0.00263   1.002E+00   1.000E-03  -2.474E-03
1080  8.86023073   0.701  -1.19075   3.59098   6.97521   1.85741   0.00261   1.002E+00   1.000E-03  -2.468E-03
1081  8.86082415   0.701  -1.19074   3.59098   6.97520   1.85741   0.00259   1.002E+00   1.000E-03  -2.462E-03
1082  8.86141677   0.701  -1.19074   3.59098   6.97519   1.85741   0.00257   1.002E+00   1.000E-03  -2.456E-03
1083  8.86200857   0.701  -1.19073   3.59098   6.97518   1.85741   0.00255   1.002E+00   1.000E-03  -2.450E-03
1084  8.86259958   0.701  -1.19072   3.59098   6.97517   1.85741   0.00253   1.002E+00   1.000E-03  -2.443E-03
1085  8.86318977   0.701  -1.19072   3.59098   6.97516   1.85741   0.00251   1.002E+00   1.000E-03  -2.437E-03
1086  8.86377917   0.701  -1.19071   3.59097   6.97515   1.85741   0.00249   1.002E+00   1.000E-03  -2.431E-03
1087  8.86436777   0.701  -1.19071   3.59097   6.97514   1.85740   0.00247   1.002E+00   1.000E-03  -2.425E-03
1088  8.86495557   0.701  -1.19070   3.59097   6.97513   1.85740   0.00245   1.002E+00   1.000E-03  -2.419E-03
1089  8.86554258   0.701  -1.19069   3.59097   6.97512   1.85740   0.00243   1.002E+00   1.000E-03  -2.412E-03
1090  8.86612879   0.701  -1.19069   3.59097   6.97511   1.85740   0.00241   1.002E+00   1.000E-03  -2.406E-03
1091  8.86671422   0.701  -1.19068   3.59097   6.97510   1.85740   0.00239   1.002E+00   1.000E-03  -2.400E-03
1092  9.09159423   0.694  -1.18801   3.59072   6.97266   1.85729   0.00000   1.001E+00   5.046E-04  -1.144E-03
1093  9.23901493   0.687  -1.18518   3.59075   6.97210   1.85924   0.00000   1.000E+00   0.000E+00  -5.167E-04
1094  9.34887588   0.680  -1.18238   3.59089   6.97216   1.86233   0.00000   1.000E+00   0.000E+00  -2.496E-04
1095  9.43648139   0.673  -1.17961   3.59108   6.97251   1.86591   0.00000   1.000E+00   0.000E+00  -9.864E-05
1096  9.50934701   0.665  -1.17690   3.59128   6.97303   1.86980   0.00000   1.000E+00   0.000E+00  -3.682E-06
1097  9.57172573   0.658  -1.17422   3.59151   6.97367   1.87384   0.00000   9.990E-01   0.000E+00   6.461E-05
1098  9.62625982   0.650  -1.17156   3.59175   6.97439   1.87800   0.00000   9.990E-01   0.000E+00   1.169E-04
1099  9.67470373   0.643  -1.16894   3.59200   6.97517   1.88220   0.00000   9.990E-01   9.628E-04   1.594E-04
1100  9.71828210   0.636  -1.16633   3.59224   6.97599   1.88644   0.00000   9.990E-01   1.000E-03   1.954E-04
1101  9.75788371   0.628  -1.16374   3.59250   6.97684   1.89072   0.00000   9.990E-01   1.000E-03   2.264E-04
1102  9.79417403   0.621  -1.16115   3.59275   6.97772   1.89500   0.00000   9.990E-01   1.000E-03   2.549E-04
1103  9.82766436   0.614  -1.15858   3.59300   6.97862   1.89929   0.00000   9.990E-01   1.000E-03   2.814E-04
1104  9.85875597   0.607  -1.15601   3.59327   6.97954   1.90361   0.00000   9.990E-01   1.000E-03   3.060E-04
1105  9.88776963   0.600  -1.15344   3.59353   6.98049   1.90794   0.00000   9.990E-01   1.000E-03   3.293E-04
1106  9.91496578   0.593  -1.15086   3.59380   6.98147   1.91308   0.00000   9.990E-01   1.000E-03   3.480E-04
1107  9.94055877   0.586  -1.14829   3.59407   6.98251   1.91827   0.00000   9.990E-01   1.000E-03   3.656E-04
1108  9.96472712   0.580  -1.14569   3.59434   6.98361   1.92348   0.00000   9.990E-01   1.000E-03   3.799E-04
1109  9.98762113   0.573  -1.14310   3.59461   6.98473   1.92871   0.00000   9.990E-01   1.000E-03   3.955E-04
1110 10.00936846   0.566  -1.14047   3.59488   6.98589   1.93393   0.00000   9.990E-01   1.000E-03   4.105E-04
1111 10.03007852   0.559  -1.13784   3.59515   6.98708   1.93919   0.00000   9.990E-01   1.000E-03   4.244E-04
1112 10.04984578   0.552  -1.13518   3.59542   6.98829   1.94447   0.00000   9.990E-01   1.000E-03   4.390E-04
1113 10.06875235   0.545  -1.13250   3.59570   6.98951   1.94977   0.00000   9.990E-01   1.000E-03   4.534E-04
1114 10.08687007   0.538  -1.12980   3.59597   6.99075   1.95511   0.00000   9.990E-01   1.000E-03   4.688E-04
1115 10.10426213   0.531  -1.12707   3.59626   6.99199   1.96047   0.00000   9.990E-01   1.000E-03   4.843E-04
1116 10.12098443   0.524  -1.12433   3.59654   6.99327   1.96584   0.00000   9.990E-01   1.000E-03   4.993E-04
1117 10.13708664   0.517  -1.12155   3.59683   6.99454   1.97125   0.00000   9.990E-01   1.000E-03   5.172E-04
1118 10.15261313   0.510  -1.11874   3.59711   6.99582   1.97669   0.00000   9.990E-01   1.000E-03   5.336E-04
1119 10.16760363   0.503  -1.11591   3.59740   6.99712   1.98215   0.00000   9.990E-01   1.000E-03   5.492E-04
1120 10.18209392   0.496  -1.11305   3.59770   6.99843   1.98765   0.00000   9.990E-01   1.000E-03   5.652E-04
1121 10.19611632   0.489  -1.11017   3.59799   6.99975   1.99312   0.00000   9.990E-01   1.000E-03   5.793E-04
1122 10.20970008   0.482  -1.10726   3.59830   7.00107   1.99857   0.00000   9.980E-01   1.000E-03   5.961E-04
1123 10.22287183   0.476  -1.10433   3.59860   7.00240   2.00399   0.00000   9.980E-01   1.000E-03   6.120E-04
1124 10.23565583   0.469  -1.10137   3.59891   7.00373   2.00947   0.00000   9.980E-01   1.000E-03   6.267E-04
1125 10.24807425   0.462  -1.09839   3.59922   7.00507   2.01495   0.00000   9.980E-01   1.000E-03   6.432E-04
1126 10.26014742   0.456  -1.09538   3.59954   7.00643   2.02053   0.00000   9.980E-01   1.000E-03   6.603E-04
1127 10.27189402   0.449  -1.09234   3.59986   7.00779   2.02613   0.00000   9.980E-01   1.000E-03   6.770E-04
1128 10.28333125   0.442  -1.08927   3.60018   7.00915   2.03181   0.00000   9.980E-01   1.000E-03   6.936E-04
1129 10.29447499   0.436  -1.08617   3.60052   7.01052   2.03750   0.00000   9.980E-01   1.000E-03   7.101E-04
1130 10.30533993   0.429  -1.08304   3.60085   7.01191   2.04328   0.00000   9.980E-01   1.000E-03   7.273E-04
1131 10.31593968   0.422  -1.07988   3.60119   7.01329   2.04906   0.00000   9.980E-01   1.000E-03   7.427E-04
1132 10.32628687   0.416  -1.07668   3.60153   7.01468   2.05493   0.00000   9.980E-01   1.000E-03   7.585E-04
1133 10.33639327   0.409  -1.07346   3.60188   7.01609   2.06079   0.00000   9.980E-01   1.000E-03   7.744E-04
1134 10.34626981   0.402  -1.07022   3.60224   7.01750   2.06672   0.00000   9.980E-01   1.000E-03   7.884E-04
1135 10.35592674   0.396  -1.06694   3.60260   7.01895   2.07340   0.00000   9.980E-01   1.000E-03   8.020E-04
1136 10.36537360   0.389  -1.06364   3.60296   7.02046   2.08053   0.00000   9.980E-01   1.000E-03   8.133E-04
1137 10.37461933   0.383  -1.06031   3.60333   7.02200   2.08777   0.00000   9.980E-01   1.000E-03   8.286E-04
1138 10.38367233   0.376  -1.05694   3.60369   7.02358   2.09502   0.00000   9.980E-01   1.000E-03   8.421E-04
1139 10.39254046   0.370  -1.05353   3.60407   7.02519   2.10235   0.00000   9.980E-01   1.000E-03   8.556E-04
1140 10.40123113   0.363  -1.05009   3.60445   7.02685   2.10972   0.00000   9.980E-01   1.000E-03   8.689E-04
1141 10.40975129   0.356  -1.04660   3.60484   7.02852   2.11716   0.00000   9.980E-01   1.000E-03   8.821E-04
1142 10.41810752   0.350  -1.04307   3.60523   7.03023   2.12463   0.00000   9.980E-01   1.000E-03   8.933E-04
1143 10.42630599   0.343  -1.03951   3.60562   7.03196   2.13217   0.00000   9.980E-01   1.000E-03   9.043E-04
1144 10.43435256   0.337  -1.03591   3.60602   7.03372   2.13973   0.00000   9.980E-01   1.000E-03   9.170E-04
1145 10.44225274   0.330  -1.03227   3.60643   7.03550   2.14737   0.00000   9.980E-01   1.000E-03   9.277E-04
1146 10.45001179   0.323  -1.02859   3.60683   7.03730   2.15505   0.00000   9.980E-01   1.000E-03   9.375E-04
1147 10.45763463   0.317  -1.02486   3.60725   7.03912   2.16282   0.00000   9.980E-01   1.000E-03   9.482E-04
1148 10.46512599   0.310  -1.02109   3.60767   7.04095   2.17065   0.00000   9.980E-01   1.000E-03   9.607E-04
1149 10.47249031   0.303  -1.01728   3.60808   7.04281   2.17853   0.00000   9.980E-01   1.000E-03   9.714E-04
1150 10.47973184   0.297  -1.01343   3.60852   7.04469   2.18648   0.00000   9.980E-01   1.000E-03   9.807E-04
1151 10.48685459   0.290  -1.00954   3.60894   7.04659   2.19447   0.00000   9.980E-01   1.000E-03   9.916E-04
1152 10.49386241   0.284  -1.00560   3.60938   7.04850   2.20252   0.00000   9.978E-01   1.000E-03   1.002E-03
1153 10.50075895   0.277  -1.00161   3.60982   7.05043   2.21063   0.00000   9.970E-01   2.000E-03   1.010E-03
1154 10.50754767   0.270  -0.99757   3.61027   7.05238   2.21884   0.00000   9.970E-01   2.000E-03   1.022E-03
1155 10.51423191   0.264  -0.99347   3.61073   7.05434   2.22710   0.00000   9.970E-01   2.000E-03   1.037E-03
1156 10.52081483   0.257  -0.98933   3.61119   7.05633   2.23547   0.00000   9.970E-01   2.000E-03   1.042E-03
1157 10.52729946   0.250  -0.98514   3.61165   7.05834   2.24388   0.00000   9.970E-01   2.000E-03   1.057E-03
1158 10.53368868   0.244  -0.98089   3.61213   7.06036   2.25239   0.00000   9.970E-01   2.000E-03   1.062E-03
1159 10.53998527   0.237  -0.97659   3.61260   7.06241   2.26084   0.00000   9.970E-01   2.000E-03   1.077E-03
1160 10.54619187   0.231  -0.97223   3.61309   7.06448   2.26946   0.00000   9.970E-01   2.000E-03   1.082E-03
1161 10.55231102   0.225  -0.96783   3.61357   7.06657   2.27803   0.00000   9.970E-01   2.000E-03   1.097E-03
1162 10.55834515   0.218  -0.96337   3.61407   7.06867   2.28677   0.00000   9.970E-01   2.000E-03   1.110E-03
1163 10.56429659   0.212  -0.95886   3.61457   7.07080   2.29546   0.00000   9.970E-01   2.000E-03   1.117E-03
1164 10.57016757   0.206  -0.95428   3.61507   7.07295   2.30428   0.00000   9.970E-01   2.000E-03   1.122E-03
1165 10.57596024   0.200  -0.94966   3.61558   7.07514   2.31325   0.00000   9.970E-01   2.000E-03   1.130E-03
1166 10.58167667   0.194  -0.94497   3.61610   7.07735   2.32360   0.00000   9.970E-01   2.000E-03   1.140E-03
1167 10.58731883   0.188  -0.94023   3.61663   7.07963   2.33402   0.00000   9.970E-01   2.000E-03   1.150E-03
1168 10.59288862   0.183  -0.93542   3.61715   7.08202   2.34456   0.00000   9.970E-01   2.000E-03   1.160E-03
1169 10.59838789   0.177  -0.93056   3.61769   7.08445   2.35510   0.00000   9.970E-01   2.000E-03   1.160E-03
1170 10.60381840   0.172  -0.92562   3.61823   7.08696   2.36580   0.00000   9.970E-01   2.000E-03   1.170E-03
1171 10.60918183   0.166  -0.92061   3.61877   7.08953   2.37663   0.00000   9.970E-01   2.000E-03   1.186E-03
1172 10.61447984   0.161  -0.91552   3.61933   7.09217   2.38749   0.00000   9.970E-01   2.000E-03   1.210E-03
1173 10.61971400   0.156  -0.91035   3.61988   7.09487   2.39852   0.00000   9.970E-01   2.000E-03   1.237E-03
1174 10.62488582   0.151  -0.90512   3.62044   7.09763   2.40961   0.00000   9.970E-01   2.000E-03   1.247E-03
1175 10.62999678   0.145  -0.89980   3.62102   7.10045   2.42090   0.00000   9.970E-01   2.000E-03   1.280E-03
1176 10.63504829   0.140  -0.89440   3.62159   7.10333   2.43230   0.00000   9.970E-01   2.000E-03   1.297E-03
1177 10.64004171   0.135  -0.88893   3.62217   7.10627   2.44389   0.00000   9.970E-01   2.000E-03   1.314E-03
1178 10.64497838   0.130  -0.88337   3.62275   7.10926   2.45562   0.00000   9.960E-01   2.000E-03   1.350E-03
1179 10.64985956   0.125  -0.87772   3.62334   7.11230   2.46756   0.00000   9.960E-01   2.000E-03   1.369E-03
1180 10.65468649   0.120  -0.87198   3.62394   7.11540   2.47968   0.00000   9.960E-01   2.000E-03   1.390E-03
1181 10.65946036   0.115  -0.86614   3.62454   7.11854   2.49203   0.00000   9.960E-01   2.000E-03   1.417E-03
1182 10.66418232   0.111  -0.86019   3.62515   7.12172   2.50459   0.00000   9.960E-01   3.000E-03   1.443E-03
1183 10.66885350   0.106  -0.85415   3.62576   7.12496   2.51738   0.00000   9.960E-01   3.000E-03   1.467E-03
1184 10.67347496   0.101  -0.84799   3.62639   7.12823   2.53041   0.00000   9.960E-01   3.000E-03   1.505E-03
1185 10.67804777   0.096  -0.84172   3.62702   7.13154   2.54373   0.00000   9.950E-01   3.000E-03   1.528E-03
1186 10.68257293   0.092  -0.83532   3.62766   7.13488   2.55728   0.00000   9.950E-01   3.000E-03   1.560E-03
1187 10.68705142   0.087  -0.82878   3.62831   7.13824   2.57112   0.00000   9.950E-01   4.000E-03   1.603E-03
1188 10.69148420   0.083  -0.82211   3.62897   7.14163   2.58527   0.00000   9.950E-01   4.000E-03   1.626E-03
1189 10.69587220   0.078  -0.81529   3.62965   7.14504   2.59985   0.00000   9.940E-01   4.000E-03   1.670E-03
1190 10.70021630   0.074  -0.80829   3.63033   7.14848   2.61477   0.00000   9.940E-01   5.000E-03   1.709E-03
1191 10.70451739   0.070  -0.80115   3.63103   7.15194   2.63012   0.00000   9.930E-01   5.000E-03   1.750E-03
1192 10.70594076   0.069  -0.79873   3.63126   7.15310   2.63534   0.00000   9.930E-01   5.000E-03   1.762E-03
1193 10.70735947   0.067  -0.79628   3.63150   7.15426   2.64061   0.00000   9.930E-01   5.000E-03   1.778E-03
1194 10.70877357   0.066  -0.79383   3.63174   7.15543   2.64594   0.00000   9.930E-01   5.639E-03   1.796E-03
1195 10.71018308   0.065  -0.79135   3.63198   7.15661   2.65130   0.00000   9.921E-01   6.000E-03   1.809E-03
1196 10.71158803   0.063  -0.78884   3.63222   7.15779   2.65672   0.00000   9.920E-01   6.000E-03   1.812E-03
1197 10.71298845   0.062  -0.78632   3.63246   7.15897   2.66219   0.00000   9.920E-01   6.000E-03   1.834E-03
1198 10.71438437   0.061  -0.78377   3.63271   7.16016   2.66772   0.00000   9.920E-01   6.632E-03   1.853E-03
1199 10.71577581   0.059  -0.78121   3.63295   7.16135   2.67330   0.00000   9.911E-01   7.000E-03   1.860E-03
1200 10.71716281   0.058  -0.77862   3.63321   7.16256   2.67895   0.00000   9.910E-01   7.000E-03   1.872E-03
1201 10.71854540   0.057  -0.77601   3.63345   7.16377   2.68466   0.00000   9.910E-01   7.000E-03   1.890E-03
1202 10.71992359   0.055  -0.77337   3.63371   7.16499   2.69045   0.00000   9.902E-01   7.797E-03   1.908E-03
1203 10.72129743   0.054  -0.77071   3.63396   7.16622   2.69627   0.00000   9.900E-01   8.000E-03   1.921E-03
1204 10.72266694   0.053  -0.76803   3.63422   7.16746   2.70214   0.00000   9.900E-01   8.000E-03   1.935E-03
1205 10.72403214   0.052  -0.76532   3.63447   7.16871   2.70806   0.00000   9.892E-01   8.796E-03   1.948E-03
1206 10.72539306   0.051  -0.76258   3.63474   7.16997   2.71405   0.00000   9.890E-01   9.000E-03   1.963E-03
1207 10.72674973   0.049  -0.75983   3.63500   7.17125   2.72011   0.00000   9.885E-01   9.525E-03   1.990E-03
1208 10.72810218   0.048  -0.75702   3.63527   7.17253   2.72623   0.00000   9.880E-01   1.000E-02   2.000E-03
1209 10.72945043   0.047  -0.75421   3.63554   7.17384   2.73244   0.00000   9.877E-01   1.031E-02   2.027E-03
1210 10.73079450   0.046  -0.75138   3.63581   7.17517   2.73868   0.00000   9.870E-01   1.100E-02   2.027E-03
1211 10.73213443   0.044  -0.74852   3.63608   7.17650   2.74495   0.00000   9.869E-01   1.114E-02   2.043E-03
1212 10.73347024   0.043  -0.74563   3.63635   7.17786   2.75125   0.00000   9.860E-01   1.200E-02   2.066E-03
1213 10.73480195   0.042  -0.74273   3.63661   7.17923   2.75760   0.00000   9.850E-01   1.202E-02   2.080E-03
1214 10.73612959   0.041  -0.73978   3.63689   7.18063   2.76401   0.00000   9.850E-01   1.300E-02   2.090E-03
1215 10.73745318   0.040  -0.73681   3.63716   7.18205   2.77048   0.00000   9.840E-01   1.395E-02   2.109E-03
1216 10.73877276   0.039  -0.73382   3.63744   7.18350   2.77702   0.00000   9.836E-01   1.444E-02   2.124E-03
1217 10.74008833   0.038  -0.73080   3.63772   7.18497   2.78358   0.00000   9.830E-01   1.500E-02   2.139E-03
1218 10.74139993   0.036  -0.72776   3.63800   7.18647   2.79016   0.00000   9.815E-01   1.600E-02   2.145E-03
1219 10.74270758   0.035  -0.72467   3.63828   7.18800   2.79680   0.00000   9.810E-01   1.699E-02   2.170E-03
1220 10.74401131   0.034  -0.72155   3.63857   7.18957   2.80351   0.00000   9.800E-01   1.800E-02   2.205E-03
1221 10.74531114   0.033  -0.71842   3.63885   7.19116   2.81024   0.00000   9.789E-01   1.910E-02   2.210E-03
1222 10.74660708   0.032  -0.71525   3.63914   7.19281   2.81700   0.00000   9.780E-01   2.000E-02   2.217E-03
1223 10.74789917   0.031  -0.71206   3.63943   7.19448   2.82382   0.00000   9.767E-01   2.126E-02   2.243E-03
1224 10.74918743   0.030  -0.70883   3.63972   7.19621   2.83063   0.00000   9.751E-01   2.286E-02   2.267E-03
1225 10.75047188   0.029  -0.70558   3.64001   7.19798   2.83747   0.00000   9.735E-01   2.348E-02   2.275E-03
1226 10.75175254   0.027  -0.70231   3.64030   7.19979   2.84433   0.00000   9.729E-01   2.511E-02   2.291E-03
1227 10.75302943   0.026  -0.69901   3.64059   7.20167   2.85121   0.00000   9.712E-01   2.675E-02   2.300E-03
1228 10.75430258   0.025  -0.69569   3.64088   7.20360   2.85812   0.00000   9.696E-01   2.840E-02   2.310E-03
1229 10.75557201   0.024  -0.69234   3.64117   7.20559   2.86501   0.00000   9.679E-01   3.007E-02   2.321E-03
1230 10.75683775   0.023  -0.68893   3.64149   7.20763   2.87188   0.00000   9.652E-01   3.175E-02   2.355E-03
1231 10.75809980   0.022  -0.68551   3.64179   7.20976   2.87875   0.00000   9.635E-01   3.447E-02   2.392E-03
1232 10.75935819   0.021  -0.68211   3.64209   7.21191   2.88557   0.00000   9.608E-01   3.634E-02   2.333E-03
1233 10.76061295   0.019  -0.67867   3.64238   7.21414   2.89242   0.00000   9.591E-01   3.888E-02   2.376E-03
1234 10.76186410   0.018  -0.67521   3.64267   7.21643   2.89925   0.00000   9.558E-01   4.161E-02   2.390E-03
1235 10.76311165   0.017  -0.67173   3.64297   7.21877   2.90608   0.00000   9.533E-01   4.434E-02   2.370E-03
1236 10.76435563   0.016  -0.66824   3.64326   7.22116   2.91288   0.00000   9.499E-01   4.715E-02   2.382E-03
1237 10.76559605   0.015  -0.66472   3.64356   7.22357   2.91973   0.00000   9.473E-01   5.066E-02   2.408E-03
1238 10.76683294   0.013  -0.66118   3.64386   7.22597   2.92667   0.00000   9.438E-01   5.421E-02   2.422E-03
1239 10.76806632   0.012  -0.65755   3.64416   7.22844   2.93373   0.00000   9.400E-01   5.801E-02   2.651E-03
1240 10.76929621   0.011  -0.65389   3.64447   7.23087   2.94101   0.00000   9.357E-01   6.125E-02   2.951E-03
1241 10.77052262   0.010  -0.65015   3.64480   7.23319   2.94853   0.00000   9.310E-01   6.600E-02   3.260E-03
1242 10.77079902   0.009  -0.64930   3.64487   7.23369   2.95028   0.00000   9.298E-01   6.658E-02   3.335E-03
1243 10.77107524   0.009  -0.64845   3.64494   7.23418   2.95204   0.00000   9.288E-01   6.733E-02   3.412E-03
1244 10.77135128   0.009  -0.64760   3.64501   7.23466   2.95383   0.00000   9.282E-01   6.854E-02   3.490E-03
1245 10.77162715   0.008  -0.64674   3.64508   7.23513   2.95565   0.00000   9.272E-01   6.939E-02   3.571E-03
1246 10.77190284   0.008  -0.64588   3.64515   7.23558   2.95748   0.00000   9.260E-01   7.004E-02   3.653E-03
1247 10.77217836   0.008  -0.64498   3.64524   7.23602   2.95934   0.00000   9.247E-01   7.135E-02   3.751E-03
1248 10.77245371   0.008  -0.64409   3.64532   7.23645   2.96122   0.00000   9.237E-01   7.234E-02   3.834E-03
1249 10.77272888   0.007  -0.64323   3.64539   7.23688   2.96311   0.00000   9.230E-01   7.302E-02   3.901E-03
1250 10.77300387   0.007  -0.64236   3.64546   7.23728   2.96505   0.00000   9.216E-01   7.442E-02   3.978E-03
1251 10.77327869   0.007  -0.64149   3.64553   7.23768   2.96701   0.00000   9.206E-01   7.542E-02   4.052E-03
1252 10.77355334   0.007  -0.64062   3.64560   7.23806   2.96900   0.00000   9.199E-01   7.614E-02   4.124E-03
1253 10.77382782   0.006  -0.63974   3.64568   7.23843   2.97103   0.00000   9.191E-01   7.688E-02   4.198E-03
1254 10.77410212   0.006  -0.63887   3.64575   7.23878   2.97308   0.00000   9.177E-01   7.763E-02   4.267E-03
1255 10.77437625   0.006  -0.63798   3.64582   7.23912   2.97516   0.00000   9.166E-01   7.880E-02   4.336E-03
1256 10.77465020   0.006  -0.63710   3.64588   7.23945   2.97726   0.00000   9.158E-01   8.018E-02   4.406E-03
1257 10.77492398   0.005  -0.63621   3.64595   7.23977   2.97939   0.00000   9.150E-01   8.098E-02   4.478E-03
1258 10.77519759   0.005  -0.63531   3.64602   7.24008   2.98155   0.00000   9.134E-01   8.179E-02   4.559E-03
1259 10.77547103   0.005  -0.63441   3.64609   7.24037   2.98374   0.00000   9.124E-01   8.261E-02   4.635E-03
1260 10.77574430   0.005  -0.63351   3.64616   7.24066   2.98595   0.00000   9.115E-01   8.345E-02   4.711E-03
1261 10.77601739   0.005  -0.63260   3.64622   7.24093   2.98818   0.00000   9.107E-01   8.430E-02   4.784E-03
1262 10.77629031   0.004  -0.63170   3.64629   7.24120   2.99043   0.00000   9.098E-01   8.517E-02   4.853E-03
1263 10.77656306   0.004  -0.63078   3.64636   7.24145   2.99271   0.00000   9.090E-01   8.605E-02   4.924E-03
1264 10.77683564   0.004  -0.62987   3.64643   7.24169   2.99501   0.00000   9.081E-01   8.694E-02   4.995E-03
1265 10.77710805   0.004  -0.62895   3.64651   7.24193   2.99735   0.00000   9.063E-01   8.869E-02   5.059E-03
1266 10.77738029   0.004  -0.62803   3.64657   7.24215   2.99970   0.00000   9.052E-01   8.976E-02   5.123E-03
1267 10.77765235   0.004  -0.62711   3.64664   7.24237   3.00208   0.00000   9.043E-01   9.069E-02   5.182E-03
1268 10.77792425   0.003  -0.62618   3.64671   7.24257   3.00449   0.00000   9.034E-01   9.164E-02   5.232E-03
1269 10.77819598   0.003  -0.62525   3.64678   7.24278   3.00692   0.00000   9.024E-01   9.260E-02   5.292E-03
1270 10.77846753   0.003  -0.62432   3.64685   7.24297   3.00937   0.00000   9.014E-01   9.300E-02   5.360E-03
1271 10.77873892   0.003  -0.62337   3.64691   7.24316   3.01183   0.00000   9.005E-01   9.355E-02   5.428E-03
1272 10.77901014   0.003  -0.62243   3.64698   7.24334   3.01432   0.00000   8.995E-01   9.455E-02   5.493E-03
1273 10.77928119   0.003  -0.62148   3.64705   7.24351   3.01684   0.00000   8.984E-01   9.555E-02   5.553E-03
1274 10.77955207   0.002  -0.62053   3.64711   7.24368   3.01938   0.00000   8.974E-01   9.658E-02   5.620E-03
1275 10.77982278   0.002  -0.61957   3.64718   7.24384   3.02193   0.00000   8.964E-01   9.761E-02   5.687E-03
1276 10.78009332   0.002  -0.61861   3.64725   7.24400   3.02452   0.00000   8.953E-01   9.865E-02   5.743E-03
1277 10.78036369   0.002  -0.61765   3.64732   7.24415   3.02712   0.00000   8.943E-01   9.971E-02   5.803E-03
1278 10.78063390   0.002  -0.61669   3.64739   7.24430   3.02975   0.00000   8.932E-01   1.008E-01   5.867E-03
1279 10.78090393   0.002  -0.61571   3.64745   7.24444   3.03238   0.00000   8.921E-01   1.019E-01   5.932E-03
1280 10.78117380   0.002  -0.61474   3.64752   7.24459   3.03503   0.00000   8.910E-01   1.030E-01   5.988E-03
1281 10.78144350   0.002  -0.61376   3.64758   7.24472   3.03770   0.00000   8.899E-01   1.041E-01   6.045E-03
1282 10.78171304   0.002  -0.61278   3.64765   7.24485   3.04039   0.00000   8.888E-01   1.050E-01   6.124E-03
1283 10.78198241   0.002  -0.61180   3.64772   7.24498   3.04310   0.00000   8.880E-01   1.053E-01   6.200E-03
1284 10.78225161   0.001  -0.61080   3.64778   7.24511   3.04582   0.00000   8.875E-01   1.065E-01   6.270E-03
1285 10.78252064   0.001  -0.60981   3.64785   7.24524   3.04857   0.00000   8.863E-01   1.077E-01   6.340E-03
1286 10.78278951   0.001  -0.60872   3.64795   7.24535   3.05134   0.00000   8.852E-01   1.088E-01   6.445E-03
1287 10.78305821   0.001  -0.60771   3.64802   7.24548   3.05412   0.00000   8.840E-01   1.100E-01   6.503E-03
1288 10.78332674   0.001  -0.60670   3.64809   7.24561   3.05693   0.00000   8.827E-01   1.110E-01   6.573E-03
1289 10.78359511   0.001  -0.60569   3.64816   7.24572   3.05976   0.00000   8.815E-01   1.115E-01   6.639E-03
1290 10.78386331   0.001  -0.60467   3.64823   7.24584   3.06261   0.00000   8.803E-01   1.127E-01   6.714E-03
1291 10.78413135   0.001  -0.60366   3.64829   7.24595   3.06549   0.00000   8.790E-01   1.140E-01   6.790E-03
1292 10.78482053   0.001  -0.60106   3.64846   7.24621   3.07300   0.00000   8.770E-01   1.160E-01   6.017E-03
1293 10.78550862   0.001  -0.59844   3.64862   7.24644   3.08065   0.00000   8.753E-01   1.187E-01   5.302E-03
1294 10.78619562   0.001  -0.59579   3.64878   7.24663   3.08847   0.00000   8.740E-01   1.220E-01   4.631E-03
1295 10.78688154   0.000  -0.59313   3.64893   7.24682   3.09638   0.00000   8.720E-01   1.241E-01   4.062E-03
1296 10.78756638   0.000  -0.59046   3.64907   7.24700   3.10445   0.00000   8.694E-01   1.268E-01   3.542E-03
1297 10.78825013   0.000  -0.58776   3.64921   7.24717   3.11271   0.00000   8.677E-01   1.293E-01   3.073E-03
1298 10.78893281   0.000  -0.58501   3.64936   7.24737   3.12110   0.00000   8.656E-01   1.321E-01   2.815E-03
1299 10.78961443   0.000  -0.58219   3.64951   7.24770   3.12938   0.00000   8.618E-01   1.352E-01   2.913E-03
1300 10.79029497   0.000  -0.57936   3.64966   7.24822   3.13837   0.00000   8.590E-01   1.380E-01   2.935E-03
1301 10.79097445   0.000  -0.57643   3.64984   7.24854   3.14714   0.00000   8.562E-01   1.408E-01   2.975E-03
1302 10.79165286   0.000  -0.57351   3.64999   7.24884   3.15609   0.00000   8.522E-01   1.448E-01   3.017E-03
1303 10.79233022   0.000  -0.57057   3.65014   7.24911   3.16522   0.00000   8.493E-01   1.477E-01   2.989E-03
1304 10.79300652   0.000  -0.56758   3.65028   7.24943   3.17447   0.00000   8.460E-01   1.510E-01   3.020E-03
1305 10.79368178   0.000  -0.56454   3.65043   7.24977   3.18387   0.00000   8.423E-01   1.547E-01   3.057E-03
1306 10.79435598   0.000  -0.56147   3.65057   7.25018   3.19368   0.00000   8.389E-01   1.581E-01   3.066E-03
1307 10.79502914   0.000  -0.55836   3.65070   7.25062   3.20398   0.00000   8.352E-01   1.618E-01   3.051E-03
1308 10.79570125   0.000  -0.55519   3.65083   7.25096   3.21419   0.00000   8.316E-01   1.654E-01   3.134E-03
1309 10.79637233   0.000  -0.55198   3.65096   7.25137   3.22468   0.00000   8.278E-01   1.691E-01   3.156E-03
1310 10.79704238   0.000  -0.54874   3.65109   7.25167   3.23550   0.00000   8.237E-01   1.730E-01   3.093E-03
1311 10.79771139   0.000  -0.54546   3.65120   7.25198   3.24648   0.00000   8.204E-01   1.766E-01   3.044E-03
1312 10.79837937   0.000  -0.54217   3.65130   7.25257   3.25769   0.00000   8.162E-01   1.808E-01   2.992E-03
1313 10.79904632   0.000  -0.53881   3.65139   7.25294   3.26920   0.00000   8.118E-01   1.852E-01   2.972E-03
1314 10.79971226   0.000  -0.53535   3.65150   7.25337   3.28081   0.00000   8.074E-01   1.896E-01   3.013E-03
1315 10.80037717   0.000  -0.53181   3.65161   7.25387   3.29277   0.00000   8.029E-01   1.941E-01   3.150E-03
1316 10.80104107   0.000  -0.52832   3.65167   7.25432   3.30499   0.00000   7.986E-01   1.984E-01   2.942E-03
1317 10.80170395   0.000  -0.52476   3.65174   7.25483   3.31738   0.00000   7.933E-01   2.037E-01   2.986E-03
1318 10.80236583   0.000  -0.52116   3.65180   7.25541   3.33004   0.00000   7.890E-01   2.080E-01   2.967E-03
1319 10.80302669   0.000  -0.51742   3.65187   7.25610   3.34317   0.00000   7.835E-01   2.135E-01   3.017E-03
1320 10.80368655   0.000  -0.51360   3.65192   7.25670   3.35667   0.00000   7.778E-01   2.192E-01   3.089E-03
1321 10.80434542   0.000  -0.50975   3.65196   7.25739   3.37048   0.00000   7.730E-01   2.240E-01   3.040E-03
1322 10.80500328   0.000  -0.50582   3.65199   7.25808   3.38474   0.00000   7.672E-01   2.298E-01   3.047E-03
1323 10.80566015   0.000  -0.50177   3.65206   7.25882   3.39923   0.00000   7.603E-01   2.358E-01   3.163E-03
1324 10.80631602   0.000  -0.49772   3.65205   7.25957   3.41431   0.00000   7.552E-01   2.418E-01   3.012E-03
1325 10.80697091   0.000  -0.49353   3.65205   7.26039   3.42959   0.00000   7.480E-01   2.480E-01   3.120E-03
1326 10.80762481   0.000  -0.48925   3.65204   7.26137   3.44530   0.00000   7.416E-01   2.554E-01   3.094E-03
1327 10.80827773   0.000  -0.48483   3.65202   7.26227   3.46177   0.00000   7.351E-01   2.619E-01   3.133E-03
1328 10.80892967   0.000  -0.48034   3.65198   7.26321   3.47867   0.00000   7.284E-01   2.686E-01   3.090E-03
1329 10.80958063   0.000  -0.47576   3.65191   7.26418   3.49631   0.00000   7.208E-01   2.762E-01   3.074E-03
1330 10.81023062   0.000  -0.47105   3.65183   7.26523   3.51446   0.00000   7.135E-01   2.835E-01   3.003E-03
1331 10.81087963   0.000  -0.46607   3.65174   7.26641   3.53330   0.00000   7.048E-01   2.922E-01   3.165E-03
1332 10.81152768   0.000  -0.46096   3.65162   7.26757   3.55299   0.00000   6.956E-01   3.014E-01   3.115E-03
1333 10.81217476   0.000  -0.45595   3.65143   7.26874   3.57337   0.00000   6.862E-01   3.103E-01   2.985E-03
1334 10.81282088   0.000  -0.45059   3.65126   7.27006   3.59410   0.00000   6.761E-01   3.209E-01   3.200E-03
1335 10.81346604   0.000  -0.44499   3.65107   7.27143   3.61567   0.00000   6.651E-01   3.319E-01   3.260E-03
1336 10.81411024   0.000  -0.43946   3.65081   7.27295   3.63800   0.00000   6.535E-01   3.435E-01   3.112E-03
1337 10.81475348   0.000  -0.43341   3.65058   7.27454   3.66104   0.00000   6.403E-01   3.557E-01   3.460E-03
1338 10.81539578   0.000  -0.42732   3.65030   7.27632   3.68504   0.00000   6.282E-01   3.688E-01   3.135E-03
1339 10.81603713   0.000  -0.41970   3.64982   7.27969   3.71699   0.00000   6.177E-01   3.782E-01   4.150E-03
1340 10.81667753   0.000  -0.41085   3.64914   7.28182   3.75733   0.00000   6.051E-01   3.909E-01   4.170E-03
1341 10.81731699   0.967  -0.40173   3.64839   7.28336   3.79745   0.00000   5.910E-01   4.050E-01   4.200E-03
