 # M = 0.65 Mo, Y = 0.2700, Z = 2.00000E-02, alpha = 1.68, X_D = 2.0E-05
 # Solar Mixture: Asplund et al. (2005)         
 # ------------------------------------------------------------------------------------------------------------
 # NMD   LOG AGE    Xc      LOG L     LOG TE    LOG Tc   LOG RHOc    M-CC       L-PP       L-CNO       L-GRA
 #        (yr)              (Lo)        (K)       (K)   (gr/cm^3)    (Mo)        (L)         (L)         (L)
 # ------------------------------------------------------------------------------------------------------------
   1  4.95321552   0.710   0.62336   3.60849   6.09832  -1.06915   0.00000   8.760E-01   0.000E+00   1.240E-01
   2  5.06029309   0.710   0.61581   3.60856   6.10211  -1.05775   0.00000   8.806E-01   0.000E+00   1.194E-01
   3  5.14612283   0.710   0.60855   3.60863   6.10576  -1.04680   0.00000   8.853E-01   0.000E+00   1.147E-01
   4  5.21775700   0.710   0.60218   3.60869   6.10894  -1.03724   0.00000   8.906E-01   0.000E+00   1.094E-01
   5  5.27923157   0.710   0.59580   3.60874   6.11213  -1.02767   0.00000   8.960E-01   0.000E+00   1.040E-01
   6  5.33307362   0.710   0.58973   3.60879   6.11515  -1.01857   0.00000   8.986E-01   0.000E+00   1.014E-01
   7  5.38097081   0.710   0.58384   3.60883   6.11808  -1.00976   0.00000   8.995E-01   0.000E+00   1.003E-01
   8  5.42410634   0.710   0.57796   3.60888   6.12101  -1.00096   0.00000   9.005E-01   0.000E+00   9.933E-02
   9  5.46334196   0.710   0.57205   3.60892   6.12395  -0.99214   0.00000   9.001E-01   0.000E+00   9.968E-02
  10  5.49932474   0.710   0.56613   3.60896   6.12688  -0.98332   0.00000   8.984E-01   0.000E+00   1.015E-01
  11  5.53255299   0.710   0.56021   3.60899   6.12982  -0.97450   0.00000   8.966E-01   0.000E+00   1.033E-01
  12  5.56341862   0.710   0.55425   3.60903   6.13278  -0.96563   0.00000   8.946E-01   0.000E+00   1.054E-01
  13  5.59223541   0.710   0.54789   3.60907   6.13593  -0.95616   0.00000   8.899E-01   0.000E+00   1.101E-01
  14  5.61925852   0.710   0.54152   3.60911   6.13908  -0.94668   0.00000   8.851E-01   0.000E+00   1.149E-01
  15  5.64469821   0.710   0.53516   3.60915   6.14223  -0.93721   0.00000   8.804E-01   0.000E+00   1.196E-01
  16  5.66872982   0.710   0.52818   3.60918   6.14567  -0.92687   0.00000   8.734E-01   0.000E+00   1.266E-01
  17  5.69150108   0.710   0.52094   3.60920   6.14923  -0.91619   0.00000   8.654E-01   0.000E+00   1.346E-01
  18  5.71313763   0.710   0.51370   3.60923   6.15279  -0.90550   0.00000   8.575E-01   0.000E+00   1.425E-01
  19  5.73374721   0.710   0.50574   3.60925   6.15669  -0.89379   0.00000   8.460E-01   0.000E+00   1.540E-01
  20  5.75342291   0.710   0.49724   3.60927   6.16085  -0.88128   0.00000   8.319E-01   0.000E+00   1.681E-01
  21  5.77224570   0.710   0.48873   3.60930   6.16501  -0.86878   0.00000   8.178E-01   0.000E+00   1.822E-01
  22  5.79028647   0.710   0.47890   3.60931   6.16981  -0.85436   0.00000   7.966E-01   0.000E+00   2.034E-01
  23  5.80760761   0.710   0.46874   3.60932   6.17477  -0.83948   0.00000   7.736E-01   0.000E+00   2.264E-01
  24  5.82426433   0.710   0.45765   3.60932   6.18016  -0.82331   0.00000   7.452E-01   0.000E+00   2.548E-01
  25  5.84030575   0.710   0.44542   3.60929   6.18606  -0.80559   0.00000   7.102E-01   0.000E+00   2.898E-01
  26  5.85577569   0.710   0.43216   3.60926   6.19245  -0.78642   0.00000   6.670E-01   0.000E+00   3.330E-01
  27  5.87071347   0.710   0.41779   3.60923   6.19935  -0.76567   0.00000   6.150E-01   0.000E+00   3.850E-01
  28  5.88515451   0.710   0.40157   3.60915   6.20707  -0.74245   0.00000   5.498E-01   0.000E+00   4.502E-01
  29  5.89913077   0.710   0.38417   3.60904   6.21535  -0.71760   0.00000   4.765E-01   0.000E+00   5.235E-01
  30  5.91267124   0.710   0.36538   3.60891   6.22426  -0.69090   0.00000   3.949E-01   0.000E+00   6.051E-01
  31  5.92580227   0.710   0.34528   3.60873   6.23368  -0.66260   0.00000   3.097E-01   0.000E+00   6.903E-01
  32  5.93854791   0.710   0.32432   3.60851   6.24345  -0.63328   0.00000   2.287E-01   0.000E+00   7.713E-01
  33  5.95093013   0.710   0.30295   3.60823   6.25336  -0.60353   0.00000   1.593E-01   0.000E+00   8.407E-01
  34  5.96296909   0.710   0.28169   3.60792   6.26325  -0.57401   0.00000   1.047E-01   0.000E+00   8.953E-01
  35  5.97468330   0.710   0.26086   3.60758   6.27273  -0.54551   0.00000   6.602E-02   0.000E+00   9.340E-01
  36  5.98608982   0.710   0.24078   3.60722   6.28182  -0.51818   0.00000   3.971E-02   0.000E+00   9.603E-01
  37  5.99720441   0.710   0.22148   3.60683   6.29054  -0.49209   0.00000   2.335E-02   0.000E+00   9.766E-01
  38  6.00804163   0.710   0.20312   3.60644   6.29883  -0.46732   0.00000   1.388E-02   0.000E+00   9.861E-01
  39  6.01861499   0.710   0.18556   3.60604   6.30659  -0.44397   0.00000   8.904E-03   0.000E+00   9.911E-01
  40  6.02893705   0.710   0.16888   3.60563   6.31396  -0.42183   0.00000   5.527E-03   0.000E+00   9.945E-01
  41  6.03901945   0.710   0.15287   3.60522   6.32097  -0.40076   0.00000   3.000E-03   0.000E+00   9.970E-01
  42  6.07924179   0.710   0.09291   3.60352   6.34694  -0.32274   0.00000   8.273E-04   0.000E+00   9.992E-01
  43  6.11605264   0.710   0.04216   3.60191   6.36859  -0.25762   0.00000   0.000E+00   0.000E+00   1.000E+00
  44  6.14998573   0.710  -0.00157   3.60044   6.38712  -0.20194   0.00000   0.000E+00   0.000E+00   1.000E+00
  45  6.18145857   0.710  -0.03993   3.59912   6.40330  -0.15328   0.00000   0.000E+00   0.000E+00   1.000E+00
  46  6.21080392   0.710  -0.07416   3.59791   6.41771  -0.10997   0.00000   0.000E+00   0.000E+00   1.000E+00
  47  6.23829128   0.710  -0.10480   3.59683   6.43059  -0.07126   0.00000   0.000E+00   0.000E+00   1.000E+00
  48  6.26414198   0.710  -0.13278   3.59583   6.44235  -0.03590   0.00000   0.000E+00   0.000E+00   1.000E+00
  49  6.28854003   0.710  -0.15827   3.59493   6.45306  -0.00364   0.00000   0.000E+00   0.000E+00   1.000E+00
  50  6.31164002   0.710  -0.18192   3.59408   6.46300   0.02625   0.00000   0.000E+00   0.000E+00   1.000E+00
  51  6.33357314   0.710  -0.20385   3.59330   6.47224   0.05402   0.00000   0.000E+00   0.000E+00   1.000E+00
  52  6.35445162   0.710  -0.22428   3.59258   6.48084   0.07989   0.00000   0.000E+00   0.000E+00   1.000E+00
  53  6.37437225   0.710  -0.24338   3.59191   6.48889   0.10411   0.00000   0.000E+00   0.000E+00   1.000E+00
  54  6.39341908   0.710  -0.26137   3.59128   6.49647   0.12695   0.00000   0.000E+00   0.000E+00   1.000E+00
  55  6.41166555   0.710  -0.27828   3.59069   6.50361   0.14843   0.00000   0.000E+00   0.000E+00   1.000E+00
  56  6.42917622   0.710  -0.29425   3.59013   6.51037   0.16876   0.00000   0.000E+00   0.000E+00   1.000E+00
  57  6.44600815   0.710  -0.30945   3.58961   6.51679   0.18810   0.00000   0.000E+00   0.000E+00   1.000E+00
  58  6.46221198   0.710  -0.32396   3.58911   6.52293   0.20657   0.00000   0.000E+00   0.000E+00   1.000E+00
  59  6.47783293   0.710  -0.33787   3.58862   6.52882   0.22430   0.00000   0.000E+00   0.000E+00   1.000E+00
  60  6.49291146   0.710  -0.35101   3.58818   6.53440   0.24107   0.00000   0.000E+00   0.000E+00   1.000E+00
  61  6.50748399   0.710  -0.36362   3.58775   6.53975   0.25717   0.00000   0.000E+00   0.000E+00   1.000E+00
  62  6.52158338   0.710  -0.37586   3.58733   6.54494   0.27280   0.00000   0.000E+00   0.000E+00   1.000E+00
  63  6.53523939   0.710  -0.38743   3.58695   6.54987   0.28763   0.00000   0.000E+00   0.000E+00   1.000E+00
  64  6.54847906   0.710  -0.39863   3.58658   6.55464   0.30200   0.00000   0.000E+00   0.000E+00   1.000E+00
  65  6.56132702   0.710  -0.40952   3.58621   6.55927   0.31595   0.00000   0.000E+00   0.000E+00   1.000E+00
  66  6.57380579   0.710  -0.41987   3.58587   6.56368   0.32922   0.00000   0.000E+00   0.000E+00   1.000E+00
  67  6.58593599   0.710  -0.43008   3.58553   6.56803   0.34233   0.00000   0.000E+00   0.000E+00   1.000E+00
  68  6.59773658   0.710  -0.43968   3.58522   6.57213   0.35469   0.00000   0.000E+00   0.000E+00   1.000E+00
  69  6.60922498   0.710  -0.44925   3.58491   6.57623   0.36701   0.00000   0.000E+00   0.000E+00   1.000E+00
  70  6.62041730   0.710  -0.45823   3.58462   6.58007   0.37860   0.00000   0.000E+00   0.000E+00   1.000E+00
  71  6.63132840   0.710  -0.46720   3.58433   6.58392   0.39020   0.00000   0.000E+00   0.000E+00   1.000E+00
  72  6.64197209   0.710  -0.47567   3.58407   6.58756   0.40114   0.00000   0.000E+00   0.000E+00   1.000E+00
  73  6.65236115   0.710  -0.48409   3.58380   6.59118   0.41204   0.00000   0.000E+00   0.000E+00   1.000E+00
  74  6.66250747   0.710  -0.49215   3.58355   6.59464   0.42248   0.00000   0.000E+00   0.000E+00   1.000E+00
  75  6.67242216   0.710  -0.50005   3.58331   6.59804   0.43272   0.00000   0.000E+00   0.000E+00   1.000E+00
  76  6.68211554   0.710  -0.50780   3.58307   6.60138   0.44277   0.00000   0.000E+00   0.000E+00   1.000E+00
  77  6.69159728   0.710  -0.51521   3.58284   6.60457   0.45240   0.00000   0.000E+00   0.000E+00   1.000E+00
  78  6.70087643   0.710  -0.52261   3.58262   6.60777   0.46203   0.00000   0.000E+00   0.000E+00   1.000E+00
  79  6.70996145   0.710  -0.52966   3.58240   6.61081   0.47122   0.00000   0.000E+00   0.000E+00   1.000E+00
  80  6.71886032   0.710  -0.53660   3.58219   6.61380   0.48028   0.00000   0.000E+00   0.000E+00   1.000E+00
  81  6.72758050   0.710  -0.54351   3.58198   6.61678   0.48931   0.00000   0.000E+00   0.000E+00   1.000E+00
  82  6.73612903   0.710  -0.55003   3.58179   6.61951   0.49791   0.00000   0.000E+00   0.000E+00   1.000E+00
  83  6.74451253   0.710  -0.55655   3.58160   6.62225   0.50652   0.00000   0.000E+00   0.000E+00   1.000E+00
  84  6.75273726   0.710  -0.56299   3.58141   6.62493   0.51504   0.00000   0.000E+00   0.000E+00   1.000E+00
  85  6.76080912   0.710  -0.56910   3.58123   6.62743   0.52322   0.00000   0.000E+00   0.000E+00   1.000E+00
  86  6.76873369   0.710  -0.57521   3.58105   6.62994   0.53140   0.00000   0.000E+00   0.000E+00   1.000E+00
  87  6.77651625   0.710  -0.58127   3.58088   6.63241   0.53952   0.00000   0.000E+00   0.000E+00   1.000E+00
  88  6.78416179   0.710  -0.58699   3.58071   6.63471   0.54728   0.00000   0.000E+00   0.000E+00   1.000E+00
  89  6.79167507   0.710  -0.59272   3.58055   6.63701   0.55505   0.00000   0.000E+00   0.000E+00   1.000E+00
  90  6.79906057   0.710  -0.59844   3.58038   6.63930   0.56282   0.00000   0.000E+00   0.000E+00   1.000E+00
  91  6.80632258   0.710  -0.60385   3.58023   6.64144   0.57026   0.00000   0.000E+00   0.000E+00   1.000E+00
  92  6.81346514   0.710  -0.60921   3.58008   6.64354   0.57764   0.00000   0.000E+00   0.000E+00   1.000E+00
  93  6.82049214   0.710  -0.61457   3.57993   6.64565   0.58503   0.00000   0.000E+00   0.000E+00   1.000E+00
  94  6.82740725   0.710  -0.61980   3.57978   6.64770   0.59228   0.00000   0.000E+00   0.000E+00   1.000E+00
  95  6.83421397   0.710  -0.62482   3.57964   6.64963   0.59930   0.00000   0.000E+00   0.000E+00   1.000E+00
  96  6.84091565   0.710  -0.62984   3.57951   6.65157   0.60632   0.00000   0.000E+00   0.000E+00   1.000E+00
  97  6.84751549   0.710  -0.63486   3.57937   6.65351   0.61334   0.00000   0.000E+00   0.000E+00   1.000E+00
  98  6.85401654   0.710  -0.63967   3.57924   6.65535   0.62014   0.00000   0.000E+00   0.000E+00   1.000E+00
  99  6.86042170   0.710  -0.64437   3.57911   6.65713   0.62682   0.00000   0.000E+00   0.000E+00   1.000E+00
 100  6.86673376   0.710  -0.64906   3.57898   6.65892   0.63350   0.00000   0.000E+00   0.000E+00   1.000E+00
 101  6.87295540   0.710  -0.65375   3.57885   6.66070   0.64017   0.00000   0.000E+00   0.000E+00   1.000E+00
 102  6.87908917   0.710  -0.65824   3.57873   6.66239   0.64664   0.00000   0.000E+00   0.000E+00   1.000E+00
 103  6.88513751   0.710  -0.66263   3.57862   6.66404   0.65298   0.00000   0.000E+00   0.000E+00   1.000E+00
 104  6.89110277   0.710  -0.66701   3.57850   6.66568   0.65933   0.00000   0.000E+00   0.000E+00   1.000E+00
 105  6.89698721   0.710  -0.67139   3.57839   6.66733   0.66568   0.00000   0.000E+00   0.000E+00   1.000E+00
 106  6.90279298   0.710  -0.67567   3.57828   6.66893   0.67191   0.00000   0.000E+00   0.000E+00   1.000E+00
 107  6.90852216   0.710  -0.67976   3.57817   6.67044   0.67795   0.00000   0.000E+00   0.000E+00   1.000E+00
 108  6.91417674   0.710  -0.68386   3.57807   6.67196   0.68398   0.00000   0.000E+00   0.000E+00   1.000E+00
 109  6.91975864   0.710  -0.68796   3.57796   6.67348   0.69002   0.00000   0.000E+00   0.000E+00   1.000E+00
 110  6.92526971   0.710  -0.69205   3.57786   6.67500   0.69606   0.00000   0.000E+00   0.000E+00   1.000E+00
 111  6.93071173   0.710  -0.69592   3.57776   6.67642   0.70185   0.00000   0.000E+00   0.000E+00   1.000E+00
 112  6.93608639   0.710  -0.69973   3.57767   6.67783   0.70760   0.00000   0.000E+00   0.000E+00   1.000E+00
 113  6.94139535   0.710  -0.70355   3.57757   6.67923   0.71334   0.00000   0.000E+00   0.000E+00   1.000E+00
 114  6.94664020   0.710  -0.70736   3.57748   6.68063   0.71908   0.00000   0.000E+00   0.000E+00   1.000E+00
 115  6.95182246   0.710  -0.71118   3.57738   6.68204   0.72482   0.00000   0.000E+00   0.000E+00   1.000E+00
 116  6.95694361   0.710  -0.71475   3.57730   6.68334   0.73030   0.00000   1.809E-04   0.000E+00   9.998E-01
 117  6.96200507   0.710  -0.71832   3.57722   6.68463   0.73576   0.00000   3.717E-04   0.000E+00   9.996E-01
 118  6.96700823   0.710  -0.72188   3.57713   6.68593   0.74123   0.00000   5.625E-04   0.000E+00   9.994E-01
 119  6.97195441   0.710  -0.72544   3.57705   6.68723   0.74670   0.00000   7.533E-04   0.000E+00   9.992E-01
 120  6.97684488   0.710  -0.72900   3.57696   6.68852   0.75216   0.00000   9.442E-04   0.000E+00   9.991E-01
 121  6.98168090   0.710  -0.73238   3.57689   6.68975   0.75744   0.00000   1.000E-03   0.000E+00   9.990E-01
 122  6.98646366   0.710  -0.73568   3.57681   6.69095   0.76264   0.00000   1.000E-03   0.000E+00   9.990E-01
 123  6.99119432   0.710  -0.73899   3.57674   6.69215   0.76783   0.00000   1.000E-03   0.000E+00   9.990E-01
 124  6.99587401   0.710  -0.74229   3.57666   6.69335   0.77303   0.00000   1.000E-03   0.000E+00   9.990E-01
 125  7.00050381   0.710  -0.74560   3.57659   6.69455   0.77823   0.00000   1.000E-03   0.000E+00   9.990E-01
 126  7.00508477   0.710  -0.74888   3.57651   6.69575   0.78341   0.00000   1.000E-03   0.000E+00   9.990E-01
 127  7.00961792   0.710  -0.75196   3.57645   6.69686   0.78836   0.00000   1.000E-03   0.000E+00   9.990E-01
 128  7.01410424   0.710  -0.75503   3.57638   6.69798   0.79330   0.00000   1.000E-03   0.000E+00   9.990E-01
 129  7.01854469   0.710  -0.75810   3.57631   6.69910   0.79825   0.00000   1.000E-03   0.000E+00   9.990E-01
 130  7.02294019   0.710  -0.76118   3.57624   6.70021   0.80320   0.00000   1.000E-03   0.000E+00   9.990E-01
 131  7.02729166   0.710  -0.76425   3.57618   6.70133   0.80815   0.00000   1.000E-03   0.000E+00   9.990E-01
 132  7.03159995   0.710  -0.76732   3.57611   6.70244   0.81309   0.00000   1.000E-03   0.000E+00   9.990E-01
 133  7.03586593   0.710  -0.77016   3.57605   6.70348   0.81779   0.00000   1.000E-03   0.000E+00   9.990E-01
 134  7.04009041   0.710  -0.77301   3.57599   6.70452   0.82250   0.00000   1.000E-03   0.000E+00   9.990E-01
 135  7.04427419   0.710  -0.77585   3.57593   6.70555   0.82720   0.00000   1.000E-03   0.000E+00   9.990E-01
 136  7.04841805   0.710  -0.77870   3.57587   6.70659   0.83191   0.00000   1.000E-03   0.000E+00   9.990E-01
 137  7.05252275   0.710  -0.78155   3.57582   6.70763   0.83661   0.00000   1.000E-03   0.000E+00   9.990E-01
 138  7.05658901   0.710  -0.78439   3.57576   6.70867   0.84132   0.00000   1.000E-03   0.000E+00   9.990E-01
 139  7.06061756   0.710  -0.78712   3.57570   6.70966   0.84588   0.00000   1.000E-03   0.000E+00   9.990E-01
 140  7.06460908   0.710  -0.78976   3.57566   6.71061   0.85032   0.00000   1.000E-03   0.000E+00   9.990E-01
 141  7.06856425   0.710  -0.79239   3.57561   6.71156   0.85475   0.00000   1.000E-03   0.000E+00   9.990E-01
 142  7.07248372   0.710  -0.79503   3.57556   6.71251   0.85919   0.00000   1.000E-03   0.000E+00   9.990E-01
 143  7.07636814   0.710  -0.79766   3.57551   6.71346   0.86363   0.00000   1.000E-03   0.000E+00   9.990E-01
 144  7.08021812   0.710  -0.80030   3.57546   6.71441   0.86806   0.00000   1.000E-03   0.000E+00   9.990E-01
 145  7.08403427   0.710  -0.80293   3.57541   6.71536   0.87250   0.00000   1.000E-03   0.000E+00   9.990E-01
 146  7.08781718   0.710  -0.80546   3.57537   6.71628   0.87685   0.00000   1.066E-03   0.000E+00   9.989E-01
 147  7.09156742   0.710  -0.80789   3.57533   6.71719   0.88110   0.00000   1.198E-03   0.000E+00   9.988E-01
 148  7.09528556   0.710  -0.81032   3.57528   6.71809   0.88535   0.00000   1.330E-03   0.000E+00   9.987E-01
 149  7.09897213   0.710  -0.81275   3.57524   6.71900   0.88960   0.00000   1.461E-03   0.000E+00   9.985E-01
 150  7.10262767   0.710  -0.81518   3.57520   6.71990   0.89385   0.00000   1.593E-03   0.000E+00   9.984E-01
 151  7.10625271   0.710  -0.81760   3.57516   6.72081   0.89811   0.00000   1.725E-03   0.000E+00   9.983E-01
 152  7.10984773   0.710  -0.82003   3.57512   6.72171   0.90236   0.00000   1.856E-03   0.000E+00   9.981E-01
 153  7.11341324   0.710  -0.82246   3.57507   6.72262   0.90661   0.00000   1.988E-03   0.000E+00   9.980E-01
 154  7.11694971   0.710  -0.82471   3.57504   6.72347   0.91067   0.00000   2.000E-03   0.000E+00   9.980E-01
 155  7.12045762   0.710  -0.82695   3.57501   6.72431   0.91471   0.00000   2.000E-03   0.000E+00   9.980E-01
 156  7.12393742   0.710  -0.82918   3.57498   6.72516   0.91874   0.00000   2.000E-03   0.000E+00   9.980E-01
 157  7.12738956   0.710  -0.83141   3.57494   6.72600   0.92278   0.00000   2.000E-03   0.000E+00   9.980E-01
 158  7.13081448   0.710  -0.83364   3.57491   6.72684   0.92682   0.00000   2.000E-03   0.000E+00   9.980E-01
 159  7.13421259   0.710  -0.83588   3.57488   6.72769   0.93086   0.00000   2.000E-03   0.000E+00   9.980E-01
 160  7.13758433   0.710  -0.83811   3.57485   6.72853   0.93490   0.00000   2.000E-03   0.000E+00   9.980E-01
 161  7.14093009   0.710  -0.84034   3.57481   6.72937   0.93894   0.00000   2.000E-03   0.000E+00   9.980E-01
 162  7.14425027   0.710  -0.84242   3.57479   6.73017   0.94280   0.00000   2.000E-03   0.000E+00   9.980E-01
 163  7.14754526   0.710  -0.84447   3.57476   6.73096   0.94664   0.00000   2.000E-03   0.000E+00   9.980E-01
 164  7.15081544   0.710  -0.84652   3.57473   6.73175   0.95048   0.00000   2.000E-03   0.000E+00   9.980E-01
 165  7.15406119   0.710  -0.84858   3.57470   6.73254   0.95432   0.00000   2.000E-03   0.000E+00   9.980E-01
 166  7.15728285   0.710  -0.85063   3.57468   6.73332   0.95816   0.00000   2.000E-03   0.000E+00   9.980E-01
 167  7.16048079   0.710  -0.85268   3.57465   6.73411   0.96199   0.00000   2.000E-03   0.000E+00   9.980E-01
 168  7.16365535   0.710  -0.85474   3.57462   6.73490   0.96583   0.00000   2.000E-03   0.000E+00   9.980E-01
 169  7.16680688   0.710  -0.85679   3.57460   6.73569   0.96967   0.00000   2.000E-03   0.000E+00   9.980E-01
 170  7.16993570   0.710  -0.85877   3.57457   6.73646   0.97344   0.00000   2.044E-03   0.000E+00   9.980E-01
 171  7.17304214   0.710  -0.86065   3.57455   6.73720   0.97709   0.00000   2.155E-03   0.000E+00   9.978E-01
 172  7.17612652   0.710  -0.86253   3.57453   6.73794   0.98075   0.00000   2.267E-03   0.000E+00   9.977E-01
 173  7.17918915   0.710  -0.86441   3.57452   6.73868   0.98440   0.00000   2.379E-03   0.000E+00   9.976E-01
 174  7.18223033   0.710  -0.86629   3.57450   6.73942   0.98806   0.00000   2.491E-03   0.000E+00   9.975E-01
 175  7.18525037   0.710  -0.86816   3.57448   6.74017   0.99171   0.00000   2.603E-03   0.000E+00   9.974E-01
 176  7.18824955   0.710  -0.87004   3.57446   6.74091   0.99537   0.00000   2.714E-03   0.000E+00   9.973E-01
 177  7.19122816   0.710  -0.87192   3.57444   6.74165   0.99902   0.00000   2.826E-03   0.000E+00   9.972E-01
 178  7.19418647   0.710  -0.87380   3.57442   6.74239   1.00268   0.00000   2.938E-03   0.000E+00   9.971E-01
 179  7.19712478   0.710  -0.87560   3.57440   6.74311   1.00626   0.00000   3.047E-03   0.000E+00   9.970E-01
 180  7.20004334   0.710  -0.87732   3.57439   6.74381   1.00974   0.00000   3.153E-03   0.000E+00   9.968E-01
 181  7.20294241   0.710  -0.87904   3.57438   6.74451   1.01322   0.00000   3.259E-03   0.000E+00   9.967E-01
 182  7.20582226   0.710  -0.88076   3.57437   6.74521   1.01670   0.00000   3.366E-03   0.000E+00   9.966E-01
 183  7.20868314   0.710  -0.88248   3.57436   6.74590   1.02019   0.00000   3.472E-03   0.000E+00   9.965E-01
 184  7.21152530   0.710  -0.88420   3.57435   6.74660   1.02367   0.00000   3.578E-03   0.000E+00   9.964E-01
 185  7.21434898   0.710  -0.88592   3.57433   6.74730   1.02715   0.00000   3.684E-03   0.000E+00   9.963E-01
 186  7.21715441   0.710  -0.88764   3.57432   6.74800   1.03063   0.00000   3.790E-03   0.000E+00   9.962E-01
 187  7.21994185   0.710  -0.88936   3.57431   6.74870   1.03411   0.00000   3.896E-03   0.000E+00   9.961E-01
 188  7.22271150   0.710  -0.89108   3.57430   6.74940   1.03759   0.00000   4.002E-03   0.000E+00   9.960E-01
 189  7.22546361   0.710  -0.89265   3.57429   6.75005   1.04091   0.00000   4.103E-03   0.000E+00   9.959E-01
 190  7.22819838   0.710  -0.89422   3.57429   6.75071   1.04424   0.00000   4.204E-03   0.000E+00   9.958E-01
 191  7.23091604   0.710  -0.89579   3.57428   6.75137   1.04756   0.00000   4.305E-03   0.000E+00   9.957E-01
 192  7.23361680   0.710  -0.89736   3.57428   6.75203   1.05088   0.00000   4.406E-03   0.000E+00   9.956E-01
 193  7.23630087   0.710  -0.89893   3.57427   6.75269   1.05420   0.00000   4.507E-03   0.000E+00   9.955E-01
 194  7.23896845   0.710  -0.90050   3.57427   6.75335   1.05753   0.00000   4.608E-03   0.000E+00   9.954E-01
 195  7.24161975   0.710  -0.90207   3.57426   6.75401   1.06085   0.00000   4.709E-03   0.000E+00   9.953E-01
 196  7.24425496   0.710  -0.90364   3.57426   6.75466   1.06417   0.00000   4.810E-03   0.000E+00   9.952E-01
 197  7.24687427   0.710  -0.90521   3.57425   6.75532   1.06749   0.00000   4.911E-03   0.000E+00   9.951E-01
 198  7.24947788   0.710  -0.90676   3.57425   6.75598   1.07080   0.00000   5.012E-03   0.000E+00   9.950E-01
 199  7.25206598   0.710  -0.90819   3.57425   6.75660   1.07397   0.00000   5.108E-03   0.000E+00   9.949E-01
 200  7.25463875   0.710  -0.90963   3.57425   6.75723   1.07714   0.00000   5.204E-03   0.000E+00   9.948E-01
 201  7.25719636   0.710  -0.91106   3.57425   6.75786   1.08031   0.00000   5.300E-03   0.000E+00   9.947E-01
 202  7.25973900   0.710  -0.91249   3.57425   6.75848   1.08348   0.00000   5.397E-03   0.000E+00   9.946E-01
 203  7.26226684   0.710  -0.91392   3.57425   6.75911   1.08665   0.00000   5.493E-03   0.000E+00   9.945E-01
 204  7.26478005   0.710  -0.91535   3.57426   6.75973   1.08982   0.00000   5.589E-03   0.000E+00   9.944E-01
 205  7.26727880   0.710  -0.91678   3.57426   6.76036   1.09299   0.00000   5.685E-03   0.000E+00   9.943E-01
 206  7.26976326   0.710  -0.91821   3.57426   6.76099   1.09616   0.00000   5.781E-03   0.000E+00   9.942E-01
 207  7.27223358   0.710  -0.91964   3.57426   6.76161   1.09934   0.00000   5.878E-03   0.000E+00   9.941E-01
 208  7.27468994   0.710  -0.92107   3.57426   6.76224   1.10251   0.00000   5.974E-03   0.000E+00   9.940E-01
 209  7.27713248   0.710  -0.92241   3.57427   6.76284   1.10557   0.00000   6.067E-03   0.000E+00   9.939E-01
 210  7.27956135   0.710  -0.92371   3.57427   6.76344   1.10860   0.00000   6.159E-03   0.000E+00   9.938E-01
 211  7.28197672   0.710  -0.92501   3.57428   6.76403   1.11164   0.00000   6.250E-03   0.000E+00   9.937E-01
 212  7.28437873   0.710  -0.92631   3.57429   6.76463   1.11467   0.00000   6.342E-03   0.000E+00   9.937E-01
 213  7.28676753   0.710  -0.92761   3.57429   6.76523   1.11770   0.00000   6.434E-03   0.000E+00   9.936E-01
 214  7.28914326   0.710  -0.92891   3.57430   6.76582   1.12073   0.00000   6.526E-03   0.000E+00   9.935E-01
 215  7.29150607   0.710  -0.93021   3.57431   6.76642   1.12376   0.00000   6.618E-03   0.000E+00   9.934E-01
 216  7.29385609   0.710  -0.93151   3.57432   6.76701   1.12679   0.00000   6.709E-03   0.000E+00   9.933E-01
 217  7.29619346   0.710  -0.93281   3.57432   6.76761   1.12982   0.00000   6.801E-03   0.000E+00   9.932E-01
 218  7.29851832   0.710  -0.93411   3.57433   6.76821   1.13285   0.00000   6.893E-03   0.000E+00   9.931E-01
 219  7.30083080   0.710  -0.93541   3.57434   6.76880   1.13588   0.00000   6.985E-03   0.000E+00   9.930E-01
 220  7.30313103   0.710  -0.93661   3.57435   6.76938   1.13880   0.00000   7.073E-03   0.000E+00   9.929E-01
 221  7.30541914   0.710  -0.93779   3.57437   6.76995   1.14170   0.00000   7.161E-03   0.000E+00   9.928E-01
 222  7.30769526   0.710  -0.93897   3.57438   6.77052   1.14460   0.00000   7.249E-03   0.000E+00   9.928E-01
 223  7.30995952   0.710  -0.94014   3.57439   6.77109   1.14750   0.00000   7.336E-03   0.000E+00   9.927E-01
 224  7.31221203   0.710  -0.94132   3.57441   6.77166   1.15040   0.00000   7.424E-03   0.000E+00   9.926E-01
 225  7.31445292   0.710  -0.94250   3.57442   6.77223   1.15330   0.00000   7.512E-03   0.000E+00   9.925E-01
 226  7.31668230   0.710  -0.94367   3.57444   6.77280   1.15620   0.00000   7.599E-03   0.000E+00   9.924E-01
 227  7.31890030   0.710  -0.94485   3.57445   6.77337   1.15910   0.00000   7.687E-03   0.000E+00   9.923E-01
 228  7.32110703   0.710  -0.94603   3.57446   6.77394   1.16200   0.00000   7.775E-03   0.000E+00   9.922E-01
 229  7.32330260   0.710  -0.94721   3.57448   6.77451   1.16490   0.00000   7.863E-03   0.000E+00   9.921E-01
 230  7.32548713   0.710  -0.94838   3.57449   6.77508   1.16780   0.00000   7.950E-03   0.000E+00   9.920E-01
 231  7.32766073   0.710  -0.94951   3.57451   6.77564   1.17064   0.00000   8.073E-03   0.000E+00   9.919E-01
 232  7.32982350   0.710  -0.95057   3.57453   6.77618   1.17342   0.00000   8.241E-03   0.000E+00   9.918E-01
 233  7.33197555   0.710  -0.95164   3.57455   6.77673   1.17620   0.00000   8.409E-03   0.000E+00   9.916E-01
 234  7.33411699   0.710  -0.95270   3.57457   6.77728   1.17897   0.00000   8.576E-03   0.000E+00   9.914E-01
 235  7.33624793   0.710  -0.95376   3.57459   6.77782   1.18175   0.00000   8.744E-03   0.000E+00   9.913E-01
 236  7.33836846   0.710  -0.95482   3.57460   6.77837   1.18453   0.00000   8.912E-03   0.000E+00   9.911E-01
 237  7.34047869   0.710  -0.95589   3.57462   6.77892   1.18730   0.00000   9.080E-03   0.000E+00   9.909E-01
 238  7.34257871   0.710  -0.95695   3.57464   6.77946   1.19008   0.00000   9.248E-03   0.000E+00   9.908E-01
 239  7.34466863   0.710  -0.95801   3.57466   6.78001   1.19286   0.00000   9.416E-03   0.000E+00   9.906E-01
 240  7.34674853   0.710  -0.95907   3.57468   6.78055   1.19563   0.00000   9.584E-03   0.000E+00   9.904E-01
 241  7.34881853   0.710  -0.96014   3.57470   6.78110   1.19841   0.00000   9.752E-03   0.000E+00   9.902E-01
 242  7.35087870   0.710  -0.96120   3.57472   6.78165   1.20119   0.00000   9.919E-03   0.000E+00   9.901E-01
 243  7.35292915   0.710  -0.96220   3.57474   6.78218   1.20390   0.00000   1.008E-02   0.000E+00   9.899E-01
 244  7.35496996   0.710  -0.96316   3.57477   6.78271   1.20656   0.00000   1.024E-02   0.000E+00   9.898E-01
 245  7.35700123   0.710  -0.96411   3.57479   6.78324   1.20923   0.00000   1.041E-02   0.000E+00   9.896E-01
 246  7.35902304   0.710  -0.96506   3.57482   6.78376   1.21189   0.00000   1.057E-02   0.000E+00   9.894E-01
 247  7.36103549   0.710  -0.96601   3.57484   6.78429   1.21455   0.00000   1.073E-02   0.000E+00   9.893E-01
 248  7.36303865   0.710  -0.96697   3.57487   6.78481   1.21721   0.00000   1.089E-02   0.000E+00   9.891E-01
 249  7.36503261   0.710  -0.96792   3.57489   6.78534   1.21987   0.00000   1.105E-02   0.000E+00   9.890E-01
 250  7.36701746   0.710  -0.96887   3.57492   6.78587   1.22253   0.00000   1.121E-02   0.000E+00   9.888E-01
 251  7.36899328   0.710  -0.96982   3.57494   6.78639   1.22519   0.00000   1.137E-02   0.000E+00   9.886E-01
 252  7.37096015   0.710  -0.97077   3.57497   6.78692   1.22785   0.00000   1.153E-02   0.000E+00   9.885E-01
 253  7.37291815   0.710  -0.97173   3.57499   6.78744   1.23052   0.00000   1.169E-02   0.000E+00   9.883E-01
 254  7.37486737   0.710  -0.97268   3.57502   6.78797   1.23318   0.00000   1.185E-02   0.000E+00   9.881E-01
 255  7.37680788   0.710  -0.97362   3.57504   6.78849   1.23583   0.00000   1.202E-02   0.000E+00   9.880E-01
 256  7.37873975   0.710  -0.97447   3.57507   6.78900   1.23838   0.00000   1.225E-02   0.000E+00   9.877E-01
 257  7.38066307   0.710  -0.97532   3.57510   6.78951   1.24094   0.00000   1.248E-02   0.000E+00   9.875E-01
 258  7.38257791   0.710  -0.97617   3.57514   6.79001   1.24349   0.00000   1.271E-02   0.000E+00   9.873E-01
 259  7.38448434   0.710  -0.97702   3.57517   6.79052   1.24605   0.00000   1.295E-02   0.000E+00   9.871E-01
 260  7.38638244   0.710  -0.97787   3.57520   6.79103   1.24860   0.00000   1.318E-02   0.000E+00   9.868E-01
 261  7.38827229   0.710  -0.97872   3.57523   6.79154   1.25115   0.00000   1.341E-02   0.000E+00   9.866E-01
 262  7.39015394   0.710  -0.97958   3.57526   6.79204   1.25371   0.00000   1.364E-02   0.000E+00   9.864E-01
 263  7.39202748   0.710  -0.98043   3.57529   6.79255   1.25626   0.00000   1.387E-02   0.000E+00   9.861E-01
 264  7.39389296   0.710  -0.98128   3.57532   6.79306   1.25882   0.00000   1.410E-02   0.000E+00   9.859E-01
 265  7.39575047   0.710  -0.98213   3.57535   6.79356   1.26137   0.00000   1.433E-02   0.000E+00   9.857E-01
 266  7.39760007   0.710  -0.98298   3.57538   6.79407   1.26392   0.00000   1.457E-02   0.000E+00   9.854E-01
 267  7.39944183   0.710  -0.98383   3.57541   6.79458   1.26648   0.00000   1.480E-02   0.000E+00   9.852E-01
 268  7.40127580   0.710  -0.98466   3.57544   6.79508   1.26902   0.00000   1.503E-02   0.000E+00   9.850E-01
 269  7.40310207   0.710  -0.98542   3.57548   6.79557   1.27147   0.00000   1.525E-02   0.000E+00   9.847E-01
 270  7.40492069   0.710  -0.98617   3.57552   6.79606   1.27392   0.00000   1.547E-02   0.000E+00   9.845E-01
 271  7.40673172   0.710  -0.98692   3.57556   6.79655   1.27638   0.00000   1.570E-02   0.000E+00   9.843E-01
 272  7.40853523   0.710  -0.98767   3.57559   6.79704   1.27883   0.00000   1.592E-02   0.000E+00   9.841E-01
 273  7.41033129   0.710  -0.98843   3.57563   6.79754   1.28128   0.00000   1.614E-02   0.000E+00   9.839E-01
 274  7.41211995   0.710  -0.98918   3.57567   6.79803   1.28373   0.00000   1.636E-02   0.000E+00   9.836E-01
 275  7.41390127   0.710  -0.98993   3.57570   6.79852   1.28619   0.00000   1.658E-02   0.000E+00   9.834E-01
 276  7.41567531   0.710  -0.99068   3.57574   6.79901   1.28864   0.00000   1.681E-02   0.000E+00   9.832E-01
 277  7.41744214   0.710  -0.99144   3.57578   6.79950   1.29109   0.00000   1.703E-02   0.000E+00   9.830E-01
 278  7.41920181   0.710  -0.99219   3.57582   6.79999   1.29354   0.00000   1.725E-02   0.000E+00   9.827E-01
 279  7.42095438   0.710  -0.99294   3.57585   6.80048   1.29599   0.00000   1.747E-02   0.000E+00   9.825E-01
 280  7.42269990   0.710  -0.99369   3.57589   6.80097   1.29845   0.00000   1.770E-02   0.000E+00   9.823E-01
 281  7.42443843   0.710  -0.99445   3.57593   6.80146   1.30090   0.00000   1.792E-02   0.000E+00   9.821E-01
 282  7.42617004   0.710  -0.99514   3.57597   6.80194   1.30329   0.00000   1.814E-02   0.000E+00   9.819E-01
 283  7.42789477   0.710  -0.99580   3.57601   6.80242   1.30565   0.00000   1.835E-02   0.000E+00   9.816E-01
 284  7.42961267   0.710  -0.99646   3.57605   6.80290   1.30801   0.00000   1.856E-02   0.000E+00   9.814E-01
 285  7.43132381   0.710  -0.99712   3.57609   6.80337   1.31036   0.00000   1.878E-02   0.000E+00   9.812E-01
 286  7.43302823   0.710  -0.99778   3.57614   6.80385   1.31272   0.00000   1.899E-02   0.000E+00   9.810E-01
 287  7.43472599   0.710  -0.99843   3.57618   6.80433   1.31508   0.00000   1.921E-02   0.000E+00   9.808E-01
 288  7.43641713   0.710  -0.99909   3.57622   6.80480   1.31744   0.00000   1.942E-02   0.000E+00   9.806E-01
 289  7.43810172   0.710  -0.99975   3.57626   6.80528   1.31979   0.00000   1.963E-02   0.000E+00   9.804E-01
 290  7.43977980   0.710  -1.00041   3.57630   6.80575   1.32215   0.00000   1.985E-02   0.000E+00   9.802E-01
 291  7.44145142   0.710  -1.00107   3.57635   6.80623   1.32451   0.00000   2.006E-02   0.000E+00   9.799E-01
 292  7.44311663   0.710  -1.00173   3.57639   6.80671   1.32687   0.00000   2.028E-02   0.000E+00   9.797E-01
 293  7.44477547   0.710  -1.00239   3.57643   6.80718   1.32922   0.00000   2.049E-02   0.000E+00   9.795E-01
 294  7.44642801   0.710  -1.00305   3.57647   6.80766   1.33158   0.00000   2.070E-02   0.000E+00   9.793E-01
 295  7.44807428   0.710  -1.00371   3.57651   6.80814   1.33394   0.00000   2.092E-02   0.000E+00   9.791E-01
 296  7.44971434   0.710  -1.00431   3.57656   6.80860   1.33624   0.00000   2.117E-02   0.000E+00   9.788E-01
 297  7.45134822   0.710  -1.00488   3.57661   6.80907   1.33851   0.00000   2.144E-02   0.000E+00   9.786E-01
 298  7.45297599   0.710  -1.00545   3.57666   6.80953   1.34078   0.00000   2.172E-02   0.000E+00   9.783E-01
 299  7.45459767   0.710  -1.00602   3.57670   6.81000   1.34304   0.00000   2.199E-02   0.000E+00   9.780E-01
 300  7.45621332   0.710  -1.00659   3.57675   6.81046   1.34531   0.00000   2.227E-02   0.000E+00   9.777E-01
 301  7.45782298   0.710  -1.00716   3.57680   6.81092   1.34758   0.00000   2.254E-02   0.000E+00   9.775E-01
 302  7.45942670   0.710  -1.00773   3.57685   6.81139   1.34985   0.00000   2.282E-02   0.000E+00   9.772E-01
 303  7.46102452   0.710  -1.00830   3.57690   6.81185   1.35211   0.00000   2.309E-02   0.000E+00   9.769E-01
 304  7.46261648   0.710  -1.00886   3.57694   6.81231   1.35438   0.00000   2.337E-02   0.000E+00   9.766E-01
 305  7.46420262   0.710  -1.00943   3.57699   6.81278   1.35665   0.00000   2.364E-02   0.000E+00   9.764E-01
 306  7.46578300   0.710  -1.01000   3.57704   6.81324   1.35891   0.00000   2.392E-02   0.000E+00   9.761E-01
 307  7.46735764   0.710  -1.01057   3.57709   6.81370   1.36118   0.00000   2.419E-02   0.000E+00   9.758E-01
 308  7.46892660   0.710  -1.01114   3.57714   6.81417   1.36345   0.00000   2.447E-02   0.000E+00   9.755E-01
 309  7.47048991   0.710  -1.01171   3.57718   6.81463   1.36572   0.00000   2.474E-02   0.000E+00   9.753E-01
 310  7.47204761   0.710  -1.01228   3.57723   6.81509   1.36798   0.00000   2.502E-02   0.000E+00   9.750E-01
 311  7.47359974   0.710  -1.01276   3.57729   6.81555   1.37016   0.00000   2.535E-02   0.000E+00   9.747E-01
 312  7.47514635   0.710  -1.01324   3.57734   6.81600   1.37234   0.00000   2.568E-02   0.000E+00   9.743E-01
 313  7.47668747   0.710  -1.01373   3.57740   6.81645   1.37453   0.00000   2.601E-02   0.000E+00   9.740E-01
 314  7.47822314   0.710  -1.01421   3.57745   6.81690   1.37671   0.00000   2.634E-02   0.000E+00   9.737E-01
 315  7.47975339   0.710  -1.01469   3.57750   6.81736   1.37889   0.00000   2.667E-02   0.000E+00   9.733E-01
 316  7.48127828   0.710  -1.01518   3.57756   6.81781   1.38107   0.00000   2.700E-02   0.000E+00   9.730E-01
 317  7.48279783   0.710  -1.01566   3.57761   6.81826   1.38326   0.00000   2.734E-02   0.000E+00   9.727E-01
 318  7.48431208   0.710  -1.01614   3.57767   6.81871   1.38544   0.00000   2.767E-02   0.000E+00   9.723E-01
 319  7.48582107   0.710  -1.01663   3.57772   6.81916   1.38762   0.00000   2.800E-02   0.000E+00   9.720E-01
 320  7.48732483   0.710  -1.01711   3.57778   6.81962   1.38980   0.00000   2.833E-02   0.000E+00   9.717E-01
 321  7.48882341   0.710  -1.01759   3.57783   6.82007   1.39198   0.00000   2.866E-02   0.000E+00   9.713E-01
 322  7.49031683   0.710  -1.01808   3.57788   6.82052   1.39417   0.00000   2.899E-02   0.000E+00   9.710E-01
 323  7.49180514   0.710  -1.01856   3.57794   6.82097   1.39635   0.00000   2.932E-02   0.000E+00   9.707E-01
 324  7.49328836   0.710  -1.01904   3.57799   6.82143   1.39853   0.00000   2.965E-02   0.000E+00   9.703E-01
 325  7.49476653   0.710  -1.01953   3.57805   6.82188   1.40071   0.00000   2.998E-02   0.000E+00   9.700E-01
 326  7.49623969   0.710  -1.01993   3.57811   6.82232   1.40282   0.00000   3.036E-02   0.000E+00   9.696E-01
 327  7.49770787   0.710  -1.02033   3.57817   6.82277   1.40492   0.00000   3.075E-02   0.000E+00   9.693E-01
 328  7.49917111   0.710  -1.02073   3.57823   6.82321   1.40702   0.00000   3.113E-02   0.000E+00   9.689E-01
 329  7.50062943   0.710  -1.02113   3.57829   6.82365   1.40912   0.00000   3.152E-02   0.000E+00   9.685E-01
 330  7.50208286   0.710  -1.02153   3.57835   6.82410   1.41122   0.00000   3.190E-02   0.000E+00   9.681E-01
 331  7.50353145   0.710  -1.02193   3.57841   6.82454   1.41332   0.00000   3.228E-02   0.000E+00   9.677E-01
 332  7.50497523   0.710  -1.02233   3.57847   6.82498   1.41542   0.00000   3.267E-02   0.000E+00   9.673E-01
 333  7.50641422   0.710  -1.02273   3.57853   6.82543   1.41752   0.00000   3.305E-02   0.000E+00   9.670E-01
 334  7.50784846   0.710  -1.02313   3.57859   6.82587   1.41962   0.00000   3.343E-02   0.000E+00   9.666E-01
 335  7.50927798   0.710  -1.02352   3.57865   6.82631   1.42172   0.00000   3.382E-02   0.000E+00   9.662E-01
 336  7.51070281   0.710  -1.02392   3.57871   6.82676   1.42382   0.00000   3.420E-02   0.000E+00   9.658E-01
 337  7.51212298   0.710  -1.02432   3.57877   6.82720   1.42592   0.00000   3.458E-02   0.000E+00   9.654E-01
 338  7.51353852   0.710  -1.02472   3.57883   6.82764   1.42802   0.00000   3.497E-02   0.000E+00   9.650E-01
 339  7.51494946   0.710  -1.02512   3.57889   6.82809   1.43012   0.00000   3.535E-02   0.000E+00   9.647E-01
 340  7.51635583   0.710  -1.02552   3.57895   6.82853   1.43222   0.00000   3.573E-02   0.000E+00   9.643E-01
 341  7.51775766   0.710  -1.02590   3.57901   6.82897   1.43429   0.00000   3.613E-02   0.000E+00   9.639E-01
 342  7.51915498   0.710  -1.02622   3.57908   6.82941   1.43632   0.00000   3.656E-02   0.000E+00   9.634E-01
 343  7.52054783   0.710  -1.02654   3.57914   6.82984   1.43834   0.00000   3.699E-02   0.000E+00   9.630E-01
 344  7.52193621   0.710  -1.02686   3.57921   6.83028   1.44036   0.00000   3.743E-02   0.000E+00   9.626E-01
 345  7.52332018   0.710  -1.02718   3.57928   6.83071   1.44239   0.00000   3.786E-02   0.000E+00   9.621E-01
 346  7.52469975   0.710  -1.02750   3.57934   6.83115   1.44441   0.00000   3.829E-02   0.000E+00   9.617E-01
 347  7.52607494   0.710  -1.02781   3.57941   6.83158   1.44644   0.00000   3.872E-02   0.000E+00   9.613E-01
 348  7.52744580   0.710  -1.02813   3.57948   6.83202   1.44846   0.00000   3.915E-02   0.000E+00   9.608E-01
 349  7.52881235   0.710  -1.02845   3.57954   6.83245   1.45048   0.00000   3.959E-02   0.000E+00   9.604E-01
 350  7.53017461   0.710  -1.02877   3.57961   6.83289   1.45251   0.00000   4.002E-02   0.000E+00   9.600E-01
 351  7.53153260   0.710  -1.02909   3.57968   6.83332   1.45453   0.00000   4.045E-02   0.000E+00   9.595E-01
 352  7.53288637   0.710  -1.02941   3.57974   6.83376   1.45655   0.00000   4.088E-02   0.000E+00   9.591E-01
 353  7.53423593   0.710  -1.02973   3.57981   6.83419   1.45858   0.00000   4.132E-02   0.000E+00   9.587E-01
 354  7.53558131   0.710  -1.03005   3.57988   6.83463   1.46060   0.00000   4.175E-02   0.000E+00   9.583E-01
 355  7.53692253   0.710  -1.03037   3.57994   6.83506   1.46262   0.00000   4.218E-02   0.000E+00   9.578E-01
 356  7.53825962   0.710  -1.03069   3.58001   6.83550   1.46465   0.00000   4.261E-02   0.000E+00   9.574E-01
 357  7.53959261   0.710  -1.03100   3.58008   6.83593   1.46666   0.00000   4.304E-02   0.000E+00   9.570E-01
 358  7.54092152   0.710  -1.03125   3.58015   6.83636   1.46861   0.00000   4.346E-02   0.000E+00   9.565E-01
 359  7.54224638   0.710  -1.03149   3.58022   6.83679   1.47056   0.00000   4.388E-02   0.000E+00   9.561E-01
 360  7.54356721   0.710  -1.03174   3.58029   6.83722   1.47251   0.00000   4.429E-02   0.000E+00   9.557E-01
 361  7.54488403   0.710  -1.03198   3.58037   6.83764   1.47446   0.00000   4.471E-02   0.000E+00   9.553E-01
 362  7.54619687   0.710  -1.03222   3.58044   6.83807   1.47641   0.00000   4.513E-02   0.000E+00   9.549E-01
 363  7.54750576   0.710  -1.03247   3.58051   6.83850   1.47836   0.00000   4.555E-02   0.000E+00   9.545E-01
 364  7.54881071   0.710  -1.03271   3.58058   6.83893   1.48031   0.00000   4.596E-02   0.000E+00   9.540E-01
 365  7.55011175   0.710  -1.03296   3.58065   6.83935   1.48226   0.00000   4.638E-02   0.000E+00   9.536E-01
 366  7.55140891   0.710  -1.03320   3.58073   6.83978   1.48420   0.00000   4.680E-02   0.000E+00   9.532E-01
 367  7.55270221   0.710  -1.03344   3.58080   6.84021   1.48615   0.00000   4.722E-02   0.000E+00   9.528E-01
 368  7.55399166   0.710  -1.03369   3.58087   6.84064   1.48810   0.00000   4.763E-02   0.000E+00   9.524E-01
 369  7.55527730   0.710  -1.03393   3.58094   6.84107   1.49005   0.00000   4.805E-02   0.000E+00   9.519E-01
 370  7.55655914   0.710  -1.03418   3.58102   6.84149   1.49200   0.00000   4.847E-02   0.000E+00   9.515E-01
 371  7.55783721   0.710  -1.03442   3.58109   6.84192   1.49395   0.00000   4.889E-02   0.000E+00   9.511E-01
 372  7.55911153   0.710  -1.03466   3.58116   6.84235   1.49590   0.00000   4.931E-02   0.000E+00   9.507E-01
 373  7.56038212   0.710  -1.03491   3.58123   6.84278   1.49785   0.00000   4.972E-02   0.000E+00   9.503E-01
 374  7.56164901   0.710  -1.03513   3.58131   6.84320   1.49977   0.00000   5.019E-02   0.000E+00   9.498E-01
 375  7.56291221   0.710  -1.03529   3.58139   6.84362   1.50164   0.00000   5.077E-02   0.000E+00   9.492E-01
 376  7.56417175   0.710  -1.03546   3.58146   6.84405   1.50352   0.00000   5.135E-02   0.000E+00   9.487E-01
 377  7.56542764   0.710  -1.03563   3.58154   6.84447   1.50539   0.00000   5.192E-02   0.000E+00   9.481E-01
 378  7.56667992   0.710  -1.03579   3.58162   6.84489   1.50727   0.00000   5.250E-02   0.000E+00   9.475E-01
 379  7.56792859   0.710  -1.03596   3.58170   6.84531   1.50914   0.00000   5.308E-02   0.000E+00   9.469E-01
 380  7.56917368   0.710  -1.03613   3.58178   6.84574   1.51102   0.00000   5.365E-02   0.000E+00   9.463E-01
 381  7.57041521   0.710  -1.03629   3.58186   6.84616   1.51289   0.00000   5.423E-02   0.000E+00   9.458E-01
 382  7.57165321   0.710  -1.03646   3.58194   6.84658   1.51477   0.00000   5.481E-02   0.000E+00   9.452E-01
 383  7.57288769   0.710  -1.03663   3.58202   6.84700   1.51664   0.00000   5.539E-02   0.000E+00   9.446E-01
 384  7.57411866   0.710  -1.03679   3.58210   6.84742   1.51852   0.00000   5.596E-02   0.000E+00   9.440E-01
 385  7.57534616   0.710  -1.03696   3.58218   6.84785   1.52039   0.00000   5.654E-02   0.000E+00   9.435E-01
 386  7.57657020   0.710  -1.03713   3.58225   6.84827   1.52227   0.00000   5.712E-02   0.000E+00   9.429E-01
 387  7.57779079   0.710  -1.03729   3.58233   6.84869   1.52414   0.00000   5.769E-02   0.000E+00   9.423E-01
 388  7.57900797   0.710  -1.03746   3.58241   6.84911   1.52602   0.00000   5.827E-02   0.000E+00   9.417E-01
 389  7.58022175   0.710  -1.03763   3.58249   6.84954   1.52789   0.00000   5.885E-02   0.000E+00   9.412E-01
 390  7.58143214   0.710  -1.03779   3.58257   6.84996   1.52977   0.00000   5.942E-02   0.000E+00   9.406E-01
 391  7.58263917   0.710  -1.03796   3.58265   6.85038   1.53164   0.00000   6.000E-02   0.000E+00   9.400E-01
 392  7.59014588   0.710  -1.03855   3.58319   6.85300   1.54296   0.00000   6.351E-02   0.000E+00   9.365E-01
 393  7.59752504   0.710  -1.03914   3.58373   6.85562   1.55428   0.00000   6.701E-02   0.000E+00   9.330E-01
 394  7.60478090   0.710  -1.03968   3.58427   6.85823   1.56553   0.00000   7.060E-02   0.000E+00   9.294E-01
 395  7.61191754   0.710  -1.03986   3.58485   6.86083   1.57639   0.00000   7.466E-02   0.000E+00   9.253E-01
 396  7.61893879   0.710  -1.04004   3.58542   6.86342   1.58726   0.00000   7.873E-02   0.000E+00   9.213E-01
 397  7.62584833   0.710  -1.04014   3.58600   6.86601   1.59804   0.00000   8.292E-02   0.000E+00   9.171E-01
 398  7.63264966   0.710  -1.03992   3.58661   6.86857   1.60844   0.00000   8.759E-02   0.000E+00   9.124E-01
 399  7.63934612   0.710  -1.03971   3.58722   6.87114   1.61885   0.00000   9.227E-02   0.000E+00   9.077E-01
 400  7.64594090   0.710  -1.03942   3.58783   6.87370   1.62916   0.00000   9.706E-02   0.000E+00   9.029E-01
 401  7.65243702   0.710  -1.03883   3.58847   6.87624   1.63912   0.00000   1.023E-01   0.000E+00   8.977E-01
 402  7.65883741   0.710  -1.03824   3.58910   6.87879   1.64908   0.00000   1.075E-01   0.000E+00   8.925E-01
 403  7.66514484   0.710  -1.03761   3.58975   6.88132   1.65897   0.00000   1.128E-01   0.000E+00   8.872E-01
 404  7.67136198   0.710  -1.03671   3.59041   6.88384   1.66847   0.00000   1.187E-01   0.000E+00   8.813E-01
 405  7.67749137   0.710  -1.03582   3.59107   6.88636   1.67797   0.00000   1.245E-01   0.000E+00   8.755E-01
 406  7.68353545   0.710  -1.03490   3.59173   6.88887   1.68744   0.00000   1.304E-01   0.000E+00   8.696E-01
 407  7.68949657   0.710  -1.03373   3.59241   6.89137   1.69648   0.00000   1.368E-01   0.000E+00   8.632E-01
 408  7.69537698   0.710  -1.03255   3.59310   6.89386   1.70552   0.00000   1.432E-01   0.000E+00   8.568E-01
 409  7.70117883   0.710  -1.03138   3.59378   6.89636   1.71456   0.00000   1.496E-01   0.000E+00   8.504E-01
 410  7.70690419   0.710  -1.02996   3.59447   6.89884   1.72315   0.00000   1.564E-01   0.000E+00   8.436E-01
 411  7.71255505   0.710  -1.02853   3.59517   6.90131   1.73171   0.00000   1.633E-01   0.000E+00   8.367E-01
 412  7.71813333   0.710  -1.02710   3.59587   6.90379   1.74027   0.00000   1.702E-01   0.000E+00   8.298E-01
 413  7.72364087   0.710  -1.02546   3.59658   6.90618   1.74839   0.00000   1.768E-01   0.000E+00   8.232E-01
 414  7.72907943   0.710  -1.02370   3.59729   6.90854   1.75629   0.00000   1.837E-01   0.000E+00   8.163E-01
 415  7.73445074   0.710  -1.02188   3.59801   6.91089   1.76401   0.00000   1.913E-01   0.000E+00   8.087E-01
 416  7.73975642   0.710  -1.01995   3.59875   6.91324   1.77158   0.00000   1.986E-01   0.000E+00   8.014E-01
 417  7.74499806   0.710  -1.01797   3.59949   6.91558   1.77900   0.00000   2.063E-01   0.000E+00   7.937E-01
 418  7.75017720   0.710  -1.01594   3.60024   6.91792   1.78628   0.00000   2.142E-01   0.000E+00   7.858E-01
 419  7.75529530   0.710  -1.01386   3.60099   6.92023   1.79341   0.00000   2.213E-01   0.000E+00   7.787E-01
 420  7.76035378   0.710  -1.01170   3.60176   6.92256   1.80040   0.00000   2.296E-01   0.000E+00   7.704E-01
 421  7.76535402   0.710  -1.00950   3.60253   6.92487   1.80722   0.00000   2.381E-01   0.000E+00   7.619E-01
 422  7.77029735   0.710  -1.00728   3.60330   6.92718   1.81389   0.00000   2.461E-01   0.000E+00   7.539E-01
 423  7.77518505   0.710  -1.00500   3.60409   6.92948   1.82042   0.00000   2.550E-01   0.000E+00   7.450E-01
 424  7.78001834   0.710  -1.00269   3.60488   6.93178   1.82680   0.00000   2.641E-01   0.000E+00   7.359E-01
 425  7.78479844   0.710  -1.00038   3.60568   6.93408   1.83304   0.00000   2.727E-01   0.000E+00   7.273E-01
 426  7.78952650   0.710  -0.99804   3.60648   6.93636   1.83911   0.00000   2.816E-01   0.000E+00   7.184E-01
 427  7.79420364   0.710  -0.99573   3.60727   6.93865   1.84502   0.00000   2.910E-01   0.000E+00   7.090E-01
 428  7.79883094   0.710  -0.99340   3.60806   6.94093   1.85077   0.00000   3.004E-01   0.000E+00   6.988E-01
 429  7.80340946   0.710  -0.99112   3.60886   6.94321   1.85635   0.00000   3.105E-01   0.000E+00   6.892E-01
 430  7.80794022   0.710  -0.98886   3.60964   6.94548   1.86178   0.00000   3.201E-01   0.000E+00   6.794E-01
 431  7.81242420   0.710  -0.98667   3.61041   6.94775   1.86703   0.00000   3.308E-01   0.000E+00   6.692E-01
 432  7.81686235   0.710  -0.98453   3.61117   6.95003   1.87211   0.00000   3.410E-01   0.000E+00   6.590E-01
 433  7.82125561   0.710  -0.98243   3.61191   6.95231   1.87700   0.00000   3.515E-01   0.000E+00   6.478E-01
 434  7.82560487   0.710  -0.98038   3.61266   6.95458   1.88169   0.00000   3.627E-01   0.000E+00   6.371E-01
 435  7.82991100   0.710  -0.97844   3.61338   6.95686   1.88616   0.00000   3.739E-01   0.000E+00   6.261E-01
 436  7.83417486   0.710  -0.97654   3.61409   6.95916   1.89043   0.00000   3.854E-01   0.000E+00   6.138E-01
 437  7.83839726   0.710  -0.97473   3.61478   6.96146   1.89449   0.00000   3.976E-01   0.000E+00   6.022E-01
 438  7.84257901   0.710  -0.97300   3.61546   6.96377   1.89832   0.00000   4.100E-01   0.000E+00   5.900E-01
 439  7.84672087   0.710  -0.97136   3.61611   6.96610   1.90192   0.00000   4.226E-01   0.000E+00   5.774E-01
 440  7.85082361   0.710  -0.96983   3.61674   6.96844   1.90527   0.00000   4.357E-01   0.000E+00   5.643E-01
 441  7.85488795   0.710  -0.96838   3.61736   6.97080   1.90837   0.00000   4.493E-01   0.000E+00   5.507E-01
 442  7.85891461   0.710  -0.96703   3.61795   6.97320   1.91119   0.00000   4.632E-01   0.000E+00   5.368E-01
 443  7.86290427   0.710  -0.96586   3.61851   6.97563   1.91368   0.00000   4.779E-01   0.000E+00   5.221E-01
 444  7.86685762   0.710  -0.96477   3.61905   6.97806   1.91593   0.00019   4.929E-01   1.824E-04   5.069E-01
 445  7.87077531   0.710  -0.96375   3.61958   6.98051   1.91786   0.00077   5.081E-01   7.440E-04   4.912E-01
 446  7.87465797   0.710  -0.96286   3.62008   6.98285   1.91953   0.00193   5.242E-01   1.000E-03   4.748E-01
 447  7.87850622   0.710  -0.96208   3.62055   6.98510   1.92097   0.00356   5.411E-01   1.000E-03   4.579E-01
 448  7.88232068   0.709  -0.96151   3.62097   6.98727   1.92216   0.00580   5.586E-01   1.000E-03   4.404E-01
 449  7.88610192   0.709  -0.96109   3.62137   6.98938   1.92317   0.00845   5.764E-01   1.000E-03   4.226E-01
 450  7.88985053   0.709  -0.96067   3.62176   6.99148   1.92416   0.01109   5.943E-01   1.000E-03   4.047E-01
 451  7.89356706   0.709  -0.96080   3.62204   6.99324   1.92440   0.01333   6.134E-01   1.000E-03   3.853E-01
 452  7.89725205   0.709  -0.96094   3.62231   6.99499   1.92463   0.01556   6.326E-01   1.000E-03   3.659E-01
 453  7.90090604   0.709  -0.96107   3.62259   6.99675   1.92487   0.01780   6.517E-01   1.000E-03   3.465E-01
 454  7.90452954   0.709  -0.96132   3.62283   6.99843   1.92497   0.02005   6.708E-01   1.026E-03   3.272E-01
 455  7.90812306   0.709  -0.96228   3.62292   6.99968   1.92431   0.02237   6.898E-01   1.198E-03   3.082E-01
 456  7.91168709   0.709  -0.96323   3.62301   7.00092   1.92365   0.02469   7.087E-01   1.370E-03   2.893E-01
 457  7.91522210   0.709  -0.96418   3.62310   7.00217   1.92299   0.02702   7.277E-01   1.543E-03   2.703E-01
 458  7.91872858   0.709  -0.96514   3.62319   7.00341   1.92233   0.02934   7.467E-01   1.715E-03   2.513E-01
 459  7.92220697   0.709  -0.96609   3.62328   7.00466   1.92167   0.03167   7.656E-01   1.888E-03   2.324E-01
 460  7.92565773   0.709  -0.96714   3.62334   7.00585   1.92054   0.03502   7.931E-01   2.000E-03   2.049E-01
 461  7.92908128   0.709  -0.96837   3.62333   7.00695   1.91853   0.04029   8.365E-01   2.000E-03   1.615E-01
 462  7.93247805   0.709  -0.96967   3.62331   7.00799   1.91643   0.04530   8.765E-01   2.000E-03   1.215E-01
 463  7.93584846   0.709  -0.97121   3.62324   7.00888   1.91409   0.04956   9.067E-01   2.000E-03   9.142E-02
 464  7.93919292   0.709  -0.97291   3.62313   7.00967   1.91169   0.05248   9.324E-01   2.000E-03   6.580E-02
 465  7.94251182   0.709  -0.97478   3.62298   7.01034   1.90926   0.05473   9.521E-01   2.000E-03   4.594E-02
 466  7.94580555   0.709  -0.97684   3.62279   7.01089   1.90687   0.05669   9.650E-01   2.000E-03   3.233E-02
 467  7.94907448   0.709  -0.97908   3.62258   7.01136   1.90456   0.05737   9.785E-01   2.000E-03   1.885E-02
 468  7.95231900   0.709  -0.98145   3.62233   7.01176   1.90233   0.05945   9.889E-01   2.000E-03   8.651E-03
 469  7.95553945   0.709  -0.98397   3.62204   7.01209   1.90018   0.05945   9.980E-01   2.000E-03  -3.433E-04
 470  7.95873620   0.709  -0.98660   3.62174   7.01235   1.89809   0.05945   1.007E+00   2.000E-03  -9.018E-03
 471  7.96190959   0.709  -0.98933   3.62141   7.01256   1.89608   0.06222   1.014E+00   2.163E-03  -1.654E-02
 472  7.96505997   0.709  -0.99217   3.62106   7.01270   1.89417   0.06222   1.020E+00   3.000E-03  -2.248E-02
 473  7.96818765   0.709  -0.99507   3.62069   7.01281   1.89234   0.06222   1.027E+00   3.000E-03  -2.897E-02
 474  7.97129297   0.709  -0.99803   3.62030   7.01286   1.89058   0.06222   1.032E+00   3.000E-03  -3.456E-02
 475  7.97437624   0.709  -1.00102   3.61990   7.01289   1.88889   0.06222   1.037E+00   3.000E-03  -3.963E-02
 476  7.97743778   0.709  -1.00404   3.61949   7.01287   1.88730   0.05945   1.041E+00   3.000E-03  -4.391E-02
 477  7.98047788   0.709  -1.00706   3.61907   7.01283   1.88579   0.05945   1.045E+00   3.000E-03  -4.744E-02
 478  7.98349686   0.709  -1.01008   3.61865   7.01276   1.88437   0.05945   1.048E+00   3.000E-03  -5.059E-02
 479  7.98649499   0.709  -1.01308   3.61821   7.01266   1.88303   0.05945   1.051E+00   3.000E-03  -5.331E-02
 480  7.98947256   0.709  -1.01603   3.61779   7.01255   1.88177   0.05945   1.053E+00   3.000E-03  -5.561E-02
 481  7.99242986   0.709  -1.01893   3.61737   7.01242   1.88059   0.05694   1.055E+00   3.000E-03  -5.758E-02
 482  7.99536716   0.709  -1.02176   3.61695   7.01227   1.87950   0.05669   1.056E+00   3.000E-03  -5.898E-02
 483  7.99828473   0.709  -1.02450   3.61653   7.01212   1.87849   0.05669   1.058E+00   3.000E-03  -6.003E-02
 484  8.00118282   0.709  -1.02712   3.61614   7.01195   1.87755   0.05640   1.058E+00   3.000E-03  -6.074E-02
 485  8.00406171   0.709  -1.02962   3.61575   7.01176   1.87669   0.05392   1.059E+00   3.000E-03  -6.114E-02
 486  8.00692164   0.709  -1.03203   3.61538   7.01158   1.87590   0.05392   1.059E+00   3.000E-03  -6.114E-02
 487  8.00976285   0.709  -1.03433   3.61502   7.01139   1.87518   0.05392   1.058E+00   3.000E-03  -6.102E-02
 488  8.01258561   0.709  -1.03652   3.61467   7.01119   1.87451   0.05121   1.058E+00   3.000E-03  -6.071E-02
 489  8.01539013   0.709  -1.03858   3.61434   7.01100   1.87392   0.05116   1.057E+00   2.000E-03  -5.995E-02
 490  8.01817665   0.709  -1.04052   3.61402   7.01079   1.87339   0.05116   1.057E+00   2.000E-03  -5.911E-02
 491  8.02094542   0.709  -1.04233   3.61372   7.01060   1.87291   0.05100   1.056E+00   2.000E-03  -5.823E-02
 492  8.02369664   0.709  -1.04402   3.61344   7.01039   1.87248   0.04879   1.055E+00   2.000E-03  -5.722E-02
 493  8.02643054   0.709  -1.04558   3.61317   7.01020   1.87211   0.04874   1.053E+00   2.000E-03  -5.588E-02
 494  8.02914734   0.709  -1.04701   3.61293   7.01001   1.87178   0.04874   1.052E+00   2.000E-03  -5.455E-02
 495  8.03184725   0.709  -1.04832   3.61270   7.00982   1.87149   0.04801   1.051E+00   2.000E-03  -5.319E-02
 496  8.03453048   0.709  -1.04953   3.61249   7.00964   1.87122   0.04666   1.050E+00   2.000E-03  -5.178E-02
 497  8.03719724   0.709  -1.05055   3.61230   7.00946   1.87102   0.04666   1.048E+00   2.000E-03  -5.012E-02
 498  8.03984772   0.709  -1.05147   3.61213   7.00929   1.87083   0.04612   1.046E+00   2.000E-03  -4.846E-02
 499  8.04248212   0.709  -1.05228   3.61198   7.00912   1.87067   0.04489   1.045E+00   2.000E-03  -4.679E-02
 500  8.04510063   0.709  -1.05299   3.61185   7.00896   1.87055   0.04424   1.043E+00   2.000E-03  -4.499E-02
 501  8.04770346   0.709  -1.05358   3.61173   7.00880   1.87046   0.04424   1.041E+00   2.000E-03  -4.305E-02
 502  8.05029078   0.709  -1.05417   3.61161   7.00865   1.87037   0.04424   1.039E+00   2.000E-03  -4.110E-02
 503  8.05286277   0.709  -1.05452   3.61153   7.00852   1.87033   0.04342   1.037E+00   2.000E-03  -3.944E-02
 504  8.05541962   0.709  -1.05487   3.61144   7.00838   1.87030   0.04261   1.035E+00   2.000E-03  -3.778E-02
 505  8.05796151   0.709  -1.05523   3.61136   7.00825   1.87026   0.04179   1.034E+00   2.000E-03  -3.612E-02
 506  8.06048861   0.709  -1.05542   3.61131   7.00813   1.87026   0.04148   1.032E+00   2.000E-03  -3.450E-02
 507  8.06300108   0.709  -1.05553   3.61127   7.00803   1.87028   0.04148   1.030E+00   2.000E-03  -3.290E-02
 508  8.06549911   0.709  -1.05563   3.61123   7.00793   1.87030   0.04148   1.029E+00   2.000E-03  -3.130E-02
 509  8.06798285   0.709  -1.05573   3.61119   7.00782   1.87032   0.04148   1.027E+00   2.000E-03  -2.970E-02
 510  8.07045246   0.709  -1.05584   3.61115   7.00772   1.87034   0.04148   1.026E+00   2.000E-03  -2.810E-02
 511  8.07290811   0.709  -1.05583   3.61113   7.00763   1.87037   0.04133   1.024E+00   2.000E-03  -2.686E-02
 512  8.07534995   0.709  -1.05574   3.61112   7.00756   1.87040   0.04105   1.024E+00   2.000E-03  -2.590E-02
 513  8.07777815   0.709  -1.05566   3.61112   7.00749   1.87042   0.04078   1.023E+00   2.000E-03  -2.493E-02
 514  8.08019284   0.709  -1.05557   3.61111   7.00742   1.87045   0.04050   1.022E+00   2.000E-03  -2.397E-02
 515  8.08259417   0.709  -1.05548   3.61111   7.00735   1.87048   0.04023   1.021E+00   2.000E-03  -2.301E-02
 516  8.08498231   0.709  -1.05540   3.61110   7.00728   1.87051   0.03996   1.020E+00   2.000E-03  -2.205E-02
 517  8.08735738   0.709  -1.05531   3.61110   7.00721   1.87054   0.03968   1.019E+00   2.000E-03  -2.109E-02
 518  8.08971954   0.709  -1.05522   3.61109   7.00714   1.87057   0.03941   1.018E+00   2.000E-03  -2.012E-02
 519  8.09206891   0.709  -1.05508   3.61110   7.00710   1.87057   0.03916   1.018E+00   2.000E-03  -1.963E-02
 520  8.09440565   0.709  -1.05493   3.61111   7.00705   1.87058   0.03892   1.017E+00   2.000E-03  -1.915E-02
 521  8.09672988   0.709  -1.05478   3.61112   7.00701   1.87058   0.03868   1.017E+00   2.000E-03  -1.866E-02
 522  8.09904174   0.709  -1.05463   3.61113   7.00697   1.87058   0.03844   1.016E+00   2.000E-03  -1.818E-02
 523  8.10134135   0.709  -1.05448   3.61114   7.00692   1.87059   0.03819   1.016E+00   2.000E-03  -1.770E-02
 524  8.10362886   0.709  -1.05433   3.61115   7.00688   1.87059   0.03795   1.015E+00   2.000E-03  -1.721E-02
 525  8.10590438   0.709  -1.05418   3.61116   7.00683   1.87059   0.03771   1.015E+00   2.000E-03  -1.673E-02
 526  8.10816803   0.709  -1.05404   3.61117   7.00679   1.87060   0.03747   1.014E+00   2.000E-03  -1.625E-02
 527  8.11041995   0.709  -1.05389   3.61118   7.00675   1.87060   0.03722   1.014E+00   2.000E-03  -1.576E-02
 528  8.11266026   0.709  -1.05374   3.61119   7.00670   1.87061   0.03698   1.014E+00   2.000E-03  -1.528E-02
 529  8.11488906   0.709  -1.05359   3.61120   7.00666   1.87061   0.03674   1.013E+00   2.000E-03  -1.480E-02
 530  8.11710649   0.709  -1.05346   3.61121   7.00662   1.87060   0.03658   1.013E+00   2.000E-03  -1.443E-02
 531  8.11931265   0.709  -1.05334   3.61121   7.00659   1.87059   0.03648   1.013E+00   2.000E-03  -1.415E-02
 532  8.12150766   0.709  -1.05323   3.61122   7.00656   1.87059   0.03638   1.012E+00   2.000E-03  -1.387E-02
 533  8.12369164   0.709  -1.05311   3.61123   7.00653   1.87058   0.03627   1.012E+00   2.000E-03  -1.359E-02
 534  8.12586468   0.709  -1.05299   3.61124   7.00650   1.87057   0.03617   1.012E+00   2.000E-03  -1.331E-02
 535  8.12802691   0.709  -1.05288   3.61125   7.00647   1.87056   0.03607   1.011E+00   2.000E-03  -1.302E-02
 536  8.13017842   0.709  -1.05276   3.61126   7.00643   1.87055   0.03597   1.011E+00   2.000E-03  -1.274E-02
 537  8.13231933   0.709  -1.05264   3.61127   7.00640   1.87054   0.03586   1.011E+00   2.000E-03  -1.246E-02
 538  8.13444974   0.709  -1.05252   3.61128   7.00637   1.87053   0.03576   1.010E+00   2.000E-03  -1.218E-02
 539  8.13656975   0.709  -1.05241   3.61129   7.00634   1.87052   0.03566   1.010E+00   2.000E-03  -1.190E-02
 540  8.13867945   0.709  -1.05229   3.61129   7.00631   1.87051   0.03556   1.010E+00   2.000E-03  -1.162E-02
 541  8.14077896   0.709  -1.05217   3.61130   7.00628   1.87050   0.03545   1.010E+00   2.000E-03  -1.133E-02
 542  8.14286837   0.709  -1.05205   3.61131   7.00625   1.87049   0.03535   1.009E+00   2.000E-03  -1.105E-02
 543  8.14494778   0.709  -1.05194   3.61132   7.00622   1.87048   0.03524   1.009E+00   2.000E-03  -1.080E-02
 544  8.14701727   0.709  -1.05189   3.61132   7.00619   1.87044   0.03508   1.009E+00   2.000E-03  -1.079E-02
 545  8.14907695   0.709  -1.05183   3.61132   7.00616   1.87040   0.03492   1.009E+00   2.000E-03  -1.078E-02
 546  8.15112691   0.709  -1.05178   3.61132   7.00613   1.87037   0.03476   1.009E+00   2.000E-03  -1.076E-02
 547  8.15316724   0.709  -1.05172   3.61132   7.00610   1.87033   0.03459   1.009E+00   2.000E-03  -1.075E-02
 548  8.15519803   0.709  -1.05167   3.61133   7.00608   1.87029   0.03443   1.009E+00   2.000E-03  -1.074E-02
 549  8.15721936   0.709  -1.05161   3.61133   7.00605   1.87025   0.03427   1.009E+00   2.000E-03  -1.073E-02
 550  8.15923133   0.709  -1.05155   3.61133   7.00602   1.87022   0.03410   1.009E+00   2.000E-03  -1.072E-02
 551  8.16123403   0.709  -1.05150   3.61133   7.00599   1.87018   0.03394   1.009E+00   2.000E-03  -1.070E-02
 552  8.16322753   0.709  -1.05144   3.61133   7.00596   1.87014   0.03378   1.009E+00   2.000E-03  -1.069E-02
 553  8.16521192   0.709  -1.05139   3.61133   7.00594   1.87011   0.03362   1.009E+00   2.000E-03  -1.068E-02
 554  8.16718728   0.709  -1.05133   3.61133   7.00591   1.87007   0.03345   1.009E+00   2.000E-03  -1.067E-02
 555  8.16915371   0.709  -1.05128   3.61133   7.00588   1.87003   0.03329   1.009E+00   2.000E-03  -1.066E-02
 556  8.17111126   0.709  -1.05122   3.61134   7.00585   1.87000   0.03313   1.009E+00   2.000E-03  -1.065E-02
 557  8.17306004   0.709  -1.05116   3.61134   7.00582   1.86996   0.03297   1.009E+00   2.000E-03  -1.063E-02
 558  8.17500011   0.709  -1.05111   3.61134   7.00579   1.86992   0.03280   1.009E+00   2.000E-03  -1.062E-02
 559  8.17693155   0.709  -1.05105   3.61134   7.00577   1.86988   0.03264   1.009E+00   2.000E-03  -1.061E-02
 560  8.17885443   0.709  -1.05100   3.61134   7.00574   1.86985   0.03248   1.009E+00   2.000E-03  -1.060E-02
 561  8.18076885   0.709  -1.05099   3.61134   7.00571   1.86981   0.03230   1.009E+00   2.000E-03  -1.058E-02
 562  8.18267486   0.709  -1.05097   3.61133   7.00568   1.86977   0.03211   1.009E+00   2.000E-03  -1.056E-02
 563  8.18457254   0.709  -1.05096   3.61133   7.00565   1.86974   0.03193   1.009E+00   2.000E-03  -1.054E-02
 564  8.18646196   0.709  -1.05095   3.61132   7.00562   1.86970   0.03175   1.009E+00   2.000E-03  -1.052E-02
 565  8.18834321   0.709  -1.05093   3.61132   7.00559   1.86967   0.03157   1.009E+00   2.000E-03  -1.050E-02
 566  8.19021633   0.709  -1.05092   3.61131   7.00556   1.86963   0.03138   1.009E+00   2.000E-03  -1.048E-02
 567  8.19208142   0.709  -1.05091   3.61131   7.00553   1.86959   0.03120   1.009E+00   2.000E-03  -1.046E-02
 568  8.19393852   0.709  -1.05090   3.61131   7.00550   1.86956   0.03102   1.009E+00   2.000E-03  -1.044E-02
 569  8.19578773   0.709  -1.05088   3.61130   7.00547   1.86952   0.03084   1.009E+00   2.000E-03  -1.042E-02
 570  8.19762909   0.708  -1.05087   3.61130   7.00544   1.86948   0.03065   1.009E+00   2.000E-03  -1.040E-02
 571  8.19946267   0.708  -1.05086   3.61129   7.00541   1.86945   0.03047   1.009E+00   2.000E-03  -1.038E-02
 572  8.20128855   0.708  -1.05084   3.61129   7.00538   1.86941   0.03029   1.009E+00   2.000E-03  -1.036E-02
 573  8.20310678   0.708  -1.05083   3.61128   7.00535   1.86937   0.03011   1.008E+00   2.000E-03  -1.034E-02
 574  8.20491743   0.708  -1.05082   3.61128   7.00532   1.86934   0.02992   1.008E+00   2.000E-03  -1.032E-02
 575  8.20672057   0.708  -1.05081   3.61128   7.00529   1.86930   0.02974   1.008E+00   2.000E-03  -1.031E-02
 576  8.20851625   0.708  -1.05079   3.61127   7.00526   1.86927   0.02956   1.008E+00   2.000E-03  -1.029E-02
 577  8.21030453   0.708  -1.05078   3.61127   7.00523   1.86923   0.02938   1.008E+00   2.000E-03  -1.027E-02
 578  8.21208548   0.708  -1.05077   3.61126   7.00520   1.86919   0.02920   1.008E+00   2.000E-03  -1.025E-02
 579  8.21385916   0.708  -1.05075   3.61126   7.00517   1.86916   0.02901   1.008E+00   2.000E-03  -1.023E-02
 580  8.21562563   0.708  -1.05074   3.61125   7.00514   1.86912   0.02883   1.008E+00   2.000E-03  -1.021E-02
 581  8.21738493   0.708  -1.05073   3.61125   7.00511   1.86908   0.02865   1.008E+00   2.000E-03  -1.019E-02
 582  8.21913714   0.708  -1.05072   3.61125   7.00508   1.86905   0.02847   1.008E+00   2.000E-03  -1.017E-02
 583  8.22088231   0.708  -1.05070   3.61124   7.00504   1.86901   0.02828   1.008E+00   2.000E-03  -1.015E-02
 584  8.22262050   0.708  -1.05069   3.61124   7.00501   1.86897   0.02810   1.008E+00   2.000E-03  -1.013E-02
 585  8.22435175   0.708  -1.05068   3.61123   7.00498   1.86894   0.02792   1.008E+00   2.000E-03  -1.011E-02
 586  8.22607613   0.708  -1.05067   3.61123   7.00495   1.86890   0.02775   1.008E+00   2.000E-03  -1.010E-02
 587  8.22779369   0.708  -1.05067   3.61122   7.00492   1.86887   0.02760   1.008E+00   2.000E-03  -1.009E-02
 588  8.22950449   0.708  -1.05067   3.61121   7.00489   1.86884   0.02746   1.008E+00   2.000E-03  -1.009E-02
 589  8.23120857   0.708  -1.05067   3.61121   7.00486   1.86880   0.02731   1.008E+00   2.000E-03  -1.008E-02
 590  8.23290599   0.708  -1.05067   3.61120   7.00482   1.86877   0.02716   1.008E+00   2.000E-03  -1.008E-02
 591  8.23459681   0.708  -1.05067   3.61120   7.00479   1.86874   0.02701   1.008E+00   2.000E-03  -1.008E-02
 592  8.23628106   0.708  -1.05067   3.61119   7.00476   1.86871   0.02686   1.008E+00   2.000E-03  -1.007E-02
 593  8.23795881   0.708  -1.05067   3.61118   7.00473   1.86867   0.02671   1.008E+00   2.000E-03  -1.007E-02
 594  8.23963011   0.708  -1.05067   3.61118   7.00469   1.86864   0.02656   1.008E+00   2.000E-03  -1.006E-02
 595  8.24129499   0.708  -1.05067   3.61117   7.00466   1.86861   0.02641   1.008E+00   2.000E-03  -1.006E-02
 596  8.24295352   0.708  -1.05067   3.61117   7.00463   1.86857   0.02626   1.008E+00   2.000E-03  -1.005E-02
 597  8.24460574   0.708  -1.05067   3.61116   7.00460   1.86854   0.02612   1.008E+00   2.000E-03  -1.005E-02
 598  8.24625170   0.708  -1.05067   3.61115   7.00457   1.86851   0.02597   1.008E+00   2.000E-03  -1.004E-02
 599  8.24789144   0.708  -1.05067   3.61115   7.00453   1.86848   0.02582   1.008E+00   2.000E-03  -1.004E-02
 600  8.24952502   0.708  -1.05067   3.61114   7.00450   1.86844   0.02567   1.008E+00   2.000E-03  -1.004E-02
 601  8.25115247   0.708  -1.05067   3.61114   7.00447   1.86841   0.02552   1.008E+00   2.000E-03  -1.003E-02
 602  8.25277385   0.708  -1.05067   3.61113   7.00444   1.86838   0.02537   1.008E+00   2.000E-03  -1.003E-02
 603  8.25438919   0.708  -1.05067   3.61112   7.00440   1.86834   0.02522   1.008E+00   2.000E-03  -1.002E-02
 604  8.25599855   0.708  -1.05067   3.61112   7.00437   1.86831   0.02507   1.008E+00   2.000E-03  -1.002E-02
 605  8.25760197   0.708  -1.05068   3.61111   7.00434   1.86828   0.02492   1.008E+00   2.000E-03  -1.001E-02
 606  8.25919949   0.708  -1.05068   3.61111   7.00431   1.86825   0.02477   1.008E+00   2.000E-03  -1.001E-02
 607  8.26079116   0.708  -1.05068   3.61110   7.00427   1.86821   0.02463   1.008E+00   2.000E-03  -1.000E-02
 608  8.26237701   0.708  -1.05068   3.61109   7.00424   1.86818   0.02448   1.008E+00   2.000E-03  -1.000E-02
 609  8.26395709   0.708  -1.05068   3.61109   7.00421   1.86815   0.02433   1.008E+00   2.000E-03  -9.996E-03
 610  8.26553145   0.708  -1.05068   3.61108   7.00418   1.86811   0.02418   1.008E+00   2.000E-03  -9.991E-03
 611  8.26710012   0.708  -1.05068   3.61108   7.00414   1.86808   0.02403   1.008E+00   2.000E-03  -9.987E-03
 612  8.26866314   0.708  -1.05068   3.61107   7.00411   1.86805   0.02388   1.008E+00   2.000E-03  -9.982E-03
 613  8.27022056   0.708  -1.05068   3.61106   7.00408   1.86802   0.02373   1.008E+00   2.000E-03  -9.978E-03
 614  8.27177242   0.708  -1.05068   3.61106   7.00405   1.86798   0.02358   1.008E+00   2.000E-03  -9.974E-03
 615  8.27331874   0.708  -1.05068   3.61105   7.00402   1.86795   0.02343   1.008E+00   2.000E-03  -9.969E-03
 616  8.27485959   0.708  -1.05068   3.61105   7.00398   1.86792   0.02328   1.008E+00   2.000E-03  -9.965E-03
 617  8.27639498   0.708  -1.05068   3.61104   7.00395   1.86788   0.02314   1.008E+00   2.000E-03  -9.960E-03
 618  8.27792497   0.708  -1.05068   3.61103   7.00392   1.86785   0.02299   1.008E+00   2.000E-03  -9.956E-03
 619  8.27944958   0.708  -1.05068   3.61103   7.00389   1.86782   0.02284   1.008E+00   2.000E-03  -9.951E-03
 620  8.28096886   0.708  -1.05068   3.61102   7.00385   1.86779   0.02269   1.008E+00   2.000E-03  -9.947E-03
 621  8.28248284   0.708  -1.05068   3.61102   7.00382   1.86775   0.02254   1.008E+00   2.000E-03  -9.943E-03
 622  8.28399157   0.708  -1.05068   3.61101   7.00379   1.86772   0.02239   1.008E+00   2.000E-03  -9.938E-03
 623  8.28549507   0.708  -1.05068   3.61100   7.00376   1.86769   0.02224   1.008E+00   2.000E-03  -9.934E-03
 624  8.28699339   0.708  -1.05068   3.61100   7.00372   1.86765   0.02210   1.008E+00   2.000E-03  -9.929E-03
 625  8.28848655   0.708  -1.05068   3.61099   7.00369   1.86762   0.02199   1.008E+00   2.000E-03  -9.923E-03
 626  8.28997460   0.708  -1.05069   3.61099   7.00366   1.86759   0.02187   1.008E+00   2.000E-03  -9.918E-03
 627  8.29145756   0.708  -1.05069   3.61098   7.00363   1.86756   0.02176   1.008E+00   2.000E-03  -9.912E-03
 628  8.29293548   0.708  -1.05069   3.61097   7.00360   1.86753   0.02164   1.008E+00   2.000E-03  -9.907E-03
 629  8.29440839   0.708  -1.05069   3.61097   7.00356   1.86750   0.02153   1.008E+00   2.000E-03  -9.901E-03
 630  8.29587632   0.708  -1.05070   3.61096   7.00353   1.86747   0.02141   1.008E+00   2.000E-03  -9.896E-03
 631  8.29733930   0.708  -1.05070   3.61096   7.00350   1.86743   0.02130   1.008E+00   2.000E-03  -9.890E-03
 632  8.29879737   0.708  -1.05070   3.61095   7.00347   1.86740   0.02119   1.008E+00   2.000E-03  -9.884E-03
 633  8.30025057   0.708  -1.05071   3.61094   7.00344   1.86737   0.02107   1.008E+00   2.000E-03  -9.879E-03
 634  8.30169891   0.708  -1.05071   3.61094   7.00340   1.86734   0.02096   1.008E+00   2.000E-03  -9.873E-03
 635  8.30314244   0.708  -1.05071   3.61093   7.00337   1.86731   0.02084   1.008E+00   2.000E-03  -9.868E-03
 636  8.30458119   0.708  -1.05071   3.61092   7.00334   1.86728   0.02073   1.008E+00   2.000E-03  -9.862E-03
 637  8.30601519   0.708  -1.05072   3.61092   7.00331   1.86725   0.02061   1.008E+00   2.000E-03  -9.857E-03
 638  8.30744447   0.708  -1.05072   3.61091   7.00328   1.86721   0.02050   1.008E+00   2.000E-03  -9.851E-03
 639  8.30886907   0.708  -1.05072   3.61090   7.00324   1.86718   0.02039   1.008E+00   2.000E-03  -9.846E-03
 640  8.31028900   0.708  -1.05073   3.61090   7.00321   1.86715   0.02027   1.008E+00   2.000E-03  -9.840E-03
 641  8.31170431   0.708  -1.05073   3.61089   7.00318   1.86712   0.02016   1.008E+00   2.000E-03  -9.834E-03
 642  8.31311502   0.708  -1.05073   3.61089   7.00315   1.86709   0.02004   1.008E+00   2.000E-03  -9.829E-03
 643  8.31452116   0.708  -1.05073   3.61088   7.00312   1.86706   0.01993   1.008E+00   2.000E-03  -9.823E-03
 644  8.31592276   0.708  -1.05074   3.61087   7.00308   1.86702   0.01981   1.008E+00   2.000E-03  -9.818E-03
 645  8.31731986   0.708  -1.05074   3.61087   7.00305   1.86699   0.01970   1.008E+00   2.000E-03  -9.812E-03
 646  8.31871247   0.708  -1.05074   3.61086   7.00302   1.86696   0.01959   1.008E+00   2.000E-03  -9.807E-03
 647  8.32010064   0.708  -1.05074   3.61085   7.00299   1.86693   0.01947   1.008E+00   2.000E-03  -9.801E-03
 648  8.32148438   0.708  -1.05075   3.61085   7.00296   1.86690   0.01936   1.008E+00   2.000E-03  -9.795E-03
 649  8.32286372   0.708  -1.05075   3.61084   7.00292   1.86687   0.01924   1.008E+00   2.000E-03  -9.790E-03
 650  8.32423870   0.708  -1.05075   3.61084   7.00289   1.86684   0.01913   1.008E+00   2.000E-03  -9.784E-03
 651  8.32560934   0.708  -1.05076   3.61083   7.00286   1.86680   0.01901   1.008E+00   2.000E-03  -9.779E-03
 652  8.32697567   0.708  -1.05076   3.61082   7.00283   1.86677   0.01890   1.008E+00   2.000E-03  -9.773E-03
 653  8.32833771   0.708  -1.05076   3.61082   7.00280   1.86674   0.01879   1.008E+00   2.000E-03  -9.768E-03
 654  8.32969550   0.708  -1.05076   3.61081   7.00276   1.86671   0.01867   1.008E+00   2.000E-03  -9.762E-03
 655  8.33104905   0.708  -1.05077   3.61080   7.00273   1.86668   0.01856   1.008E+00   2.000E-03  -9.756E-03
 656  8.33239839   0.708  -1.05077   3.61080   7.00270   1.86665   0.01844   1.008E+00   2.000E-03  -9.751E-03
 657  8.33374356   0.708  -1.05077   3.61079   7.00267   1.86662   0.01833   1.008E+00   2.000E-03  -9.745E-03
 658  8.33508458   0.708  -1.05078   3.61079   7.00264   1.86658   0.01821   1.008E+00   2.000E-03  -9.740E-03
 659  8.33642146   0.708  -1.05078   3.61078   7.00260   1.86655   0.01810   1.008E+00   2.000E-03  -9.734E-03
 660  8.33775424   0.708  -1.05078   3.61077   7.00257   1.86652   0.01799   1.008E+00   2.000E-03  -9.729E-03
 661  8.33908295   0.708  -1.05078   3.61077   7.00254   1.86649   0.01787   1.008E+00   2.000E-03  -9.723E-03
 662  8.34040760   0.708  -1.05079   3.61076   7.00251   1.86646   0.01776   1.008E+00   2.000E-03  -9.718E-03
 663  8.34172823   0.708  -1.05079   3.61075   7.00248   1.86643   0.01764   1.008E+00   2.000E-03  -9.712E-03
 664  8.34304485   0.708  -1.05079   3.61075   7.00244   1.86640   0.01753   1.008E+00   2.000E-03  -9.706E-03
 665  8.34435749   0.708  -1.05079   3.61074   7.00241   1.86636   0.01741   1.008E+00   2.000E-03  -9.701E-03
 666  8.34566618   0.708  -1.05080   3.61074   7.00238   1.86633   0.01730   1.008E+00   2.000E-03  -9.695E-03
 667  8.34697093   0.708  -1.05080   3.61073   7.00235   1.86630   0.01719   1.008E+00   2.000E-03  -9.690E-03
 668  8.34827178   0.707  -1.05080   3.61072   7.00232   1.86627   0.01707   1.008E+00   2.000E-03  -9.684E-03
 669  8.34956874   0.707  -1.05081   3.61072   7.00228   1.86624   0.01696   1.008E+00   2.000E-03  -9.679E-03
 670  8.35086184   0.707  -1.05081   3.61071   7.00225   1.86621   0.01684   1.008E+00   2.000E-03  -9.673E-03
 671  8.35215110   0.707  -1.05081   3.61070   7.00222   1.86617   0.01673   1.008E+00   2.000E-03  -9.667E-03
 672  8.35343654   0.707  -1.05081   3.61070   7.00219   1.86614   0.01661   1.008E+00   2.000E-03  -9.662E-03
 673  8.35471819   0.707  -1.05082   3.61069   7.00216   1.86611   0.01650   1.008E+00   2.000E-03  -9.656E-03
 674  8.35599607   0.707  -1.05082   3.61069   7.00212   1.86608   0.01639   1.008E+00   2.000E-03  -9.651E-03
 675  8.35727021   0.707  -1.05082   3.61068   7.00209   1.86605   0.01627   1.008E+00   2.000E-03  -9.645E-03
 676  8.35854061   0.707  -1.05083   3.61067   7.00206   1.86602   0.01616   1.008E+00   2.000E-03  -9.640E-03
 677  8.35980731   0.707  -1.05083   3.61067   7.00203   1.86599   0.01604   1.008E+00   2.000E-03  -9.634E-03
 678  8.36107032   0.707  -1.05083   3.61066   7.00200   1.86595   0.01593   1.008E+00   2.000E-03  -9.628E-03
 679  8.36232968   0.707  -1.05083   3.61065   7.00196   1.86592   0.01581   1.008E+00   2.000E-03  -9.623E-03
 680  8.36358539   0.707  -1.05084   3.61065   7.00193   1.86589   0.01570   1.008E+00   2.000E-03  -9.617E-03
 681  8.36483748   0.707  -1.05084   3.61064   7.00190   1.86586   0.01559   1.008E+00   2.000E-03  -9.612E-03
 682  8.36608597   0.707  -1.05084   3.61064   7.00187   1.86584   0.01551   1.008E+00   1.992E-03  -9.591E-03
 683  8.36733088   0.707  -1.05084   3.61063   7.00185   1.86582   0.01544   1.008E+00   1.981E-03  -9.563E-03
 684  8.36857224   0.707  -1.05084   3.61063   7.00182   1.86580   0.01538   1.008E+00   1.969E-03  -9.534E-03
 685  8.36981005   0.707  -1.05083   3.61062   7.00180   1.86578   0.01531   1.008E+00   1.957E-03  -9.506E-03
 686  8.37104435   0.707  -1.05083   3.61062   7.00177   1.86576   0.01525   1.008E+00   1.946E-03  -9.478E-03
 687  8.37227515   0.707  -1.05083   3.61061   7.00175   1.86575   0.01519   1.008E+00   1.934E-03  -9.450E-03
 688  8.37350247   0.707  -1.05083   3.61061   7.00172   1.86573   0.01512   1.008E+00   1.923E-03  -9.422E-03
 689  8.37472634   0.707  -1.05083   3.61061   7.00170   1.86571   0.01506   1.008E+00   1.911E-03  -9.394E-03
 690  8.37594676   0.707  -1.05082   3.61060   7.00167   1.86569   0.01499   1.008E+00   1.899E-03  -9.365E-03
 691  8.37716376   0.707  -1.05082   3.61060   7.00165   1.86567   0.01493   1.008E+00   1.888E-03  -9.337E-03
 692  8.37837737   0.707  -1.05082   3.61059   7.00162   1.86565   0.01487   1.008E+00   1.876E-03  -9.309E-03
 693  8.37958759   0.707  -1.05082   3.61059   7.00160   1.86563   0.01480   1.008E+00   1.865E-03  -9.281E-03
 694  8.38079445   0.707  -1.05082   3.61058   7.00157   1.86562   0.01474   1.008E+00   1.853E-03  -9.253E-03
 695  8.38199796   0.707  -1.05082   3.61058   7.00155   1.86560   0.01467   1.008E+00   1.841E-03  -9.225E-03
 696  8.38319815   0.707  -1.05081   3.61058   7.00152   1.86558   0.01461   1.008E+00   1.830E-03  -9.196E-03
 697  8.38439503   0.707  -1.05081   3.61057   7.00150   1.86556   0.01454   1.008E+00   1.818E-03  -9.168E-03
 698  8.38558862   0.707  -1.05081   3.61057   7.00147   1.86554   0.01448   1.008E+00   1.807E-03  -9.140E-03
 699  8.38677894   0.707  -1.05081   3.61056   7.00145   1.86552   0.01442   1.008E+00   1.795E-03  -9.112E-03
 700  8.38796601   0.707  -1.05081   3.61056   7.00142   1.86551   0.01435   1.008E+00   1.783E-03  -9.084E-03
 701  8.38914984   0.707  -1.05081   3.61055   7.00139   1.86549   0.01429   1.008E+00   1.772E-03  -9.055E-03
 702  8.39033045   0.707  -1.05080   3.61055   7.00137   1.86547   0.01422   1.008E+00   1.760E-03  -9.027E-03
 703  8.39150786   0.707  -1.05080   3.61054   7.00134   1.86545   0.01416   1.007E+00   1.749E-03  -8.999E-03
 704  8.39268209   0.707  -1.05080   3.61054   7.00132   1.86543   0.01410   1.007E+00   1.737E-03  -8.971E-03
 705  8.39385315   0.707  -1.05080   3.61054   7.00129   1.86541   0.01403   1.007E+00   1.725E-03  -8.943E-03
 706  8.39502106   0.707  -1.05080   3.61053   7.00127   1.86540   0.01397   1.007E+00   1.714E-03  -8.915E-03
 707  8.39618584   0.707  -1.05080   3.61053   7.00124   1.86538   0.01390   1.007E+00   1.702E-03  -8.886E-03
 708  8.39734750   0.707  -1.05079   3.61052   7.00122   1.86536   0.01384   1.007E+00   1.691E-03  -8.858E-03
 709  8.39850607   0.707  -1.05079   3.61052   7.00119   1.86534   0.01378   1.007E+00   1.679E-03  -8.830E-03
 710  8.39966155   0.707  -1.05079   3.61051   7.00117   1.86532   0.01371   1.007E+00   1.667E-03  -8.802E-03
 711  8.40081397   0.707  -1.05079   3.61051   7.00114   1.86530   0.01365   1.007E+00   1.656E-03  -8.774E-03
 712  8.40196334   0.707  -1.05079   3.61050   7.00112   1.86528   0.01358   1.007E+00   1.644E-03  -8.746E-03
 713  8.40310967   0.707  -1.05078   3.61050   7.00109   1.86527   0.01352   1.007E+00   1.633E-03  -8.717E-03
 714  8.40425298   0.707  -1.05078   3.61050   7.00107   1.86525   0.01345   1.007E+00   1.621E-03  -8.689E-03
 715  8.40539330   0.707  -1.05078   3.61049   7.00104   1.86523   0.01339   1.007E+00   1.609E-03  -8.661E-03
 716  8.40653063   0.707  -1.05078   3.61049   7.00102   1.86521   0.01333   1.007E+00   1.598E-03  -8.633E-03
 717  8.40766498   0.707  -1.05078   3.61048   7.00099   1.86519   0.01326   1.007E+00   1.586E-03  -8.605E-03
 718  8.40879638   0.707  -1.05078   3.61048   7.00097   1.86517   0.01320   1.007E+00   1.575E-03  -8.577E-03
 719  8.40992484   0.707  -1.05077   3.61047   7.00094   1.86516   0.01313   1.007E+00   1.563E-03  -8.548E-03
 720  8.41105038   0.707  -1.05077   3.61047   7.00092   1.86514   0.01307   1.007E+00   1.552E-03  -8.520E-03
 721  8.41217301   0.707  -1.05077   3.61047   7.00089   1.86512   0.01301   1.007E+00   1.540E-03  -8.492E-03
 722  8.41329274   0.707  -1.05077   3.61046   7.00087   1.86510   0.01294   1.007E+00   1.528E-03  -8.464E-03
 723  8.41440959   0.707  -1.05077   3.61046   7.00084   1.86508   0.01288   1.007E+00   1.517E-03  -8.436E-03
 724  8.41552358   0.707  -1.05077   3.61045   7.00082   1.86506   0.01281   1.007E+00   1.505E-03  -8.407E-03
 725  8.41663472   0.707  -1.05076   3.61045   7.00079   1.86504   0.01275   1.007E+00   1.494E-03  -8.379E-03
 726  8.41774302   0.707  -1.05076   3.61044   7.00077   1.86503   0.01269   1.007E+00   1.482E-03  -8.351E-03
 727  8.41884851   0.707  -1.05076   3.61044   7.00074   1.86501   0.01262   1.007E+00   1.470E-03  -8.323E-03
 728  8.41995118   0.707  -1.05076   3.61043   7.00072   1.86499   0.01256   1.007E+00   1.459E-03  -8.295E-03
 729  8.42105106   0.707  -1.05076   3.61043   7.00069   1.86497   0.01249   1.007E+00   1.447E-03  -8.267E-03
 730  8.42214817   0.707  -1.05076   3.61043   7.00067   1.86495   0.01243   1.007E+00   1.436E-03  -8.238E-03
 731  8.42324251   0.707  -1.05075   3.61042   7.00064   1.86493   0.01236   1.007E+00   1.424E-03  -8.210E-03
 732  8.42433410   0.707  -1.05075   3.61042   7.00061   1.86492   0.01230   1.007E+00   1.412E-03  -8.182E-03
 733  8.42542295   0.707  -1.05075   3.61041   7.00059   1.86490   0.01224   1.007E+00   1.401E-03  -8.154E-03
 734  8.42650908   0.707  -1.05075   3.61041   7.00056   1.86488   0.01217   1.007E+00   1.389E-03  -8.126E-03
 735  8.42759250   0.707  -1.05075   3.61040   7.00054   1.86486   0.01211   1.007E+00   1.378E-03  -8.098E-03
 736  8.42867322   0.707  -1.05074   3.61040   7.00051   1.86484   0.01204   1.007E+00   1.366E-03  -8.069E-03
 737  8.42975126   0.707  -1.05074   3.61039   7.00049   1.86482   0.01198   1.007E+00   1.354E-03  -8.041E-03
 738  8.43082663   0.707  -1.05074   3.61039   7.00046   1.86481   0.01192   1.007E+00   1.343E-03  -8.013E-03
 739  8.43189935   0.707  -1.05074   3.61039   7.00044   1.86479   0.01185   1.007E+00   1.331E-03  -7.985E-03
 740  8.43296942   0.707  -1.05074   3.61038   7.00041   1.86477   0.01179   1.007E+00   1.320E-03  -7.957E-03
 741  8.43403686   0.707  -1.05074   3.61038   7.00039   1.86475   0.01172   1.007E+00   1.308E-03  -7.929E-03
 742  8.43510168   0.707  -1.05073   3.61037   7.00036   1.86473   0.01166   1.007E+00   1.296E-03  -7.900E-03
 743  8.43616390   0.707  -1.05073   3.61037   7.00034   1.86471   0.01160   1.007E+00   1.285E-03  -7.872E-03
 744  8.43722353   0.707  -1.05073   3.61036   7.00031   1.86469   0.01153   1.007E+00   1.273E-03  -7.844E-03
 745  8.43828058   0.707  -1.05073   3.61036   7.00029   1.86468   0.01147   1.007E+00   1.262E-03  -7.816E-03
 746  8.43933506   0.707  -1.05073   3.61036   7.00026   1.86466   0.01140   1.007E+00   1.250E-03  -7.788E-03
 747  8.44038699   0.707  -1.05073   3.61035   7.00024   1.86464   0.01134   1.006E+00   1.238E-03  -7.759E-03
 748  8.44143638   0.707  -1.05072   3.61035   7.00021   1.86462   0.01127   1.006E+00   1.227E-03  -7.731E-03
 749  8.44248324   0.707  -1.05072   3.61034   7.00019   1.86460   0.01121   1.006E+00   1.215E-03  -7.703E-03
 750  8.44352758   0.707  -1.05072   3.61034   7.00016   1.86458   0.01115   1.006E+00   1.204E-03  -7.675E-03
 751  8.44456941   0.707  -1.05072   3.61033   7.00014   1.86457   0.01108   1.006E+00   1.192E-03  -7.647E-03
 752  8.44560875   0.707  -1.05072   3.61033   7.00011   1.86455   0.01102   1.006E+00   1.180E-03  -7.619E-03
 753  8.44664561   0.707  -1.05072   3.61032   7.00009   1.86453   0.01095   1.006E+00   1.169E-03  -7.590E-03
 754  8.44768000   0.707  -1.05071   3.61032   7.00006   1.86451   0.01089   1.006E+00   1.157E-03  -7.562E-03
 755  8.44871194   0.707  -1.05071   3.61032   7.00004   1.86449   0.01083   1.006E+00   1.146E-03  -7.534E-03
 756  8.44974142   0.707  -1.05071   3.61031   7.00001   1.86447   0.01076   1.006E+00   1.134E-03  -7.506E-03
 757  8.45076848   0.707  -1.05071   3.61031   6.99999   1.86445   0.01070   1.006E+00   1.123E-03  -7.478E-03
 758  8.45179310   0.707  -1.05071   3.61030   6.99996   1.86444   0.01063   1.006E+00   1.111E-03  -7.450E-03
 759  8.45281532   0.707  -1.05070   3.61030   6.99994   1.86442   0.01057   1.006E+00   1.099E-03  -7.421E-03
 760  8.45383514   0.707  -1.05070   3.61029   6.99991   1.86440   0.01051   1.006E+00   1.088E-03  -7.393E-03
 761  8.45485257   0.707  -1.05070   3.61029   6.99989   1.86438   0.01044   1.006E+00   1.076E-03  -7.365E-03
 762  8.45586762   0.706  -1.05070   3.61028   6.99986   1.86436   0.01038   1.006E+00   1.065E-03  -7.337E-03
 763  8.45688030   0.706  -1.05070   3.61028   6.99983   1.86434   0.01031   1.006E+00   1.053E-03  -7.309E-03
 764  8.45789062   0.706  -1.05070   3.61028   6.99981   1.86433   0.01025   1.006E+00   1.041E-03  -7.281E-03
 765  8.45889861   0.706  -1.05069   3.61027   6.99978   1.86431   0.01018   1.006E+00   1.030E-03  -7.252E-03
 766  8.45990425   0.706  -1.05069   3.61027   6.99976   1.86429   0.01012   1.006E+00   1.018E-03  -7.224E-03
 767  8.46090758   0.706  -1.05069   3.61026   6.99973   1.86427   0.01006   1.006E+00   1.007E-03  -7.196E-03
 768  8.46190859   0.706  -1.05069   3.61026   6.99971   1.86426   0.01000   1.006E+00   1.000E-03  -7.171E-03
 769  8.46290730   0.706  -1.05068   3.61026   6.99970   1.86425   0.00997   1.006E+00   1.000E-03  -7.151E-03
 770  8.46390372   0.706  -1.05068   3.61025   6.99968   1.86424   0.00993   1.006E+00   1.000E-03  -7.131E-03
 771  8.46489786   0.706  -1.05067   3.61025   6.99966   1.86424   0.00989   1.006E+00   1.000E-03  -7.111E-03
 772  8.46588972   0.706  -1.05067   3.61025   6.99965   1.86423   0.00985   1.006E+00   1.000E-03  -7.091E-03
 773  8.46687933   0.706  -1.05067   3.61025   6.99963   1.86422   0.00982   1.006E+00   1.000E-03  -7.070E-03
 774  8.46786669   0.706  -1.05066   3.61025   6.99962   1.86422   0.00978   1.006E+00   1.000E-03  -7.050E-03
 775  8.46885181   0.706  -1.05066   3.61024   6.99960   1.86421   0.00974   1.006E+00   1.000E-03  -7.030E-03
 776  8.46983470   0.706  -1.05065   3.61024   6.99958   1.86420   0.00970   1.006E+00   1.000E-03  -7.010E-03
 777  8.47081536   0.706  -1.05065   3.61024   6.99957   1.86420   0.00966   1.006E+00   1.000E-03  -6.990E-03
 778  8.47179382   0.706  -1.05064   3.61024   6.99955   1.86419   0.00963   1.006E+00   1.000E-03  -6.970E-03
 779  8.47277008   0.706  -1.05064   3.61023   6.99954   1.86418   0.00959   1.006E+00   1.000E-03  -6.949E-03
 780  8.47374415   0.706  -1.05063   3.61023   6.99952   1.86417   0.00955   1.006E+00   1.000E-03  -6.929E-03
 781  8.47471604   0.706  -1.05063   3.61023   6.99950   1.86417   0.00951   1.006E+00   1.000E-03  -6.909E-03
 782  8.47568576   0.706  -1.05063   3.61023   6.99949   1.86416   0.00948   1.006E+00   1.000E-03  -6.889E-03
 783  8.47665332   0.706  -1.05062   3.61022   6.99947   1.86415   0.00944   1.006E+00   1.000E-03  -6.869E-03
 784  8.47761873   0.706  -1.05062   3.61022   6.99945   1.86415   0.00940   1.006E+00   1.000E-03  -6.848E-03
 785  8.47858200   0.706  -1.05061   3.61022   6.99944   1.86414   0.00936   1.006E+00   1.000E-03  -6.828E-03
 786  8.47954314   0.706  -1.05061   3.61022   6.99942   1.86413   0.00932   1.006E+00   1.000E-03  -6.808E-03
 787  8.48050215   0.706  -1.05060   3.61021   6.99941   1.86413   0.00929   1.006E+00   1.000E-03  -6.788E-03
 788  8.48145905   0.706  -1.05060   3.61021   6.99939   1.86412   0.00925   1.006E+00   1.000E-03  -6.768E-03
 789  8.48241385   0.706  -1.05059   3.61021   6.99937   1.86411   0.00921   1.006E+00   1.000E-03  -6.748E-03
 790  8.48336655   0.706  -1.05059   3.61021   6.99936   1.86411   0.00917   1.005E+00   1.000E-03  -6.727E-03
 791  8.48431717   0.706  -1.05058   3.61021   6.99934   1.86410   0.00914   1.005E+00   1.000E-03  -6.707E-03
 792  8.48526571   0.706  -1.05058   3.61020   6.99933   1.86409   0.00910   1.005E+00   1.000E-03  -6.687E-03
 793  8.48621218   0.706  -1.05058   3.61020   6.99931   1.86409   0.00906   1.005E+00   1.000E-03  -6.667E-03
 794  8.48715660   0.706  -1.05057   3.61020   6.99929   1.86408   0.00902   1.005E+00   1.000E-03  -6.647E-03
 795  8.48809896   0.706  -1.05057   3.61020   6.99928   1.86407   0.00899   1.005E+00   1.000E-03  -6.627E-03
 796  8.48903929   0.706  -1.05056   3.61019   6.99926   1.86406   0.00895   1.005E+00   1.000E-03  -6.606E-03
 797  8.48997758   0.706  -1.05056   3.61019   6.99924   1.86406   0.00891   1.005E+00   1.000E-03  -6.586E-03
 798  8.49091385   0.706  -1.05055   3.61019   6.99923   1.86405   0.00887   1.005E+00   1.000E-03  -6.566E-03
 799  8.49184811   0.706  -1.05055   3.61019   6.99921   1.86404   0.00883   1.005E+00   1.000E-03  -6.546E-03
 800  8.49278036   0.706  -1.05054   3.61018   6.99920   1.86404   0.00880   1.005E+00   1.000E-03  -6.526E-03
 801  8.49371062   0.706  -1.05054   3.61018   6.99918   1.86403   0.00876   1.005E+00   1.000E-03  -6.506E-03
 802  8.49463888   0.706  -1.05054   3.61018   6.99916   1.86402   0.00872   1.005E+00   1.000E-03  -6.485E-03
 803  8.49556517   0.706  -1.05053   3.61018   6.99915   1.86402   0.00868   1.005E+00   1.000E-03  -6.465E-03
 804  8.49648948   0.706  -1.05053   3.61018   6.99913   1.86401   0.00865   1.005E+00   1.000E-03  -6.445E-03
 805  8.49741184   0.706  -1.05052   3.61017   6.99912   1.86400   0.00861   1.005E+00   1.000E-03  -6.425E-03
 806  8.49833223   0.706  -1.05052   3.61017   6.99910   1.86400   0.00857   1.005E+00   1.000E-03  -6.405E-03
 807  8.49925068   0.706  -1.05051   3.61017   6.99908   1.86399   0.00853   1.005E+00   1.000E-03  -6.384E-03
 808  8.50016720   0.706  -1.05051   3.61017   6.99907   1.86398   0.00849   1.005E+00   1.000E-03  -6.364E-03
 809  8.50108178   0.706  -1.05050   3.61016   6.99905   1.86397   0.00846   1.005E+00   1.000E-03  -6.344E-03
 810  8.50199444   0.706  -1.05050   3.61016   6.99903   1.86397   0.00842   1.005E+00   1.000E-03  -6.324E-03
 811  8.50290519   0.706  -1.05050   3.61016   6.99902   1.86396   0.00838   1.005E+00   1.000E-03  -6.304E-03
 812  8.50381403   0.706  -1.05049   3.61016   6.99900   1.86395   0.00834   1.005E+00   1.000E-03  -6.284E-03
 813  8.50472097   0.706  -1.05049   3.61015   6.99899   1.86395   0.00831   1.005E+00   1.000E-03  -6.263E-03
 814  8.50562602   0.706  -1.05048   3.61015   6.99897   1.86394   0.00827   1.005E+00   1.000E-03  -6.243E-03
 815  8.50652919   0.706  -1.05048   3.61015   6.99895   1.86393   0.00823   1.005E+00   1.000E-03  -6.223E-03
 816  8.50743049   0.706  -1.05047   3.61015   6.99894   1.86393   0.00819   1.005E+00   1.000E-03  -6.203E-03
 817  8.50832992   0.706  -1.05047   3.61015   6.99892   1.86392   0.00816   1.005E+00   1.000E-03  -6.183E-03
 818  8.50922749   0.706  -1.05046   3.61014   6.99891   1.86391   0.00812   1.005E+00   1.000E-03  -6.163E-03
 819  8.51012321   0.706  -1.05046   3.61014   6.99889   1.86391   0.00808   1.005E+00   1.000E-03  -6.142E-03
 820  8.51101708   0.706  -1.05045   3.61014   6.99887   1.86390   0.00804   1.005E+00   1.000E-03  -6.122E-03
 821  8.51190912   0.706  -1.05045   3.61014   6.99886   1.86389   0.00800   1.005E+00   1.000E-03  -6.102E-03
 822  8.51279934   0.706  -1.05045   3.61013   6.99884   1.86389   0.00797   1.005E+00   1.000E-03  -6.082E-03
 823  8.51368773   0.706  -1.05044   3.61013   6.99882   1.86388   0.00793   1.005E+00   1.000E-03  -6.062E-03
 824  8.51457430   0.706  -1.05044   3.61013   6.99881   1.86387   0.00789   1.005E+00   1.000E-03  -6.042E-03
 825  8.51545907   0.706  -1.05043   3.61013   6.99879   1.86386   0.00785   1.005E+00   1.000E-03  -6.021E-03
 826  8.51634204   0.706  -1.05043   3.61012   6.99878   1.86386   0.00782   1.005E+00   1.000E-03  -6.001E-03
 827  8.51722323   0.706  -1.05042   3.61012   6.99876   1.86385   0.00778   1.005E+00   1.000E-03  -5.981E-03
 828  8.51810262   0.706  -1.05042   3.61012   6.99874   1.86384   0.00774   1.005E+00   1.000E-03  -5.961E-03
 829  8.51898024   0.706  -1.05041   3.61012   6.99873   1.86384   0.00770   1.005E+00   1.000E-03  -5.941E-03
 830  8.51985609   0.706  -1.05041   3.61012   6.99871   1.86383   0.00767   1.005E+00   1.000E-03  -5.920E-03
 831  8.52073018   0.706  -1.05041   3.61011   6.99870   1.86382   0.00763   1.005E+00   1.000E-03  -5.900E-03
 832  8.52160251   0.706  -1.05040   3.61011   6.99868   1.86382   0.00759   1.005E+00   1.000E-03  -5.880E-03
 833  8.52247309   0.706  -1.05040   3.61011   6.99866   1.86381   0.00755   1.004E+00   1.000E-03  -5.860E-03
 834  8.52334193   0.706  -1.05039   3.61011   6.99865   1.86380   0.00751   1.004E+00   1.000E-03  -5.840E-03
 835  8.52420903   0.706  -1.05039   3.61010   6.99863   1.86380   0.00748   1.004E+00   1.000E-03  -5.820E-03
 836  8.52507441   0.706  -1.05038   3.61010   6.99861   1.86379   0.00744   1.004E+00   1.000E-03  -5.799E-03
 837  8.52593807   0.706  -1.05038   3.61010   6.99860   1.86378   0.00740   1.004E+00   1.000E-03  -5.779E-03
 838  8.52680001   0.706  -1.05037   3.61010   6.99858   1.86378   0.00736   1.004E+00   1.000E-03  -5.759E-03
 839  8.52766024   0.706  -1.05037   3.61009   6.99857   1.86377   0.00733   1.004E+00   1.000E-03  -5.739E-03
 840  8.52851878   0.706  -1.05037   3.61009   6.99855   1.86376   0.00729   1.004E+00   1.000E-03  -5.719E-03
 841  8.52937562   0.706  -1.05036   3.61009   6.99853   1.86375   0.00725   1.004E+00   1.000E-03  -5.699E-03
 842  8.53023077   0.706  -1.05036   3.61009   6.99852   1.86375   0.00721   1.004E+00   1.000E-03  -5.678E-03
 843  8.53108425   0.706  -1.05035   3.61009   6.99850   1.86374   0.00717   1.004E+00   1.000E-03  -5.658E-03
 844  8.53193605   0.706  -1.05035   3.61008   6.99849   1.86373   0.00714   1.004E+00   1.000E-03  -5.638E-03
 845  8.53278618   0.706  -1.05034   3.61008   6.99847   1.86373   0.00710   1.004E+00   1.000E-03  -5.618E-03
 846  8.53363465   0.706  -1.05034   3.61008   6.99845   1.86372   0.00706   1.004E+00   1.000E-03  -5.598E-03
 847  8.53448147   0.706  -1.05033   3.61008   6.99844   1.86371   0.00702   1.004E+00   1.000E-03  -5.578E-03
 848  8.53532663   0.706  -1.05033   3.61007   6.99842   1.86371   0.00699   1.004E+00   1.000E-03  -5.557E-03
 849  8.53617016   0.706  -1.05032   3.61007   6.99840   1.86370   0.00695   1.004E+00   1.000E-03  -5.537E-03
 850  8.53701205   0.706  -1.05032   3.61007   6.99839   1.86369   0.00691   1.004E+00   1.000E-03  -5.517E-03
 851  8.53785232   0.706  -1.05032   3.61007   6.99837   1.86369   0.00687   1.004E+00   1.000E-03  -5.497E-03
 852  8.53869096   0.706  -1.05031   3.61006   6.99836   1.86368   0.00684   1.004E+00   1.000E-03  -5.477E-03
 853  8.53952798   0.705  -1.05031   3.61006   6.99834   1.86367   0.00680   1.004E+00   1.000E-03  -5.456E-03
 854  8.54036339   0.705  -1.05030   3.61006   6.99832   1.86367   0.00676   1.004E+00   1.000E-03  -5.436E-03
 855  8.54119720   0.705  -1.05030   3.61006   6.99831   1.86366   0.00672   1.004E+00   1.000E-03  -5.416E-03
 856  8.54202942   0.705  -1.05029   3.61005   6.99829   1.86365   0.00668   1.004E+00   1.000E-03  -5.396E-03
 857  8.54286004   0.705  -1.05029   3.61005   6.99828   1.86364   0.00665   1.004E+00   1.000E-03  -5.376E-03
 858  8.54368907   0.705  -1.05028   3.61005   6.99826   1.86364   0.00661   1.004E+00   1.000E-03  -5.356E-03
 859  8.54451653   0.705  -1.05028   3.61005   6.99824   1.86363   0.00657   1.004E+00   1.000E-03  -5.335E-03
 860  8.54534241   0.705  -1.05028   3.61005   6.99823   1.86362   0.00653   1.004E+00   1.000E-03  -5.315E-03
 861  8.54616672   0.705  -1.05027   3.61004   6.99821   1.86362   0.00650   1.004E+00   1.000E-03  -5.295E-03
 862  8.54698948   0.705  -1.05027   3.61004   6.99819   1.86361   0.00646   1.004E+00   1.000E-03  -5.275E-03
 863  8.54781067   0.705  -1.05026   3.61004   6.99818   1.86360   0.00642   1.004E+00   1.000E-03  -5.255E-03
 864  8.54863032   0.705  -1.05026   3.61004   6.99816   1.86360   0.00638   1.004E+00   1.000E-03  -5.235E-03
 865  8.54944842   0.705  -1.05025   3.61003   6.99815   1.86359   0.00634   1.004E+00   1.000E-03  -5.214E-03
 866  8.55026499   0.705  -1.05025   3.61003   6.99813   1.86358   0.00631   1.004E+00   1.000E-03  -5.194E-03
 867  8.55108002   0.705  -1.05024   3.61003   6.99811   1.86358   0.00627   1.004E+00   1.000E-03  -5.174E-03
 868  8.55189353   0.705  -1.05024   3.61003   6.99810   1.86357   0.00623   1.004E+00   1.000E-03  -5.154E-03
 869  8.55270551   0.705  -1.05024   3.61002   6.99808   1.86356   0.00619   1.004E+00   1.000E-03  -5.134E-03
 870  8.55351598   0.705  -1.05023   3.61002   6.99807   1.86356   0.00616   1.004E+00   1.000E-03  -5.114E-03
 871  8.55432494   0.705  -1.05023   3.61002   6.99805   1.86355   0.00612   1.004E+00   1.000E-03  -5.093E-03
 872  8.55513240   0.705  -1.05022   3.61002   6.99803   1.86354   0.00608   1.004E+00   1.000E-03  -5.073E-03
 873  8.55593835   0.705  -1.05022   3.61002   6.99802   1.86353   0.00604   1.004E+00   1.000E-03  -5.053E-03
 874  8.55674282   0.705  -1.05021   3.61001   6.99800   1.86353   0.00601   1.004E+00   1.000E-03  -5.033E-03
 875  8.55754579   0.705  -1.05021   3.61001   6.99798   1.86352   0.00597   1.004E+00   1.000E-03  -5.013E-03
 876  8.55834729   0.705  -1.05020   3.61001   6.99797   1.86351   0.00593   1.003E+00   1.000E-03  -4.992E-03
 877  8.55914731   0.705  -1.05020   3.61001   6.99795   1.86351   0.00589   1.003E+00   1.000E-03  -4.972E-03
 878  8.55994586   0.705  -1.05019   3.61000   6.99794   1.86350   0.00585   1.003E+00   1.000E-03  -4.952E-03
 879  8.56074294   0.705  -1.05019   3.61000   6.99792   1.86349   0.00582   1.003E+00   1.000E-03  -4.932E-03
 880  8.56153856   0.705  -1.05019   3.61000   6.99790   1.86349   0.00578   1.003E+00   1.000E-03  -4.912E-03
 881  8.56233273   0.705  -1.05018   3.61000   6.99789   1.86348   0.00574   1.003E+00   1.000E-03  -4.892E-03
 882  8.56312544   0.705  -1.05018   3.60999   6.99787   1.86347   0.00570   1.003E+00   1.000E-03  -4.871E-03
 883  8.56391672   0.705  -1.05017   3.60999   6.99786   1.86347   0.00567   1.003E+00   1.000E-03  -4.851E-03
 884  8.56470655   0.705  -1.05017   3.60999   6.99784   1.86346   0.00563   1.003E+00   1.000E-03  -4.831E-03
 885  8.56549495   0.705  -1.05016   3.60999   6.99782   1.86345   0.00559   1.003E+00   1.000E-03  -4.811E-03
 886  8.56628192   0.705  -1.05016   3.60999   6.99781   1.86345   0.00555   1.003E+00   1.000E-03  -4.791E-03
 887  8.56706747   0.705  -1.05015   3.60998   6.99779   1.86344   0.00551   1.003E+00   1.000E-03  -4.771E-03
 888  8.56785160   0.705  -1.05015   3.60998   6.99777   1.86343   0.00548   1.003E+00   1.000E-03  -4.750E-03
 889  8.56863432   0.705  -1.05015   3.60998   6.99776   1.86342   0.00544   1.003E+00   1.000E-03  -4.730E-03
 890  8.56941562   0.705  -1.05014   3.60998   6.99774   1.86342   0.00540   1.003E+00   1.000E-03  -4.710E-03
 891  8.57019553   0.705  -1.05014   3.60997   6.99773   1.86341   0.00536   1.003E+00   1.000E-03  -4.690E-03
 892  8.57097404   0.705  -1.05013   3.60997   6.99771   1.86340   0.00533   1.003E+00   1.000E-03  -4.670E-03
 893  8.57175115   0.705  -1.05013   3.60997   6.99769   1.86340   0.00529   1.003E+00   1.000E-03  -4.649E-03
 894  8.57252688   0.705  -1.05012   3.60997   6.99768   1.86339   0.00525   1.003E+00   1.000E-03  -4.629E-03
 895  8.57330122   0.705  -1.05012   3.60996   6.99766   1.86338   0.00521   1.003E+00   1.000E-03  -4.609E-03
 896  8.57407418   0.705  -1.05011   3.60996   6.99765   1.86338   0.00518   1.003E+00   1.000E-03  -4.589E-03
 897  8.57484578   0.705  -1.05011   3.60996   6.99763   1.86337   0.00514   1.003E+00   1.000E-03  -4.569E-03
 898  8.57561600   0.705  -1.05011   3.60996   6.99762   1.86337   0.00512   1.003E+00   1.000E-03  -4.561E-03
 899  8.57638486   0.705  -1.05010   3.60996   6.99761   1.86337   0.00510   1.003E+00   1.000E-03  -4.552E-03
 900  8.57715236   0.705  -1.05010   3.60996   6.99760   1.86336   0.00508   1.003E+00   1.000E-03  -4.544E-03
 901  8.57791851   0.705  -1.05009   3.60995   6.99759   1.86336   0.00507   1.003E+00   1.000E-03  -4.535E-03
 902  8.57868330   0.705  -1.05009   3.60995   6.99758   1.86336   0.00505   1.003E+00   1.000E-03  -4.527E-03
 903  8.57944676   0.705  -1.05008   3.60995   6.99757   1.86336   0.00503   1.003E+00   1.000E-03  -4.518E-03
 904  8.58020887   0.705  -1.05008   3.60995   6.99756   1.86335   0.00501   1.003E+00   1.000E-03  -4.510E-03
 905  8.58096965   0.705  -1.05007   3.60995   6.99755   1.86335   0.00499   1.003E+00   1.000E-03  -4.501E-03
 906  8.58172910   0.705  -1.05007   3.60995   6.99754   1.86335   0.00498   1.003E+00   1.000E-03  -4.493E-03
 907  8.58248722   0.705  -1.05006   3.60995   6.99753   1.86335   0.00496   1.003E+00   1.000E-03  -4.484E-03
 908  8.58324402   0.705  -1.05006   3.60994   6.99752   1.86335   0.00494   1.003E+00   1.000E-03  -4.475E-03
 909  8.58399950   0.705  -1.05005   3.60994   6.99751   1.86334   0.00492   1.003E+00   1.000E-03  -4.467E-03
 910  8.58475368   0.705  -1.05005   3.60994   6.99750   1.86334   0.00490   1.003E+00   1.000E-03  -4.458E-03
 911  8.58550654   0.705  -1.05005   3.60994   6.99749   1.86334   0.00489   1.003E+00   1.000E-03  -4.450E-03
 912  8.58625810   0.705  -1.05004   3.60994   6.99748   1.86334   0.00487   1.003E+00   1.000E-03  -4.441E-03
 913  8.58700837   0.705  -1.05004   3.60994   6.99747   1.86333   0.00485   1.003E+00   1.000E-03  -4.433E-03
 914  8.58775734   0.705  -1.05003   3.60994   6.99746   1.86333   0.00483   1.003E+00   1.000E-03  -4.424E-03
 915  8.58850502   0.705  -1.05003   3.60993   6.99745   1.86333   0.00481   1.003E+00   1.000E-03  -4.416E-03
 916  8.58925142   0.705  -1.05002   3.60993   6.99744   1.86333   0.00480   1.003E+00   1.000E-03  -4.407E-03
 917  8.58999653   0.705  -1.05002   3.60993   6.99743   1.86333   0.00478   1.003E+00   1.000E-03  -4.398E-03
 918  8.59074037   0.705  -1.05001   3.60993   6.99742   1.86332   0.00476   1.003E+00   1.000E-03  -4.390E-03
 919  8.59148294   0.705  -1.05001   3.60993   6.99740   1.86332   0.00474   1.003E+00   1.000E-03  -4.381E-03
 920  8.59222424   0.705  -1.05000   3.60993   6.99739   1.86332   0.00472   1.003E+00   1.000E-03  -4.373E-03
 921  8.59296427   0.705  -1.05000   3.60993   6.99738   1.86332   0.00471   1.003E+00   1.000E-03  -4.364E-03
 922  8.59370305   0.705  -1.05000   3.60993   6.99737   1.86331   0.00469   1.003E+00   1.000E-03  -4.356E-03
 923  8.59444057   0.705  -1.04999   3.60992   6.99736   1.86331   0.00467   1.003E+00   1.000E-03  -4.347E-03
 924  8.59517685   0.705  -1.04999   3.60992   6.99735   1.86331   0.00465   1.003E+00   1.000E-03  -4.339E-03
 925  8.59591187   0.705  -1.04998   3.60992   6.99734   1.86331   0.00463   1.003E+00   1.000E-03  -4.330E-03
 926  8.59664566   0.705  -1.04998   3.60992   6.99733   1.86331   0.00462   1.003E+00   1.000E-03  -4.321E-03
 927  8.59737820   0.705  -1.04997   3.60992   6.99732   1.86330   0.00460   1.003E+00   1.000E-03  -4.313E-03
 928  8.59810952   0.705  -1.04997   3.60992   6.99731   1.86330   0.00458   1.003E+00   1.000E-03  -4.304E-03
 929  8.59883960   0.705  -1.04996   3.60992   6.99730   1.86330   0.00456   1.003E+00   1.000E-03  -4.296E-03
 930  8.59956846   0.705  -1.04996   3.60991   6.99729   1.86330   0.00454   1.003E+00   1.000E-03  -4.287E-03
 931  8.60029610   0.705  -1.04995   3.60991   6.99728   1.86329   0.00453   1.003E+00   1.000E-03  -4.279E-03
 932  8.60102252   0.705  -1.04995   3.60991   6.99727   1.86329   0.00451   1.003E+00   1.000E-03  -4.270E-03
 933  8.60174773   0.705  -1.04994   3.60991   6.99726   1.86329   0.00449   1.003E+00   1.000E-03  -4.262E-03
 934  8.60247172   0.705  -1.04994   3.60991   6.99725   1.86329   0.00447   1.003E+00   1.000E-03  -4.253E-03
 935  8.60319452   0.705  -1.04994   3.60991   6.99724   1.86329   0.00445   1.003E+00   1.000E-03  -4.244E-03
 936  8.60391611   0.705  -1.04993   3.60991   6.99723   1.86328   0.00444   1.003E+00   1.000E-03  -4.236E-03
 937  8.60463651   0.705  -1.04993   3.60990   6.99722   1.86328   0.00442   1.003E+00   1.000E-03  -4.227E-03
 938  8.60535571   0.705  -1.04992   3.60990   6.99721   1.86328   0.00440   1.003E+00   1.000E-03  -4.219E-03
 939  8.60607372   0.705  -1.04992   3.60990   6.99720   1.86328   0.00438   1.003E+00   1.000E-03  -4.210E-03
 940  8.60679055   0.705  -1.04991   3.60990   6.99719   1.86327   0.00436   1.003E+00   1.000E-03  -4.202E-03
 941  8.60750620   0.705  -1.04991   3.60990   6.99718   1.86327   0.00435   1.003E+00   1.000E-03  -4.193E-03
 942  8.60822067   0.705  -1.04990   3.60990   6.99717   1.86327   0.00433   1.003E+00   1.000E-03  -4.185E-03
 943  8.60893397   0.704  -1.04990   3.60990   6.99716   1.86327   0.00431   1.003E+00   1.000E-03  -4.176E-03
 944  8.60964609   0.704  -1.04989   3.60989   6.99715   1.86327   0.00429   1.003E+00   1.000E-03  -4.167E-03
 945  8.61035705   0.704  -1.04989   3.60989   6.99714   1.86326   0.00427   1.003E+00   1.000E-03  -4.159E-03
 946  8.61106685   0.704  -1.04989   3.60989   6.99713   1.86326   0.00426   1.003E+00   1.000E-03  -4.150E-03
 947  8.61177549   0.704  -1.04988   3.60989   6.99712   1.86326   0.00424   1.003E+00   1.000E-03  -4.142E-03
 948  8.61248298   0.704  -1.04988   3.60989   6.99711   1.86326   0.00422   1.003E+00   1.000E-03  -4.133E-03
 949  8.61318932   0.704  -1.04987   3.60989   6.99710   1.86325   0.00420   1.003E+00   1.000E-03  -4.125E-03
 950  8.61389450   0.704  -1.04987   3.60989   6.99709   1.86325   0.00418   1.003E+00   1.000E-03  -4.116E-03
 951  8.61459855   0.704  -1.04986   3.60988   6.99708   1.86325   0.00416   1.003E+00   1.000E-03  -4.108E-03
 952  8.61530146   0.704  -1.04986   3.60988   6.99707   1.86325   0.00415   1.003E+00   1.000E-03  -4.099E-03
 953  8.61600323   0.704  -1.04985   3.60988   6.99706   1.86325   0.00413   1.003E+00   1.000E-03  -4.090E-03
 954  8.61670387   0.704  -1.04985   3.60988   6.99705   1.86324   0.00411   1.003E+00   1.000E-03  -4.082E-03
 955  8.61740337   0.704  -1.04984   3.60988   6.99704   1.86324   0.00409   1.003E+00   1.000E-03  -4.073E-03
 956  8.61810176   0.704  -1.04984   3.60988   6.99703   1.86324   0.00407   1.003E+00   1.000E-03  -4.065E-03
 957  8.61879902   0.704  -1.04983   3.60988   6.99702   1.86324   0.00406   1.003E+00   1.000E-03  -4.056E-03
 958  8.61949517   0.704  -1.04983   3.60988   6.99701   1.86323   0.00404   1.003E+00   1.000E-03  -4.048E-03
 959  8.62019020   0.704  -1.04983   3.60987   6.99700   1.86323   0.00402   1.003E+00   1.000E-03  -4.039E-03
 960  8.62088412   0.704  -1.04982   3.60987   6.99699   1.86323   0.00400   1.003E+00   1.000E-03  -4.031E-03
 961  8.62157694   0.704  -1.04982   3.60987   6.99698   1.86323   0.00398   1.003E+00   1.000E-03  -4.022E-03
 962  8.62226865   0.704  -1.04981   3.60987   6.99697   1.86323   0.00397   1.003E+00   1.000E-03  -4.013E-03
 963  8.62295926   0.704  -1.04981   3.60987   6.99696   1.86322   0.00395   1.003E+00   1.000E-03  -4.005E-03
 964  8.62364877   0.704  -1.04980   3.60987   6.99695   1.86322   0.00393   1.003E+00   1.000E-03  -3.996E-03
 965  8.62433719   0.704  -1.04980   3.60987   6.99694   1.86322   0.00391   1.003E+00   1.000E-03  -3.988E-03
 966  8.62502453   0.704  -1.04979   3.60986   6.99693   1.86322   0.00389   1.003E+00   1.000E-03  -3.979E-03
 967  8.62571077   0.704  -1.04979   3.60986   6.99692   1.86321   0.00388   1.003E+00   1.000E-03  -3.971E-03
 968  8.62639594   0.704  -1.04978   3.60986   6.99690   1.86321   0.00386   1.003E+00   1.000E-03  -3.962E-03
 969  8.62708002   0.704  -1.04978   3.60986   6.99689   1.86321   0.00384   1.003E+00   1.000E-03  -3.954E-03
 970  8.62776303   0.704  -1.04977   3.60986   6.99688   1.86321   0.00382   1.003E+00   1.000E-03  -3.945E-03
 971  8.62844496   0.704  -1.04977   3.60986   6.99687   1.86321   0.00380   1.003E+00   1.000E-03  -3.936E-03
 972  8.62912583   0.704  -1.04977   3.60986   6.99686   1.86320   0.00379   1.003E+00   1.000E-03  -3.928E-03
 973  8.62980563   0.704  -1.04976   3.60985   6.99685   1.86320   0.00377   1.003E+00   1.000E-03  -3.919E-03
 974  8.63048437   0.704  -1.04976   3.60985   6.99684   1.86320   0.00375   1.003E+00   1.000E-03  -3.911E-03
 975  8.63116205   0.704  -1.04975   3.60985   6.99683   1.86320   0.00373   1.003E+00   1.000E-03  -3.902E-03
 976  8.63183867   0.704  -1.04975   3.60985   6.99682   1.86319   0.00371   1.003E+00   1.000E-03  -3.894E-03
 977  8.63251424   0.704  -1.04974   3.60985   6.99681   1.86319   0.00370   1.003E+00   1.000E-03  -3.885E-03
 978  8.63318876   0.704  -1.04974   3.60985   6.99680   1.86319   0.00368   1.003E+00   1.000E-03  -3.877E-03
 979  8.63386224   0.704  -1.04973   3.60985   6.99679   1.86319   0.00366   1.003E+00   1.000E-03  -3.868E-03
 980  8.63453467   0.704  -1.04973   3.60984   6.99678   1.86319   0.00364   1.003E+00   1.000E-03  -3.860E-03
 981  8.63520607   0.704  -1.04972   3.60984   6.99677   1.86318   0.00362   1.003E+00   1.000E-03  -3.851E-03
 982  8.63587642   0.704  -1.04972   3.60984   6.99676   1.86318   0.00361   1.003E+00   1.000E-03  -3.842E-03
 983  8.63654575   0.704  -1.04972   3.60984   6.99675   1.86318   0.00359   1.003E+00   1.000E-03  -3.834E-03
 984  8.63721404   0.704  -1.04971   3.60984   6.99674   1.86318   0.00357   1.003E+00   1.000E-03  -3.825E-03
 985  8.63788131   0.704  -1.04971   3.60984   6.99673   1.86317   0.00355   1.003E+00   1.000E-03  -3.817E-03
 986  8.63854755   0.704  -1.04970   3.60984   6.99672   1.86317   0.00353   1.003E+00   1.000E-03  -3.808E-03
 987  8.63921278   0.704  -1.04970   3.60983   6.99671   1.86317   0.00352   1.003E+00   1.000E-03  -3.800E-03
 988  8.63987698   0.704  -1.04969   3.60983   6.99670   1.86317   0.00350   1.003E+00   1.000E-03  -3.791E-03
 989  8.64054017   0.704  -1.04969   3.60983   6.99669   1.86317   0.00348   1.003E+00   1.000E-03  -3.783E-03
 990  8.64120235   0.704  -1.04968   3.60983   6.99668   1.86316   0.00346   1.003E+00   1.000E-03  -3.774E-03
 991  8.64186352   0.704  -1.04968   3.60983   6.99667   1.86316   0.00344   1.003E+00   1.000E-03  -3.765E-03
 992  8.64252369   0.704  -1.04967   3.60983   6.99666   1.86316   0.00343   1.003E+00   1.000E-03  -3.757E-03
 993  8.64318286   0.704  -1.04967   3.60983   6.99665   1.86316   0.00341   1.003E+00   1.000E-03  -3.748E-03
 994  8.64384102   0.704  -1.04966   3.60982   6.99664   1.86315   0.00339   1.002E+00   1.000E-03  -3.740E-03
 995  8.64449819   0.704  -1.04966   3.60982   6.99663   1.86315   0.00337   1.002E+00   1.000E-03  -3.731E-03
 996  8.64515437   0.704  -1.04966   3.60982   6.99662   1.86315   0.00335   1.002E+00   1.000E-03  -3.723E-03
 997  8.64580956   0.704  -1.04965   3.60982   6.99661   1.86315   0.00334   1.002E+00   1.000E-03  -3.714E-03
 998  8.64646376   0.704  -1.04965   3.60982   6.99660   1.86315   0.00332   1.002E+00   1.000E-03  -3.706E-03
 999  8.64711697   0.704  -1.04964   3.60982   6.99659   1.86314   0.00330   1.002E+00   1.000E-03  -3.697E-03
1000  8.64776921   0.704  -1.04964   3.60982   6.99658   1.86314   0.00328   1.002E+00   1.000E-03  -3.688E-03
1001  8.64842047   0.704  -1.04963   3.60982   6.99657   1.86314   0.00326   1.002E+00   1.000E-03  -3.680E-03
1002  8.64907075   0.704  -1.04963   3.60981   6.99656   1.86314   0.00325   1.002E+00   1.000E-03  -3.671E-03
1003  8.64972006   0.704  -1.04962   3.60981   6.99655   1.86313   0.00323   1.002E+00   1.000E-03  -3.663E-03
1004  8.65036840   0.704  -1.04962   3.60981   6.99654   1.86313   0.00321   1.002E+00   1.000E-03  -3.654E-03
1005  8.65101577   0.704  -1.04961   3.60981   6.99653   1.86313   0.00319   1.002E+00   1.000E-03  -3.646E-03
1006  8.65166218   0.704  -1.04961   3.60981   6.99652   1.86313   0.00317   1.002E+00   1.000E-03  -3.637E-03
1007  8.65230763   0.704  -1.04961   3.60981   6.99651   1.86313   0.00315   1.002E+00   1.000E-03  -3.629E-03
1008  8.65295212   0.704  -1.04960   3.60981   6.99650   1.86312   0.00314   1.002E+00   1.000E-03  -3.620E-03
1009  8.65359566   0.704  -1.04960   3.60980   6.99649   1.86312   0.00312   1.002E+00   1.000E-03  -3.611E-03
1010  8.65423825   0.704  -1.04959   3.60980   6.99648   1.86312   0.00310   1.002E+00   1.000E-03  -3.603E-03
1011  8.65487988   0.704  -1.04959   3.60980   6.99647   1.86312   0.00308   1.002E+00   1.000E-03  -3.594E-03
1012  8.65552057   0.704  -1.04958   3.60980   6.99646   1.86312   0.00306   1.002E+00   1.000E-03  -3.586E-03
1013  8.65616032   0.704  -1.04958   3.60980   6.99645   1.86311   0.00305   1.002E+00   1.000E-03  -3.577E-03
1014  8.65679912   0.704  -1.04957   3.60980   6.99644   1.86311   0.00303   1.002E+00   1.000E-03  -3.569E-03
1015  8.65743699   0.704  -1.04957   3.60980   6.99643   1.86311   0.00301   1.002E+00   1.000E-03  -3.560E-03
1016  8.65807392   0.704  -1.04956   3.60979   6.99642   1.86311   0.00299   1.002E+00   1.000E-03  -3.552E-03
1017  8.65870991   0.704  -1.04956   3.60979   6.99641   1.86310   0.00297   1.002E+00   1.000E-03  -3.543E-03
1018  8.65934498   0.704  -1.04955   3.60979   6.99639   1.86310   0.00296   1.002E+00   1.000E-03  -3.534E-03
1019  8.65997912   0.704  -1.04955   3.60979   6.99638   1.86310   0.00294   1.002E+00   1.000E-03  -3.526E-03
1020  8.66061234   0.704  -1.04955   3.60979   6.99637   1.86310   0.00292   1.002E+00   1.000E-03  -3.517E-03
1021  8.66124463   0.704  -1.04954   3.60979   6.99636   1.86310   0.00290   1.002E+00   1.000E-03  -3.509E-03
1022  8.66187601   0.704  -1.04954   3.60979   6.99635   1.86309   0.00288   1.002E+00   1.000E-03  -3.500E-03
1023  8.66250646   0.704  -1.04953   3.60978   6.99634   1.86309   0.00287   1.002E+00   1.000E-03  -3.492E-03
1024  8.66313601   0.704  -1.04953   3.60978   6.99633   1.86309   0.00285   1.002E+00   1.000E-03  -3.483E-03
1025  8.66376464   0.704  -1.04952   3.60978   6.99632   1.86309   0.00283   1.002E+00   1.000E-03  -3.475E-03
1026  8.66439237   0.704  -1.04952   3.60978   6.99631   1.86308   0.00281   1.002E+00   1.000E-03  -3.466E-03
1027  8.66501918   0.704  -1.04951   3.60978   6.99630   1.86308   0.00279   1.002E+00   1.000E-03  -3.457E-03
1028  8.66564510   0.704  -1.04951   3.60978   6.99629   1.86308   0.00278   1.002E+00   1.000E-03  -3.449E-03
1029  8.66627011   0.704  -1.04950   3.60978   6.99628   1.86308   0.00276   1.002E+00   1.000E-03  -3.440E-03
1030  8.66689423   0.704  -1.04950   3.60977   6.99627   1.86308   0.00274   1.002E+00   1.000E-03  -3.432E-03
1031  8.66751745   0.703  -1.04950   3.60977   6.99626   1.86307   0.00272   1.002E+00   1.000E-03  -3.423E-03
1032  8.66813978   0.703  -1.04949   3.60977   6.99625   1.86307   0.00270   1.002E+00   1.000E-03  -3.415E-03
1033  8.66876121   0.703  -1.04949   3.60977   6.99624   1.86307   0.00269   1.002E+00   1.000E-03  -3.406E-03
1034  8.66938176   0.703  -1.04948   3.60977   6.99623   1.86307   0.00267   1.002E+00   1.000E-03  -3.398E-03
1035  8.67000142   0.703  -1.04948   3.60977   6.99622   1.86306   0.00265   1.002E+00   1.000E-03  -3.389E-03
1036  8.67062021   0.703  -1.04947   3.60977   6.99621   1.86306   0.00263   1.002E+00   1.000E-03  -3.380E-03
1037  8.67123811   0.703  -1.04947   3.60977   6.99620   1.86306   0.00261   1.002E+00   1.000E-03  -3.372E-03
1038  8.67185513   0.703  -1.04946   3.60976   6.99619   1.86306   0.00260   1.002E+00   1.000E-03  -3.363E-03
1039  8.67247127   0.703  -1.04946   3.60976   6.99618   1.86306   0.00258   1.002E+00   1.000E-03  -3.355E-03
1040  8.67308655   0.703  -1.04945   3.60976   6.99617   1.86305   0.00256   1.002E+00   1.000E-03  -3.346E-03
1041  8.67370095   0.703  -1.04945   3.60976   6.99616   1.86305   0.00254   1.002E+00   1.000E-03  -3.338E-03
1042  8.67431449   0.703  -1.04944   3.60976   6.99615   1.86305   0.00252   1.002E+00   1.000E-03  -3.329E-03
1043  8.67492716   0.703  -1.04944   3.60976   6.99614   1.86305   0.00251   1.002E+00   1.000E-03  -3.321E-03
1044  8.67553896   0.703  -1.04944   3.60976   6.99613   1.86304   0.00249   1.002E+00   1.000E-03  -3.312E-03
1045  8.67614991   0.703  -1.04943   3.60975   6.99612   1.86304   0.00247   1.002E+00   1.000E-03  -3.303E-03
1046  8.67676000   0.703  -1.04943   3.60975   6.99611   1.86304   0.00245   1.002E+00   1.000E-03  -3.295E-03
1047  8.67736923   0.703  -1.04942   3.60975   6.99610   1.86304   0.00243   1.002E+00   1.000E-03  -3.286E-03
1048  8.67797761   0.703  -1.04942   3.60975   6.99609   1.86304   0.00242   1.002E+00   1.000E-03  -3.278E-03
1049  8.67858514   0.703  -1.04941   3.60975   6.99608   1.86303   0.00240   1.002E+00   1.000E-03  -3.269E-03
1050  8.67919182   0.703  -1.04941   3.60975   6.99607   1.86303   0.00238   1.002E+00   1.000E-03  -3.261E-03
1051  8.67979765   0.703  -1.04940   3.60975   6.99606   1.86303   0.00236   1.002E+00   1.000E-03  -3.252E-03
1052  8.68040264   0.703  -1.04940   3.60974   6.99605   1.86303   0.00234   1.002E+00   1.000E-03  -3.244E-03
1053  8.68100678   0.703  -1.04939   3.60974   6.99604   1.86302   0.00233   1.002E+00   1.000E-03  -3.235E-03
1054  8.68161009   0.703  -1.04939   3.60974   6.99603   1.86302   0.00231   1.002E+00   1.000E-03  -3.227E-03
1055  8.68221256   0.703  -1.04939   3.60974   6.99602   1.86302   0.00229   1.002E+00   1.000E-03  -3.218E-03
1056  8.68281420   0.703  -1.04938   3.60974   6.99601   1.86302   0.00227   1.002E+00   1.000E-03  -3.209E-03
1057  8.68341500   0.703  -1.04938   3.60974   6.99600   1.86302   0.00225   1.002E+00   1.000E-03  -3.201E-03
1058  8.68401498   0.703  -1.04937   3.60974   6.99599   1.86301   0.00224   1.002E+00   1.000E-03  -3.192E-03
1059  8.68461412   0.703  -1.04937   3.60973   6.99598   1.86301   0.00222   1.002E+00   1.000E-03  -3.184E-03
1060  8.68521244   0.703  -1.04936   3.60973   6.99597   1.86301   0.00220   1.002E+00   1.000E-03  -3.175E-03
1061  8.68580994   0.703  -1.04936   3.60973   6.99596   1.86301   0.00218   1.002E+00   1.000E-03  -3.167E-03
1062  8.68640662   0.703  -1.04935   3.60973   6.99595   1.86300   0.00216   1.002E+00   1.000E-03  -3.158E-03
1063  8.68700248   0.703  -1.04935   3.60973   6.99594   1.86300   0.00214   1.002E+00   1.000E-03  -3.150E-03
1064  8.68759752   0.703  -1.04934   3.60973   6.99593   1.86300   0.00213   1.002E+00   1.000E-03  -3.141E-03
1065  8.68819175   0.703  -1.04934   3.60973   6.99592   1.86300   0.00211   1.002E+00   1.000E-03  -3.132E-03
1066  8.68878516   0.703  -1.04933   3.60972   6.99591   1.86300   0.00209   1.002E+00   1.000E-03  -3.124E-03
1067  8.68937777   0.703  -1.04933   3.60972   6.99589   1.86299   0.00207   1.002E+00   1.000E-03  -3.115E-03
1068  8.68996957   0.703  -1.04933   3.60972   6.99588   1.86299   0.00205   1.002E+00   1.000E-03  -3.107E-03
1069  8.69056056   0.703  -1.04932   3.60972   6.99587   1.86299   0.00204   1.002E+00   1.000E-03  -3.098E-03
1070  8.69115075   0.703  -1.04932   3.60972   6.99586   1.86299   0.00202   1.002E+00   1.000E-03  -3.090E-03
1071  8.69174014   0.703  -1.04931   3.60972   6.99585   1.86298   0.00200   1.002E+00   1.000E-03  -3.081E-03
1072  8.69232873   0.703  -1.04931   3.60972   6.99584   1.86298   0.00198   1.002E+00   1.000E-03  -3.073E-03
1073  8.69291652   0.703  -1.04930   3.60972   6.99583   1.86298   0.00196   1.002E+00   1.000E-03  -3.064E-03
1074  8.69350352   0.703  -1.04930   3.60971   6.99582   1.86298   0.00195   1.002E+00   1.000E-03  -3.055E-03
1075  8.69408973   0.703  -1.04929   3.60971   6.99581   1.86298   0.00193   1.002E+00   1.000E-03  -3.047E-03
1076  8.69467514   0.703  -1.04929   3.60971   6.99580   1.86297   0.00191   1.002E+00   1.000E-03  -3.038E-03
1077  8.69525977   0.703  -1.04928   3.60971   6.99579   1.86297   0.00189   1.002E+00   1.000E-03  -3.030E-03
1078  8.69584362   0.703  -1.04928   3.60971   6.99578   1.86297   0.00187   1.002E+00   1.000E-03  -3.021E-03
1079  8.69642667   0.703  -1.04928   3.60971   6.99577   1.86297   0.00186   1.002E+00   1.000E-03  -3.013E-03
1080  8.69700895   0.703  -1.04927   3.60971   6.99576   1.86296   0.00184   1.002E+00   1.000E-03  -3.004E-03
1081  8.69759045   0.703  -1.04927   3.60970   6.99575   1.86296   0.00182   1.002E+00   1.000E-03  -2.996E-03
1082  8.69817117   0.703  -1.04926   3.60970   6.99574   1.86296   0.00180   1.002E+00   1.000E-03  -2.987E-03
1083  8.69875111   0.703  -1.04926   3.60970   6.99573   1.86296   0.00178   1.002E+00   1.000E-03  -2.978E-03
1084  8.69933028   0.703  -1.04925   3.60970   6.99572   1.86296   0.00177   1.002E+00   1.000E-03  -2.970E-03
1085  8.69990868   0.703  -1.04925   3.60970   6.99571   1.86295   0.00175   1.002E+00   1.000E-03  -2.961E-03
1086  8.70048631   0.703  -1.04924   3.60970   6.99570   1.86295   0.00173   1.002E+00   1.000E-03  -2.953E-03
1087  8.70106318   0.703  -1.04924   3.60970   6.99569   1.86295   0.00171   1.002E+00   1.000E-03  -2.944E-03
1088  8.70163927   0.703  -1.04923   3.60969   6.99568   1.86295   0.00169   1.002E+00   1.000E-03  -2.936E-03
1089  8.70221461   0.703  -1.04923   3.60969   6.99567   1.86294   0.00168   1.002E+00   1.000E-03  -2.927E-03
1090  8.70278918   0.703  -1.04922   3.60969   6.99566   1.86294   0.00166   1.002E+00   1.000E-03  -2.919E-03
1091  8.70336300   0.703  -1.04922   3.60969   6.99565   1.86294   0.00164   1.002E+00   1.000E-03  -2.910E-03
1092  8.95646069   0.696  -1.04664   3.60937   6.99321   1.86315   0.00000   1.000E+00   1.000E-03  -1.318E-03
1093  9.11532216   0.689  -1.04401   3.60934   6.99264   1.86493   0.00000   1.000E+00   1.000E-03  -6.102E-04
1094  9.23138270   0.682  -1.04128   3.60946   6.99270   1.86792   0.00000   9.990E-01   1.000E-03  -2.838E-04
1095  9.32287735   0.675  -1.03854   3.60965   6.99310   1.87147   0.00000   9.990E-01   1.000E-03  -1.135E-04
1096  9.39841047   0.668  -1.03581   3.60989   6.99369   1.87548   0.00000   9.990E-01   1.000E-03  -1.360E-05
1097  9.46273256   0.660  -1.03309   3.61014   6.99437   1.87952   0.00000   9.990E-01   1.000E-03   5.601E-05
1098  9.51874553   0.653  -1.03040   3.61040   6.99513   1.88366   0.00000   9.990E-01   1.000E-03   1.063E-04
1099  9.56835258   0.646  -1.02773   3.61068   6.99593   1.88786   0.00000   9.990E-01   1.000E-03   1.462E-04
1100  9.61286973   0.639  -1.02507   3.61096   6.99678   1.89210   0.00000   9.990E-01   1.000E-03   1.791E-04
1101  9.65324494   0.632  -1.02241   3.61124   6.99767   1.89636   0.00000   9.990E-01   1.000E-03   2.071E-04
1102  9.69018379   0.625  -1.01977   3.61153   6.99857   1.90064   0.00000   9.990E-01   1.000E-03   2.320E-04
1103  9.72422560   0.618  -1.01713   3.61182   6.99950   1.90492   0.00000   9.990E-01   1.000E-03   2.550E-04
1104  9.75579194   0.611  -1.01448   3.61212   7.00045   1.90922   0.00000   9.990E-01   1.000E-03   2.760E-04
1105  9.78521855   0.604  -1.01185   3.61242   7.00141   1.91351   0.00000   9.990E-01   1.000E-03   2.960E-04
1106  9.81277719   0.597  -1.00921   3.61273   7.00239   1.91816   0.00000   9.990E-01   1.000E-03   3.139E-04
1107  9.83869093   0.591  -1.00655   3.61303   7.00344   1.92331   0.00000   9.990E-01   1.000E-03   3.279E-04
1108  9.86314512   0.584  -1.00388   3.61334   7.00452   1.92845   0.00000   9.990E-01   1.000E-03   3.419E-04
1109  9.88629543   0.577  -1.00121   3.61365   7.00566   1.93361   0.00000   9.990E-01   1.000E-03   3.529E-04
1110  9.90827391   0.571  -0.99851   3.61396   7.00683   1.93876   0.00000   9.990E-01   1.000E-03   3.629E-04
1111  9.92919348   0.564  -0.99580   3.61427   7.00802   1.94394   0.00000   9.990E-01   1.000E-03   3.759E-04
1112  9.94915152   0.557  -0.99308   3.61458   7.00923   1.94914   0.00000   9.990E-01   1.000E-03   3.869E-04
1113  9.96823254   0.550  -0.99032   3.61490   7.01046   1.95436   0.00000   9.980E-01   1.000E-03   3.989E-04
1114  9.98651039   0.544  -0.98756   3.61521   7.01170   1.95961   0.00000   9.980E-01   1.000E-03   4.118E-04
1115 10.00404996   0.537  -0.98477   3.61553   7.01296   1.96488   0.00000   9.980E-01   1.000E-03   4.238E-04
1116 10.02090858   0.530  -0.98195   3.61585   7.01423   1.97019   0.00000   9.980E-01   1.000E-03   4.358E-04
1117 10.03713715   0.523  -0.97911   3.61616   7.01551   1.97551   0.00000   9.980E-01   1.000E-03   4.478E-04
1118 10.05278109   0.517  -0.97624   3.61648   7.01680   1.98087   0.00000   9.980E-01   1.000E-03   4.618E-04
1119 10.06788104   0.510  -0.97335   3.61681   7.01810   1.98628   0.00000   9.980E-01   1.000E-03   4.747E-04
1120 10.08247358   0.503  -0.97044   3.61714   7.01940   1.99169   0.00000   9.980E-01   1.000E-03   4.868E-04
1121 10.09659170   0.496  -0.96750   3.61748   7.02072   1.99716   0.00000   9.980E-01   1.000E-03   4.997E-04
1122 10.11026527   0.489  -0.96454   3.61781   7.02205   2.00265   0.00000   9.980E-01   1.000E-03   5.127E-04
1123 10.12352145   0.483  -0.96155   3.61816   7.02338   2.00818   0.00000   9.980E-01   1.000E-03   5.247E-04
1124 10.13638496   0.476  -0.95852   3.61850   7.02473   2.01376   0.00000   9.980E-01   1.000E-03   5.387E-04
1125 10.14887840   0.469  -0.95549   3.61885   7.02607   2.01936   0.00000   9.980E-01   1.000E-03   5.516E-04
1126 10.16102246   0.462  -0.95241   3.61920   7.02742   2.02500   0.00000   9.980E-01   1.000E-03   5.655E-04
1127 10.17283616   0.455  -0.94932   3.61955   7.02878   2.03068   0.00000   9.980E-01   1.000E-03   5.795E-04
1128 10.18433699   0.449  -0.94619   3.61991   7.03016   2.03639   0.00000   9.980E-01   1.000E-03   5.925E-04
1129 10.19554111   0.442  -0.94304   3.62027   7.03153   2.04215   0.00000   9.980E-01   1.000E-03   6.055E-04
1130 10.20646342   0.435  -0.93984   3.62064   7.03292   2.04794   0.00000   9.980E-01   1.000E-03   6.195E-04
1131 10.21711778   0.428  -0.93663   3.62101   7.03431   2.05378   0.00000   9.980E-01   1.000E-03   6.315E-04
1132 10.22751700   0.421  -0.93338   3.62139   7.03571   2.05966   0.00000   9.980E-01   1.000E-03   6.436E-04
1133 10.23767302   0.414  -0.93011   3.62177   7.03712   2.06559   0.00000   9.980E-01   1.000E-03   6.557E-04
1134 10.24759696   0.408  -0.92680   3.62215   7.03855   2.07158   0.00000   9.980E-01   1.000E-03   6.677E-04
1135 10.25729919   0.401  -0.92349   3.62253   7.03999   2.07761   0.00000   9.980E-01   1.000E-03   6.805E-04
1136 10.26678939   0.394  -0.92013   3.62292   7.04145   2.08478   0.00000   9.980E-01   1.000E-03   6.907E-04
1137 10.27607665   0.387  -0.91675   3.62331   7.04299   2.09213   0.00000   9.980E-01   1.000E-03   7.005E-04
1138 10.28516945   0.380  -0.91333   3.62370   7.04456   2.09952   0.00000   9.980E-01   1.000E-03   7.089E-04
1139 10.29407577   0.373  -0.90988   3.62410   7.04615   2.10698   0.00000   9.980E-01   1.000E-03   7.244E-04
1140 10.30280311   0.366  -0.90641   3.62450   7.04779   2.11447   0.00000   9.980E-01   1.000E-03   7.307E-04
1141 10.31135851   0.359  -0.90290   3.62490   7.04945   2.12199   0.00000   9.980E-01   1.000E-03   7.406E-04
1142 10.31974864   0.352  -0.89935   3.62531   7.05115   2.12962   0.00000   9.980E-01   1.000E-03   7.505E-04
1143 10.32797974   0.345  -0.89578   3.62572   7.05287   2.13724   0.00000   9.980E-01   1.000E-03   7.594E-04
1144 10.33605773   0.338  -0.89216   3.62613   7.05463   2.14497   0.00000   9.980E-01   1.000E-03   7.672E-04
1145 10.34398821   0.331  -0.88850   3.62655   7.05640   2.15269   0.00000   9.980E-01   1.000E-03   7.782E-04
1146 10.35177647   0.324  -0.88482   3.62697   7.05820   2.16046   0.00000   9.980E-01   1.000E-03   7.865E-04
1147 10.35942752   0.317  -0.88108   3.62740   7.06002   2.16827   0.00000   9.980E-01   1.000E-03   7.927E-04
1148 10.36694611   0.311  -0.87731   3.62782   7.06186   2.17606   0.00000   9.980E-01   1.000E-03   8.015E-04
1149 10.37433675   0.304  -0.87349   3.62826   7.06372   2.18396   0.00000   9.980E-01   1.000E-03   8.125E-04
1150 10.38160372   0.297  -0.86962   3.62870   7.06560   2.19184   0.00000   9.980E-01   1.000E-03   8.214E-04
1151 10.38875109   0.290  -0.86571   3.62914   7.06750   2.19979   0.00000   9.980E-01   1.000E-03   8.314E-04
1152 10.39578273   0.283  -0.86176   3.62958   7.06943   2.20779   0.00000   9.980E-01   1.885E-03   8.388E-04
1153 10.40270234   0.277  -0.85777   3.63003   7.07137   2.21582   0.00000   9.980E-01   2.000E-03   8.466E-04
1154 10.40951342   0.270  -0.85371   3.63050   7.07334   2.22391   0.00000   9.980E-01   2.000E-03   8.655E-04
1155 10.41621933   0.264  -0.84960   3.63095   7.07533   2.23193   0.00000   9.980E-01   2.000E-03   8.836E-04
1156 10.42282327   0.257  -0.84545   3.63143   7.07733   2.24007   0.00000   9.980E-01   2.000E-03   9.020E-04
1157 10.42932829   0.251  -0.84125   3.63191   7.07936   2.24819   0.00000   9.979E-01   2.000E-03   9.178E-04
1158 10.43573732   0.245  -0.83699   3.63239   7.08140   2.25634   0.00000   9.970E-01   2.000E-03   9.353E-04
1159 10.44205313   0.239  -0.83268   3.63288   7.08347   2.26456   0.00000   9.970E-01   2.000E-03   9.558E-04
1160 10.44827842   0.233  -0.82831   3.63338   7.08555   2.27282   0.00000   9.970E-01   2.000E-03   9.742E-04
1161 10.45441572   0.227  -0.82389   3.63388   7.08766   2.28113   0.00000   9.970E-01   2.000E-03   9.925E-04
1162 10.46046751   0.221  -0.81941   3.63440   7.08979   2.28945   0.00000   9.970E-01   2.000E-03   1.009E-03
1163 10.46643612   0.215  -0.81487   3.63492   7.09193   2.29788   0.00000   9.970E-01   2.000E-03   1.032E-03
1164 10.47232381   0.209  -0.81028   3.63544   7.09409   2.30636   0.00000   9.970E-01   2.000E-03   1.050E-03
1165 10.47813276   0.204  -0.80562   3.63597   7.09628   2.31494   0.00000   9.970E-01   2.000E-03   1.068E-03
1166 10.48386503   0.198  -0.80091   3.63652   7.09848   2.32416   0.00000   9.970E-01   2.000E-03   1.090E-03
1167 10.48952262   0.192  -0.79612   3.63707   7.10072   2.33445   0.00000   9.970E-01   2.000E-03   1.110E-03
1168 10.49510746   0.187  -0.79129   3.63763   7.10307   2.34482   0.00000   9.970E-01   2.000E-03   1.120E-03
1169 10.50062139   0.181  -0.78638   3.63819   7.10552   2.35534   0.00000   9.970E-01   2.000E-03   1.150E-03
1170 10.50606619   0.176  -0.78141   3.63876   7.10803   2.36597   0.00000   9.970E-01   2.000E-03   1.168E-03
1171 10.51144357   0.170  -0.77636   3.63934   7.11057   2.37677   0.00000   9.970E-01   2.000E-03   1.190E-03
1172 10.51675518   0.165  -0.77126   3.63992   7.11318   2.38766   0.00000   9.970E-01   2.000E-03   1.200E-03
1173 10.52200262   0.160  -0.76608   3.64051   7.11587   2.39873   0.00000   9.970E-01   2.000E-03   1.225E-03
1174 10.52718740   0.154  -0.76082   3.64111   7.11861   2.40993   0.00000   9.970E-01   2.000E-03   1.251E-03
1175 10.53231102   0.149  -0.75548   3.64171   7.12140   2.42130   0.00000   9.960E-01   2.000E-03   1.270E-03
1176 10.53737490   0.143  -0.75007   3.64232   7.12426   2.43280   0.00000   9.960E-01   2.000E-03   1.294E-03
1177 10.54238041   0.138  -0.74458   3.64293   7.12717   2.44449   0.00000   9.960E-01   2.154E-03   1.313E-03
1178 10.54732889   0.133  -0.73898   3.64356   7.13011   2.45642   0.00000   9.960E-01   3.000E-03   1.349E-03
1179 10.55222162   0.128  -0.73331   3.64419   7.13310   2.46846   0.00000   9.960E-01   3.000E-03   1.368E-03
1180 10.55705984   0.122  -0.72754   3.64483   7.13615   2.48070   0.00000   9.960E-01   3.000E-03   1.386E-03
1181 10.56184475   0.117  -0.72167   3.64547   7.13923   2.49319   0.00000   9.950E-01   3.000E-03   1.425E-03
1182 10.56657752   0.112  -0.71570   3.64612   7.14235   2.50586   0.00000   9.950E-01   3.000E-03   1.445E-03
1183 10.57125927   0.107  -0.70962   3.64678   7.14549   2.51884   0.00000   9.950E-01   4.000E-03   1.480E-03
1184 10.57589108   0.102  -0.70342   3.64745   7.14866   2.53206   0.00000   9.950E-01   4.000E-03   1.506E-03
1185 10.58047402   0.097  -0.69710   3.64812   7.15186   2.54556   0.00000   9.940E-01   4.000E-03   1.527E-03
1186 10.58500910   0.092  -0.69067   3.64881   7.15509   2.55937   0.00000   9.940E-01   5.000E-03   1.560E-03
1187 10.58949731   0.087  -0.68408   3.64950   7.15833   2.57356   0.00000   9.930E-01   5.000E-03   1.602E-03
1188 10.59393962   0.083  -0.67738   3.65020   7.16160   2.58811   0.00000   9.930E-01   6.000E-03   1.626E-03
1189 10.59833694   0.078  -0.67052   3.65090   7.16491   2.60299   0.00000   9.920E-01   6.000E-03   1.660E-03
1190 10.60269019   0.073  -0.66351   3.65161   7.16825   2.61830   0.00000   9.910E-01   7.000E-03   1.694E-03
1191 10.60700024   0.069  -0.65635   3.65232   7.17164   2.63404   0.00000   9.900E-01   8.000E-03   1.730E-03
1192 10.60826173   0.068  -0.65420   3.65253   7.17266   2.63874   0.00000   9.900E-01   8.000E-03   1.741E-03
1193 10.60951956   0.066  -0.65205   3.65274   7.17368   2.64348   0.00000   9.899E-01   8.135E-03   1.761E-03
1194 10.61077376   0.065  -0.64988   3.65295   7.17470   2.64825   0.00000   9.890E-01   9.000E-03   1.772E-03
1195 10.61202435   0.064  -0.64770   3.65317   7.17573   2.65307   0.00000   9.890E-01   9.000E-03   1.780E-03
1196 10.61327134   0.063  -0.64550   3.65337   7.17676   2.65791   0.00000   9.890E-01   9.392E-03   1.784E-03
1197 10.61451477   0.061  -0.64328   3.65358   7.17781   2.66277   0.00000   9.885E-01   1.000E-02   1.795E-03
1198 10.61575465   0.060  -0.64106   3.65380   7.17886   2.66767   0.00000   9.880E-01   1.000E-02   1.812E-03
1199 10.61699099   0.059  -0.63880   3.65402   7.17992   2.67261   0.00000   9.873E-01   1.072E-02   1.827E-03
1200 10.61822383   0.058  -0.63654   3.65423   7.18099   2.67759   0.00000   9.870E-01   1.100E-02   1.838E-03
1201 10.61945318   0.056  -0.63423   3.65446   7.18206   2.68258   0.00000   9.870E-01   1.197E-02   1.850E-03
1202 10.62067906   0.055  -0.63191   3.65469   7.18316   2.68765   0.00000   9.860E-01   1.200E-02   1.896E-03
1203 10.62190149   0.054  -0.62961   3.65490   7.18426   2.69270   0.00000   9.857E-01   1.229E-02   1.867E-03
1204 10.62312048   0.053  -0.62729   3.65511   7.18536   2.69780   0.00000   9.850E-01   1.300E-02   1.869E-03
1205 10.62433607   0.052  -0.62496   3.65533   7.18648   2.70294   0.00000   9.844E-01   1.360E-02   1.886E-03
1206 10.62554826   0.051  -0.62261   3.65554   7.18762   2.70812   0.00000   9.840E-01   1.400E-02   1.898E-03
1207 10.62675707   0.049  -0.62023   3.65575   7.18876   2.71333   0.00000   9.831E-01   1.495E-02   1.900E-03
1208 10.62796254   0.048  -0.61784   3.65596   7.18992   2.71859   0.00000   9.829E-01   1.514E-02   1.921E-03
1209 10.62916466   0.047  -0.61543   3.65618   7.19110   2.72388   0.00000   9.820E-01   1.600E-02   1.933E-03
1210 10.63036347   0.046  -0.61301   3.65640   7.19230   2.72918   0.00000   9.815E-01   1.654E-02   1.945E-03
1211 10.63155898   0.045  -0.61057   3.65661   7.19351   2.73452   0.00000   9.810E-01   1.700E-02   1.950E-03
1212 10.63275120   0.044  -0.60812   3.65682   7.19474   2.73987   0.00000   9.800E-01   1.797E-02   1.960E-03
1213 10.63394016   0.043  -0.60565   3.65704   7.19599   2.74527   0.00000   9.790E-01   1.900E-02   1.972E-03
1214 10.63512588   0.041  -0.60317   3.65725   7.19727   2.75071   0.00000   9.786E-01   1.944E-02   1.984E-03
1215 10.63630836   0.040  -0.60066   3.65747   7.19856   2.75616   0.00000   9.773E-01   2.068E-02   1.997E-03
1216 10.63748764   0.039  -0.59814   3.65769   7.19988   2.76165   0.00000   9.761E-01   2.193E-02   2.009E-03
1217 10.63866372   0.038  -0.59561   3.65790   7.20123   2.76716   0.00000   9.750E-01   2.300E-02   2.010E-03
1218 10.63983663   0.037  -0.59304   3.65812   7.20261   2.77266   0.00000   9.745E-01   2.347E-02   2.019E-03
1219 10.64100637   0.036  -0.59045   3.65834   7.20401   2.77820   0.00000   9.732E-01   2.475E-02   2.053E-03
1220 10.64217298   0.035  -0.58786   3.65856   7.20544   2.78375   0.00000   9.720E-01   2.604E-02   2.060E-03
1221 10.64333646   0.034  -0.58526   3.65877   7.20691   2.78930   0.00000   9.707E-01   2.734E-02   2.060E-03
1222 10.64449683   0.033  -0.58264   3.65898   7.20840   2.79488   0.00000   9.694E-01   2.864E-02   2.060E-03
1223 10.64565411   0.032  -0.58000   3.65920   7.20994   2.80046   0.00000   9.680E-01   2.996E-02   2.070E-03
1224 10.64680831   0.030  -0.57735   3.65941   7.21151   2.80605   0.00000   9.657E-01   3.156E-02   2.080E-03
1225 10.64795945   0.029  -0.57468   3.65963   7.21312   2.81161   0.00000   9.644E-01   3.361E-02   2.086E-03
1226 10.64910755   0.028  -0.57200   3.65984   7.21477   2.81718   0.00000   9.631E-01   3.494E-02   2.099E-03
1227 10.65025263   0.027  -0.56931   3.66006   7.21645   2.82275   0.00000   9.607E-01   3.728E-02   2.110E-03
1228 10.65139469   0.026  -0.56660   3.66026   7.21817   2.82831   0.00000   9.587E-01   3.926E-02   2.110E-03
1229 10.65253376   0.025  -0.56388   3.66048   7.21994   2.83386   0.00000   9.570E-01   4.098E-02   2.110E-03
1230 10.65366984   0.023  -0.56108   3.66072   7.22175   2.83941   0.00000   9.543E-01   4.336E-02   2.169E-03
1231 10.65480297   0.022  -0.55834   3.66094   7.22361   2.84499   0.00000   9.522E-01   4.550E-02   2.175E-03
1232 10.65593314   0.021  -0.55560   3.66115   7.22546   2.85052   0.00000   9.498E-01   4.824E-02   2.119E-03
1233 10.65706038   0.020  -0.55284   3.66135   7.22736   2.85605   0.00000   9.470E-01   5.098E-02   2.125E-03
1234 10.65818470   0.019  -0.55006   3.66156   7.22928   2.86160   0.00000   9.443E-01   5.375E-02   2.157E-03
1235 10.65930612   0.017  -0.54727   3.66177   7.23121   2.86722   0.00000   9.415E-01   5.653E-02   2.160E-03
1236 10.66042465   0.016  -0.54446   3.66197   7.23315   2.87289   0.00000   9.386E-01   5.938E-02   2.215E-03
1237 10.66154031   0.015  -0.54159   3.66219   7.23513   2.87866   0.00000   9.346E-01   6.245E-02   2.409E-03
1238 10.66265311   0.014  -0.53869   3.66241   7.23709   2.88458   0.00000   9.312E-01   6.581E-02   2.646E-03
1239 10.66376306   0.012  -0.53576   3.66262   7.23898   2.89068   0.00000   9.275E-01   6.951E-02   2.878E-03
1240 10.66487019   0.011  -0.53281   3.66284   7.24075   2.89697   0.00000   9.234E-01   7.357E-02   3.132E-03
1241 10.66597450   0.010  -0.52984   3.66305   7.24240   2.90355   0.00000   9.190E-01   7.700E-02   3.400E-03
1242 10.66626526   0.010  -0.52905   3.66311   7.24280   2.90535   0.00000   9.184E-01   7.824E-02   3.468E-03
1243 10.66655583   0.009  -0.52826   3.66316   7.24320   2.90715   0.00000   9.175E-01   7.925E-02   3.538E-03
1244 10.66684620   0.009  -0.52747   3.66322   7.24359   2.90896   0.00000   9.162E-01   7.989E-02   3.608E-03
1245 10.66713638   0.009  -0.52666   3.66328   7.24395   2.91081   0.00000   9.154E-01   8.111E-02   3.675E-03
1246 10.66742637   0.008  -0.52586   3.66334   7.24431   2.91268   0.00000   9.146E-01   8.222E-02   3.742E-03
1247 10.66771616   0.008  -0.52505   3.66339   7.24466   2.91456   0.00000   9.132E-01   8.291E-02   3.811E-03
1248 10.66800576   0.008  -0.52424   3.66345   7.24500   2.91648   0.00000   9.124E-01   8.421E-02   3.881E-03
1249 10.66829516   0.008  -0.52342   3.66351   7.24533   2.91842   0.00000   9.114E-01   8.532E-02   3.948E-03
1250 10.66858437   0.007  -0.52261   3.66356   7.24564   2.92039   0.00000   9.100E-01   8.604E-02   4.013E-03
1251 10.66887339   0.007  -0.52179   3.66361   7.24595   2.92238   0.00000   9.092E-01   8.677E-02   4.072E-03
1252 10.66916222   0.007  -0.52097   3.66367   7.24624   2.92440   0.00000   9.080E-01   8.752E-02   4.142E-03
1253 10.66945086   0.006  -0.52014   3.66373   7.24652   2.92643   0.00000   9.067E-01   8.857E-02   4.216E-03
1254 10.66973930   0.006  -0.51932   3.66378   7.24680   2.92849   0.00000   9.059E-01   9.006E-02   4.285E-03
1255 10.67002756   0.006  -0.51849   3.66384   7.24706   2.93058   0.00000   9.052E-01   9.085E-02   4.348E-03
1256 10.67031562   0.006  -0.51766   3.66390   7.24731   2.93269   0.00000   9.037E-01   9.164E-02   4.405E-03
1257 10.67060349   0.006  -0.51683   3.66395   7.24755   2.93482   0.00000   9.025E-01   9.245E-02   4.466E-03
1258 10.67089117   0.005  -0.51599   3.66400   7.24778   2.93697   0.00000   9.017E-01   9.355E-02   4.529E-03
1259 10.67117866   0.005  -0.51514   3.66406   7.24801   2.93913   0.00000   9.009E-01   9.511E-02   4.588E-03
1260 10.67146596   0.005  -0.51430   3.66412   7.24823   2.94133   0.00000   9.000E-01   9.595E-02   4.647E-03
1261 10.67175307   0.005  -0.51345   3.66417   7.24843   2.94354   0.00000   8.984E-01   9.681E-02   4.699E-03
1262 10.67203999   0.004  -0.51250   3.66427   7.24864   2.94577   0.00000   8.973E-01   9.768E-02   4.785E-03
1263 10.67232672   0.004  -0.51161   3.66434   7.24883   2.94802   0.00000   8.964E-01   9.856E-02   4.820E-03
1264 10.67261326   0.004  -0.51076   3.66440   7.24903   2.95028   0.00000   8.955E-01   9.945E-02   4.843E-03
1265 10.67289961   0.004  -0.50990   3.66445   7.24921   2.95257   0.00000   8.946E-01   1.004E-01   4.891E-03
1266 10.67318577   0.004  -0.50903   3.66451   7.24938   2.95489   0.00000   8.937E-01   1.013E-01   4.949E-03
1267 10.67347175   0.004  -0.50817   3.66456   7.24954   2.95723   0.00000   8.928E-01   1.022E-01   5.014E-03
1268 10.67375754   0.003  -0.50729   3.66462   7.24970   2.95959   0.00000   8.919E-01   1.031E-01   5.078E-03
1269 10.67404313   0.003  -0.50642   3.66467   7.24985   2.96197   0.00000   8.908E-01   1.041E-01   5.136E-03
1270 10.67432855   0.003  -0.50555   3.66472   7.25001   2.96438   0.00000   8.890E-01   1.050E-01   5.203E-03
1271 10.67461377   0.003  -0.50466   3.66477   7.25014   2.96680   0.00000   8.880E-01   1.060E-01   5.261E-03
1272 10.67489881   0.003  -0.50378   3.66483   7.25029   2.96924   0.00000   8.870E-01   1.070E-01   5.320E-03
1273 10.67518366   0.003  -0.50289   3.66488   7.25042   2.97171   0.00000   8.860E-01   1.080E-01   5.370E-03
1274 10.67546832   0.003  -0.50200   3.66494   7.25055   2.97419   0.00000   8.850E-01   1.090E-01   5.420E-03
1275 10.67575280   0.002  -0.50111   3.66499   7.25068   2.97668   0.00000   8.840E-01   1.100E-01   5.481E-03
1276 10.67603709   0.002  -0.50022   3.66504   7.25081   2.97919   0.00000   8.829E-01   1.111E-01   5.533E-03
1277 10.67632119   0.002  -0.49932   3.66509   7.25093   2.98171   0.00000   8.819E-01   1.121E-01   5.584E-03
1278 10.67660511   0.002  -0.49842   3.66515   7.25105   2.98424   0.00000   8.808E-01   1.132E-01   5.628E-03
1279 10.67688884   0.002  -0.49752   3.66520   7.25116   2.98680   0.00000   8.798E-01   1.142E-01   5.683E-03
1280 10.67717239   0.002  -0.49661   3.66525   7.25127   2.98937   0.00000   8.787E-01   1.153E-01   5.745E-03
1281 10.67745575   0.002  -0.49570   3.66530   7.25138   2.99196   0.00000   8.776E-01   1.164E-01   5.803E-03
1282 10.67773893   0.002  -0.49478   3.66535   7.25149   2.99457   0.00000   8.765E-01   1.175E-01   5.869E-03
1283 10.67802192   0.002  -0.49387   3.66540   7.25159   2.99720   0.00000   8.754E-01   1.186E-01   5.936E-03
1284 10.67830473   0.001  -0.49294   3.66545   7.25170   2.99984   0.00000   8.743E-01   1.197E-01   6.004E-03
1285 10.67858736   0.001  -0.49202   3.66550   7.25180   3.00251   0.00000   8.731E-01   1.209E-01   6.064E-03
1286 10.67886980   0.001  -0.49109   3.66555   7.25190   3.00519   0.00000   8.720E-01   1.220E-01   6.131E-03
1287 10.67915206   0.001  -0.49016   3.66561   7.25201   3.00789   0.00000   8.708E-01   1.222E-01   6.190E-03
1288 10.67943413   0.001  -0.48923   3.66565   7.25210   3.01061   0.00000   8.700E-01   1.234E-01   6.252E-03
1289 10.67971602   0.001  -0.48830   3.66570   7.25220   3.01335   0.00000   8.694E-01   1.246E-01   6.318E-03
1290 10.67999773   0.001  -0.48735   3.66575   7.25229   3.01610   0.00000   8.682E-01   1.258E-01   6.379E-03
1291 10.68027926   0.001  -0.48641   3.66580   7.25239   3.01888   0.00000   8.670E-01   1.270E-01   6.440E-03
1292 10.68102973   0.001  -0.48391   3.66593   7.25262   3.02636   0.00000   8.640E-01   1.301E-01   5.944E-03
1293 10.68177891   0.001  -0.48141   3.66605   7.25283   3.03394   0.00000   8.621E-01   1.329E-01   5.234E-03
1294 10.68252679   0.001  -0.47888   3.66617   7.25304   3.04168   0.00000   8.597E-01   1.353E-01   4.592E-03
1295 10.68327339   0.000  -0.47629   3.66630   7.25321   3.04957   0.00000   8.576E-01   1.384E-01   4.018E-03
1296 10.68401871   0.000  -0.47366   3.66643   7.25338   3.05761   0.00000   8.557E-01   1.413E-01   3.496E-03
1297 10.68476276   0.000  -0.47098   3.66656   7.25354   3.06578   0.00000   8.533E-01   1.437E-01   3.040E-03
1298 10.68550553   0.000  -0.46836   3.66666   7.25373   3.07414   0.00000   8.505E-01   1.465E-01   2.667E-03
1299 10.68624703   0.000  -0.46569   3.66677   7.25397   3.08244   0.00000   8.479E-01   1.497E-01   2.604E-03
1300 10.68698727   0.000  -0.46297   3.66688   7.25427   3.09079   0.00000   8.443E-01   1.528E-01   2.667E-03
1301 10.68772625   0.000  -0.46024   3.66699   7.25459   3.09934   0.00000   8.412E-01   1.565E-01   2.660E-03
1302 10.68846397   0.000  -0.45745   3.66710   7.25489   3.10806   0.00000   8.377E-01   1.599E-01   2.686E-03
1303 10.68920044   0.000  -0.45463   3.66721   7.25522   3.11693   0.00000   8.339E-01   1.631E-01   2.740E-03
1304 10.68993567   0.000  -0.45181   3.66731   7.25568   3.12663   0.00000   8.301E-01   1.669E-01   2.713E-03
1305 10.69066965   0.000  -0.44894   3.66740   7.25594   3.13616   0.00000   8.273E-01   1.706E-01   2.654E-03
1306 10.69140239   0.000  -0.44603   3.66749   7.25623   3.14576   0.00000   8.234E-01   1.739E-01   2.684E-03
1307 10.69213390   0.000  -0.44308   3.66758   7.25657   3.15543   0.00000   8.197E-01   1.775E-01   2.693E-03
1308 10.69286418   0.000  -0.44010   3.66767   7.25692   3.16547   0.00000   8.162E-01   1.818E-01   2.667E-03
1309 10.69359324   0.000  -0.43708   3.66775   7.25739   3.17579   0.00000   8.118E-01   1.855E-01   2.645E-03
1310 10.69432107   0.000  -0.43402   3.66782   7.25773   3.18626   0.00000   8.075E-01   1.898E-01   2.655E-03
1311 10.69504768   0.000  -0.43093   3.66788   7.25809   3.19689   0.00000   8.036E-01   1.936E-01   2.640E-03
1312 10.69577309   0.000  -0.42782   3.66794   7.25855   3.20773   0.00000   7.989E-01   1.981E-01   2.639E-03
1313 10.69649728   0.000  -0.42467   3.66799   7.25896   3.21878   0.00000   7.952E-01   2.027E-01   2.620E-03
1314 10.69722026   0.000  -0.42148   3.66802   7.25954   3.23027   0.00000   7.905E-01   2.075E-01   2.565E-03
1315 10.69794205   0.000  -0.41820   3.66807   7.25998   3.24193   0.00000   7.857E-01   2.123E-01   2.660E-03
1316 10.69866263   0.000  -0.41489   3.66810   7.26048   3.25389   0.00000   7.807E-01   2.173E-01   2.630E-03
1317 10.69938203   0.000  -0.41154   3.66812   7.26098   3.26607   0.00000   7.758E-01   2.222E-01   2.644E-03
1318 10.70010023   0.000  -0.40819   3.66812   7.26161   3.27867   0.00000   7.707E-01   2.273E-01   2.586E-03
1319 10.70081725   0.000  -0.40471   3.66812   7.26215   3.29166   0.00000   7.649E-01   2.324E-01   2.605E-03
1320 10.70153308   0.000  -0.40117   3.66811   7.26276   3.30493   0.00000   7.594E-01   2.376E-01   2.683E-03
1321 10.70224774   0.000  -0.39757   3.66808   7.26338   3.31882   0.00000   7.540E-01   2.433E-01   2.636E-03
1322 10.70296122   0.000  -0.39393   3.66805   7.26404   3.33304   0.00000   7.476E-01   2.494E-01   2.655E-03
1323 10.70367354   0.000  -0.39023   3.66799   7.26466   3.34767   0.00000   7.421E-01   2.549E-01   2.553E-03
1324 10.70438468   0.000  -0.38645   3.66794   7.26536   3.36264   0.00000   7.365E-01   2.615E-01   2.643E-03
1325 10.70509467   0.000  -0.38264   3.66784   7.26605   3.37813   0.00000   7.301E-01   2.672E-01   2.528E-03
1326 10.70580349   0.000  -0.37873   3.66779   7.26687   3.39382   0.00000   7.233E-01   2.737E-01   2.513E-03
1327 10.70651116   0.000  -0.37477   3.66766   7.26776   3.41015   0.00000   7.165E-01   2.809E-01   2.460E-03
1328 10.70721768   0.000  -0.37066   3.66752   7.26864   3.42706   0.00000   7.091E-01   2.886E-01   2.550E-03
1329 10.70792306   0.000  -0.36644   3.66739   7.26958   3.44451   0.00000   7.011E-01   2.959E-01   2.573E-03
1330 10.70862728   0.000  -0.36211   3.66723   7.27063   3.46244   0.00000   6.925E-01   3.045E-01   2.586E-03
1331 10.70933037   0.000  -0.35774   3.66703   7.27170   3.48116   0.00000   6.838E-01   3.133E-01   2.594E-03
1332 10.71003232   0.000  -0.35324   3.66679   7.27281   3.50070   0.00000   6.750E-01   3.220E-01   2.518E-03
1333 10.71073314   0.000  -0.34850   3.66657   7.27400   3.52077   0.00000   6.651E-01   3.323E-01   2.667E-03
1334 10.71143283   0.000  -0.34368   3.66630   7.27526   3.54153   0.00000   6.551E-01   3.428E-01   2.582E-03
1335 10.71213140   0.000  -0.33892   3.66592   7.27660   3.56315   0.00000   6.443E-01   3.537E-01   2.351E-03
1336 10.71282884   0.000  -0.33386   3.66557   7.27802   3.58541   0.00000   6.319E-01   3.661E-01   2.603E-03
1337 10.71352516   0.000  -0.32862   3.66518   7.27957   3.60852   0.00000   6.190E-01   3.780E-01   2.577E-03
1338 10.71422037   0.000  -0.32309   3.66479   7.28123   3.63245   0.00000   6.054E-01   3.916E-01   2.734E-03
1339 10.71491447   0.000  -0.31735   3.66415   7.28386   3.66158   0.00000   5.968E-01   4.020E-01   1.700E-03
1340 10.71560746   0.000  -0.30983   3.66334   7.28658   3.70110   0.00000   5.817E-01   4.153E-01   2.980E-03
1341 10.71629935   0.970  -0.30240   3.66240   7.28844   3.74183   0.00000   5.690E-01   4.300E-01   1.990E-03
