 # M = 0.35 Mo, Y = 0.2700, Z = 2.00000E-02, alpha = 1.68, X_D = 2.0E-05
 # Solar Mixture: Asplund et al. (2005)         
 # ------------------------------------------------------------------------------------------------------------
 # NMD   LOG AGE    Xc      LOG L     LOG TE    LOG Tc   LOG RHOc    M-CC       L-PP       L-CNO       L-GRA
 #        (yr)              (Lo)        (K)       (K)   (gr/cm^3)    (Mo)        (L)         (L)         (L)
 # ------------------------------------------------------------------------------------------------------------
   1  5.09989113   0.710  -0.02589   3.54798   6.03835  -0.72326   0.00000   9.370E-01   0.000E+00   6.270E-02
   2  5.26142986   0.710  -0.03444   3.54770   6.04189  -0.71261   0.00000   9.009E-01   0.000E+00   9.903E-02
   3  5.37890529   0.710  -0.04312   3.54743   6.04553  -0.70169   0.00000   8.946E-01   0.000E+00   1.054E-01
   4  5.47127497   0.710  -0.05155   3.54716   6.04905  -0.69109   0.00000   8.930E-01   0.000E+00   1.070E-01
   5  5.54740273   0.710  -0.05938   3.54691   6.05230  -0.68132   0.00000   8.965E-01   0.000E+00   1.035E-01
   6  5.61215525   0.710  -0.06721   3.54665   6.05555  -0.67155   0.00000   9.000E-01   0.000E+00   1.000E-01
   7  5.66849419   0.710  -0.07479   3.54640   6.05870  -0.66206   0.00000   8.988E-01   0.000E+00   1.012E-01
   8  5.71835667   0.710  -0.08238   3.54615   6.06186  -0.65258   0.00000   8.977E-01   0.000E+00   1.023E-01
   9  5.76307936   0.710  -0.09007   3.54590   6.06506  -0.64296   0.00000   8.953E-01   0.000E+00   1.047E-01
  10  5.80362356   0.710  -0.09792   3.54564   6.06832  -0.63315   0.00000   8.915E-01   0.000E+00   1.085E-01
  11  5.84070377   0.710  -0.10577   3.54538   6.07158  -0.62335   0.00000   8.878E-01   0.000E+00   1.122E-01
  12  5.87486561   0.710  -0.11417   3.54510   6.07508  -0.61285   0.00000   8.810E-01   0.000E+00   1.190E-01
  13  5.90653511   0.710  -0.12272   3.54482   6.07863  -0.60217   0.00000   8.736E-01   0.000E+00   1.264E-01
  14  5.93605135   0.710  -0.13153   3.54453   6.08229  -0.59114   0.00000   8.650E-01   0.000E+00   1.350E-01
  15  5.96368858   0.710  -0.14112   3.54422   6.08630  -0.57908   0.00000   8.530E-01   0.000E+00   1.470E-01
  16  5.98967180   0.710  -0.15071   3.54392   6.09031  -0.56701   0.00000   8.410E-01   0.000E+00   1.590E-01
  17  6.01418784   0.710  -0.16161   3.54357   6.09488  -0.55327   0.00000   8.234E-01   0.000E+00   1.766E-01
  18  6.03739358   0.710  -0.17263   3.54323   6.09949  -0.53938   0.00000   8.051E-01   0.000E+00   1.949E-01
  19  6.05942201   0.710  -0.18506   3.54285   6.10474  -0.52361   0.00000   7.797E-01   0.000E+00   2.203E-01
  20  6.08038683   0.710  -0.19780   3.54246   6.11012  -0.50743   0.00000   7.525E-01   0.000E+00   2.475E-01
  21  6.10038605   0.710  -0.21245   3.54204   6.11634  -0.48872   0.00000   7.131E-01   0.000E+00   2.869E-01
  22  6.11950471   0.710  -0.22797   3.54160   6.12296  -0.46884   0.00000   6.678E-01   0.000E+00   3.322E-01
  23  6.13781709   0.710  -0.24474   3.54113   6.13014  -0.44725   0.00000   6.140E-01   0.000E+00   3.860E-01
  24  6.15538845   0.710  -0.26332   3.54064   6.13812  -0.42321   0.00000   5.466E-01   0.000E+00   4.534E-01
  25  6.17227644   0.710  -0.28335   3.54013   6.14679  -0.39712   0.00000   4.700E-01   0.000E+00   5.300E-01
  26  6.18853224   0.710  -0.30471   3.53961   6.15609  -0.36916   0.00000   3.872E-01   0.000E+00   6.128E-01
  27  6.20420146   0.710  -0.32703   3.53910   6.16591  -0.33970   0.00000   3.019E-01   0.000E+00   6.981E-01
  28  6.21932497   0.710  -0.34990   3.53860   6.17598  -0.30938   0.00000   2.225E-01   0.000E+00   7.775E-01
  29  6.23393951   0.710  -0.37281   3.53814   6.18615  -0.27877   0.00000   1.553E-01   0.000E+00   8.447E-01
  30  6.24807822   0.710  -0.39520   3.53771   6.19625  -0.24850   0.00000   1.036E-01   0.000E+00   8.964E-01
  31  6.26177111   0.710  -0.41681   3.53731   6.20594  -0.21932   0.00000   6.624E-02   0.000E+00   9.338E-01
  32  6.27504544   0.710  -0.43733   3.53696   6.21522  -0.19146   0.00000   4.572E-02   0.000E+00   9.543E-01
  33  6.28792604   0.710  -0.45662   3.53664   6.22399  -0.16514   0.00000   3.652E-02   0.000E+00   9.635E-01
  34  6.30043560   0.710  -0.47483   3.53636   6.23224  -0.14029   0.00000   2.876E-02   0.000E+00   9.712E-01
  35  6.31259490   0.710  -0.49205   3.53610   6.24006  -0.11671   0.00000   2.274E-02   0.000E+00   9.773E-01
  36  6.32442301   0.710  -0.50838   3.53587   6.24750  -0.09427   0.00000   1.778E-02   0.000E+00   9.822E-01
  37  6.33593751   0.710  -0.52394   3.53565   6.25461  -0.07282   0.00000   1.372E-02   0.000E+00   9.863E-01
  38  6.34715458   0.710  -0.53861   3.53547   6.26135  -0.05251   0.00000   1.059E-02   0.000E+00   9.894E-01
  39  6.35808922   0.710  -0.55257   3.53529   6.26777  -0.03315   0.00000   7.615E-03   0.000E+00   9.924E-01
  40  6.36875530   0.710  -0.56597   3.53512   6.27394  -0.01453   0.00000   5.380E-03   0.000E+00   9.946E-01
  41  6.37916568   0.710  -0.57889   3.53498   6.27991   0.00346   0.00000   4.000E-03   0.000E+00   9.960E-01
  42  6.40604941   0.710  -0.61066   3.53464   6.29464   0.04789   0.00000   2.305E-03   0.000E+00   9.977E-01
  43  6.43136555   0.710  -0.63937   3.53436   6.30801   0.08825   0.00000   1.000E-03   0.000E+00   9.990E-01
  44  6.45528688   0.710  -0.66537   3.53415   6.32019   0.12502   0.00000   3.822E-04   0.000E+00   9.996E-01
  45  6.47795911   0.710  -0.68929   3.53396   6.33144   0.15899   0.00000   0.000E+00   0.000E+00   1.000E+00
  46  6.49950623   0.710  -0.71127   3.53382   6.34182   0.19033   0.00000   0.000E+00   0.000E+00   1.000E+00
  47  6.52003465   0.710  -0.73160   3.53371   6.35146   0.21942   0.00000   0.000E+00   0.000E+00   1.000E+00
  48  6.53963637   0.710  -0.75057   3.53362   6.36048   0.24670   0.00000   0.000E+00   0.000E+00   1.000E+00
  49  6.55839145   0.710  -0.76835   3.53354   6.36897   0.27236   0.00000   0.000E+00   0.000E+00   1.000E+00
  50  6.57637000   0.710  -0.78510   3.53349   6.37700   0.29662   0.00000   0.000E+00   0.000E+00   1.000E+00
  51  6.59363378   0.710  -0.80080   3.53344   6.38454   0.31940   0.00000   0.000E+00   0.000E+00   1.000E+00
  52  6.61023746   0.710  -0.81564   3.53341   6.39168   0.34101   0.00000   0.000E+00   0.000E+00   1.000E+00
  53  6.62622967   0.710  -0.82978   3.53339   6.39851   0.36166   0.00000   0.000E+00   0.000E+00   1.000E+00
  54  6.64165384   0.710  -0.84333   3.53338   6.40506   0.38148   0.00000   0.000E+00   0.000E+00   1.000E+00
  55  6.65654895   0.710  -0.85616   3.53337   6.41128   0.40031   0.00000   0.000E+00   0.000E+00   1.000E+00
  56  6.67095010   0.710  -0.86838   3.53337   6.41722   0.41827   0.00000   0.000E+00   0.000E+00   1.000E+00
  57  6.68488899   0.710  -0.88024   3.53337   6.42299   0.43574   0.00000   0.000E+00   0.000E+00   1.000E+00
  58  6.69839439   0.710  -0.89146   3.53338   6.42846   0.45231   0.00000   0.000E+00   0.000E+00   1.000E+00
  59  6.71149244   0.710  -0.90232   3.53340   6.43376   0.46834   0.00000   0.000E+00   0.000E+00   1.000E+00
  60  6.72420699   0.710  -0.91282   3.53341   6.43889   0.48387   0.00000   0.000E+00   0.000E+00   1.000E+00
  61  6.73655988   0.710  -0.92283   3.53342   6.44378   0.49870   0.00000   0.000E+00   0.000E+00   1.000E+00
  62  6.74857110   0.710  -0.93267   3.53344   6.44859   0.51327   0.00000   0.000E+00   0.000E+00   1.000E+00
  63  6.76025905   0.710  -0.94198   3.53346   6.45315   0.52709   0.00000   0.000E+00   0.000E+00   1.000E+00
  64  6.77164067   0.710  -0.95117   3.53348   6.45765   0.54074   0.00000   0.000E+00   0.000E+00   1.000E+00
  65  6.78273161   0.710  -0.95991   3.53349   6.46194   0.55373   0.00000   0.000E+00   0.000E+00   1.000E+00
  66  6.79354636   0.710  -0.96853   3.53351   6.46616   0.56653   0.00000   0.000E+00   0.000E+00   1.000E+00
  67  6.80409832   0.710  -0.97681   3.53353   6.47022   0.57885   0.00000   0.000E+00   0.000E+00   1.000E+00
  68  6.81439998   0.710  -0.98488   3.53355   6.47418   0.59085   0.00000   0.000E+00   0.000E+00   1.000E+00
  69  6.82446293   0.710  -0.99280   3.53357   6.47806   0.60263   0.00000   0.000E+00   0.000E+00   1.000E+00
  70  6.83429799   0.710  -1.00036   3.53359   6.48178   0.61389   0.00000   0.000E+00   0.000E+00   1.000E+00
  71  6.84391524   0.710  -1.00792   3.53361   6.48549   0.62514   0.00000   0.000E+00   0.000E+00   1.000E+00
  72  6.85332413   0.710  -1.01509   3.53362   6.48900   0.63582   0.00000   0.000E+00   0.000E+00   1.000E+00
  73  6.86253349   0.710  -1.02218   3.53364   6.49248   0.64636   0.00000   0.000E+00   0.000E+00   1.000E+00
  74  6.87155161   0.710  -1.02919   3.53365   6.49591   0.65679   0.00000   0.000E+00   0.000E+00   1.000E+00
  75  6.88038627   0.710  -1.03583   3.53367   6.49917   0.66667   0.00000   0.000E+00   0.000E+00   1.000E+00
  76  6.88904479   0.710  -1.04247   3.53369   6.50243   0.67656   0.00000   0.000E+00   0.000E+00   1.000E+00
  77  6.89753406   0.710  -1.04896   3.53371   6.50561   0.68623   0.00000   0.000E+00   0.000E+00   1.000E+00
  78  6.90586056   0.710  -1.05517   3.53372   6.50866   0.69549   0.00000   0.000E+00   0.000E+00   1.000E+00
  79  6.91403042   0.710  -1.06139   3.53374   6.51171   0.70476   0.00000   0.000E+00   0.000E+00   1.000E+00
  80  6.92204942   0.710  -1.06748   3.53375   6.51470   0.71384   0.00000   0.000E+00   0.000E+00   1.000E+00
  81  6.92992304   0.710  -1.07331   3.53377   6.51756   0.72252   0.00000   0.000E+00   0.000E+00   1.000E+00
  82  6.93765645   0.710  -1.07915   3.53378   6.52042   0.73121   0.00000   0.000E+00   0.000E+00   1.000E+00
  83  6.94525456   0.710  -1.08494   3.53379   6.52326   0.73983   0.00000   0.000E+00   0.000E+00   1.000E+00
  84  6.95272201   0.710  -1.09040   3.53381   6.52594   0.74798   0.00000   0.000E+00   0.000E+00   1.000E+00
  85  6.96006324   0.710  -1.09586   3.53382   6.52862   0.75612   0.00000   0.000E+00   0.000E+00   1.000E+00
  86  6.96728243   0.710  -1.10133   3.53384   6.53130   0.76427   0.00000   0.000E+00   0.000E+00   1.000E+00
  87  6.97438358   0.710  -1.10656   3.53385   6.53386   0.77206   0.00000   0.000E+00   0.000E+00   1.000E+00
  88  6.98137049   0.710  -1.11169   3.53385   6.53637   0.77969   0.00000   0.000E+00   0.000E+00   1.000E+00
  89  6.98824676   0.710  -1.11682   3.53386   6.53888   0.78733   0.00000   0.000E+00   0.000E+00   1.000E+00
  90  6.99501586   0.710  -1.12194   3.53387   6.54139   0.79495   0.00000   0.000E+00   0.000E+00   1.000E+00
  91  7.00168107   0.710  -1.12674   3.53388   6.54374   0.80211   0.00000   0.000E+00   0.000E+00   1.000E+00
  92  7.00824553   0.710  -1.13154   3.53389   6.54609   0.80927   0.00000   0.000E+00   0.000E+00   1.000E+00
  93  7.01471224   0.710  -1.13634   3.53390   6.54844   0.81642   0.00000   0.000E+00   0.000E+00   1.000E+00
  94  7.02108407   0.710  -1.14111   3.53391   6.55077   0.82352   0.00000   0.000E+00   0.000E+00   1.000E+00
  95  7.02736377   0.710  -1.14562   3.53392   6.55298   0.83023   0.00000   0.000E+00   0.000E+00   1.000E+00
  96  7.03355396   0.710  -1.15013   3.53393   6.55518   0.83693   0.00000   0.000E+00   0.000E+00   1.000E+00
  97  7.03965716   0.710  -1.15464   3.53393   6.55738   0.84364   0.00000   0.000E+00   0.000E+00   1.000E+00
  98  7.04567577   0.710  -1.15916   3.53394   6.55959   0.85034   0.00000   0.000E+00   0.000E+00   1.000E+00
  99  7.05161212   0.710  -1.16340   3.53394   6.56165   0.85664   0.00000   0.000E+00   0.000E+00   1.000E+00
 100  7.05746841   0.710  -1.16763   3.53395   6.56372   0.86292   0.00000   0.000E+00   0.000E+00   1.000E+00
 101  7.06324679   0.710  -1.17186   3.53395   6.56578   0.86920   0.00000   0.000E+00   0.000E+00   1.000E+00
 102  7.06894929   0.710  -1.17609   3.53396   6.56785   0.87548   0.00000   0.000E+00   0.000E+00   1.000E+00
 103  7.07457788   0.710  -1.18017   3.53396   6.56984   0.88155   0.00000   0.000E+00   0.000E+00   1.000E+00
 104  7.08013446   0.710  -1.18414   3.53397   6.57177   0.88744   0.00000   0.000E+00   0.000E+00   1.000E+00
 105  7.08562084   0.710  -1.18810   3.53397   6.57371   0.89333   0.00000   0.000E+00   0.000E+00   1.000E+00
 106  7.09103877   0.710  -1.19207   3.53397   6.57564   0.89922   0.00000   0.000E+00   0.000E+00   1.000E+00
 107  7.09638995   0.710  -1.19603   3.53398   6.57757   0.90511   0.00000   0.000E+00   0.000E+00   1.000E+00
 108  7.10167599   0.710  -1.19980   3.53398   6.57941   0.91070   0.00000   0.000E+00   0.000E+00   1.000E+00
 109  7.10689847   0.710  -1.20353   3.53398   6.58121   0.91621   0.00000   0.000E+00   0.000E+00   1.000E+00
 110  7.11205889   0.710  -1.20725   3.53399   6.58302   0.92173   0.00000   0.000E+00   0.000E+00   1.000E+00
 111  7.11715872   0.710  -1.21097   3.53399   6.58483   0.92724   0.00000   0.000E+00   0.000E+00   1.000E+00
 112  7.12219935   0.710  -1.21469   3.53399   6.58664   0.93276   0.00000   0.000E+00   0.000E+00   1.000E+00
 113  7.12718215   0.710  -1.21823   3.53399   6.58836   0.93801   0.00000   0.000E+00   0.000E+00   1.000E+00
 114  7.13210843   0.710  -1.22172   3.53399   6.59005   0.94318   0.00000   0.000E+00   0.000E+00   1.000E+00
 115  7.13697945   0.710  -1.22521   3.53399   6.59175   0.94835   0.00000   0.000E+00   0.000E+00   1.000E+00
 116  7.14179645   0.710  -1.22870   3.53399   6.59344   0.95351   0.00000   0.000E+00   0.000E+00   1.000E+00
 117  7.14656060   0.710  -1.23218   3.53399   6.59514   0.95868   0.00000   0.000E+00   0.000E+00   1.000E+00
 118  7.15127306   0.710  -1.23559   3.53399   6.59679   0.96372   0.00000   0.000E+00   0.000E+00   1.000E+00
 119  7.15593493   0.710  -1.23886   3.53399   6.59838   0.96857   0.00000   0.000E+00   0.000E+00   1.000E+00
 120  7.16054729   0.710  -1.24213   3.53399   6.59996   0.97341   0.00000   0.000E+00   0.000E+00   1.000E+00
 121  7.16511118   0.710  -1.24540   3.53399   6.60155   0.97825   0.00000   0.000E+00   0.000E+00   1.000E+00
 122  7.16962761   0.710  -1.24867   3.53399   6.60313   0.98309   0.00000   0.000E+00   0.000E+00   1.000E+00
 123  7.17409755   0.710  -1.25194   3.53399   6.60472   0.98793   0.00000   0.000E+00   0.000E+00   1.000E+00
 124  7.17852196   0.710  -1.25508   3.53399   6.60624   0.99257   0.00000   1.055E-04   0.000E+00   9.999E-01
 125  7.18290174   0.710  -1.25815   3.53399   6.60772   0.99711   0.00000   2.691E-04   0.000E+00   9.997E-01
 126  7.18723780   0.710  -1.26122   3.53399   6.60921   1.00164   0.00000   4.326E-04   0.000E+00   9.996E-01
 127  7.19153099   0.710  -1.26429   3.53398   6.61069   1.00617   0.00000   5.962E-04   0.000E+00   9.994E-01
 128  7.19578216   0.710  -1.26736   3.53398   6.61218   1.01070   0.00000   7.597E-04   0.000E+00   9.992E-01
 129  7.19999211   0.710  -1.27043   3.53398   6.61366   1.01523   0.00000   9.232E-04   0.000E+00   9.991E-01
 130  7.20416165   0.710  -1.27340   3.53398   6.61510   1.01961   0.00000   1.000E-03   0.000E+00   9.990E-01
 131  7.20829154   0.710  -1.27628   3.53398   6.61649   1.02386   0.00000   1.000E-03   0.000E+00   9.990E-01
 132  7.21238252   0.710  -1.27916   3.53397   6.61788   1.02811   0.00000   1.000E-03   0.000E+00   9.990E-01
 133  7.21643533   0.710  -1.28203   3.53397   6.61927   1.03235   0.00000   1.000E-03   0.000E+00   9.990E-01
 134  7.22045067   0.710  -1.28491   3.53397   6.62066   1.03660   0.00000   1.000E-03   0.000E+00   9.990E-01
 135  7.22442922   0.710  -1.28779   3.53396   6.62205   1.04084   0.00000   1.000E-03   0.000E+00   9.990E-01
 136  7.22837165   0.710  -1.29067   3.53396   6.62344   1.04509   0.00000   1.000E-03   0.000E+00   9.990E-01
 137  7.23227862   0.710  -1.29337   3.53396   6.62474   1.04906   0.00000   1.000E-03   0.000E+00   9.990E-01
 138  7.23615076   0.710  -1.29607   3.53395   6.62604   1.05304   0.00000   1.000E-03   0.000E+00   9.990E-01
 139  7.23998867   0.710  -1.29878   3.53395   6.62734   1.05702   0.00000   1.000E-03   0.000E+00   9.990E-01
 140  7.24379297   0.710  -1.30148   3.53395   6.62864   1.06100   0.00000   1.000E-03   0.000E+00   9.990E-01
 141  7.24756423   0.710  -1.30418   3.53395   6.62995   1.06498   0.00000   1.000E-03   0.000E+00   9.990E-01
 142  7.25130302   0.710  -1.30688   3.53394   6.63125   1.06895   0.00000   1.000E-03   0.000E+00   9.990E-01
 143  7.25500990   0.710  -1.30957   3.53394   6.63254   1.07291   0.00000   1.000E-03   0.000E+00   9.990E-01
 144  7.25868541   0.710  -1.31211   3.53393   6.63376   1.07664   0.00000   1.000E-03   0.000E+00   9.990E-01
 145  7.26233007   0.710  -1.31464   3.53393   6.63498   1.08037   0.00000   1.000E-03   0.000E+00   9.990E-01
 146  7.26594441   0.710  -1.31718   3.53392   6.63620   1.08410   0.00000   1.000E-03   0.000E+00   9.990E-01
 147  7.26952891   0.710  -1.31971   3.53392   6.63742   1.08783   0.00000   1.000E-03   0.000E+00   9.990E-01
 148  7.27308406   0.710  -1.32224   3.53391   6.63864   1.09156   0.00000   1.000E-03   0.000E+00   9.990E-01
 149  7.27661035   0.710  -1.32478   3.53391   6.63985   1.09529   0.00000   1.000E-03   0.000E+00   9.990E-01
 150  7.28010824   0.710  -1.32731   3.53390   6.64107   1.09902   0.00000   1.000E-03   0.000E+00   9.990E-01
 151  7.28357818   0.710  -1.32975   3.53390   6.64224   1.10260   0.00000   1.000E-03   0.000E+00   9.990E-01
 152  7.28702062   0.710  -1.33213   3.53389   6.64338   1.10609   0.00000   1.000E-03   0.000E+00   9.990E-01
 153  7.29043598   0.710  -1.33451   3.53389   6.64452   1.10959   0.00000   1.000E-03   0.000E+00   9.990E-01
 154  7.29382470   0.710  -1.33689   3.53388   6.64567   1.11309   0.00000   1.000E-03   0.000E+00   9.990E-01
 155  7.29718718   0.710  -1.33927   3.53388   6.64681   1.11658   0.00000   1.000E-03   0.000E+00   9.990E-01
 156  7.30052382   0.710  -1.34165   3.53387   6.64795   1.12008   0.00000   1.000E-03   0.000E+00   9.990E-01
 157  7.30383502   0.710  -1.34403   3.53387   6.64909   1.12358   0.00000   1.000E-03   0.000E+00   9.990E-01
 158  7.30712117   0.710  -1.34641   3.53386   6.65023   1.12707   0.00000   1.000E-03   0.000E+00   9.990E-01
 159  7.31038265   0.710  -1.34868   3.53386   6.65132   1.13040   0.00000   1.092E-03   0.000E+00   9.989E-01
 160  7.31361981   0.710  -1.35091   3.53385   6.65239   1.13367   0.00000   1.211E-03   0.000E+00   9.988E-01
 161  7.31683302   0.710  -1.35314   3.53384   6.65346   1.13695   0.00000   1.330E-03   0.000E+00   9.987E-01
 162  7.32002263   0.710  -1.35537   3.53384   6.65453   1.14022   0.00000   1.449E-03   0.000E+00   9.986E-01
 163  7.32318898   0.710  -1.35761   3.53383   6.65560   1.14350   0.00000   1.568E-03   0.000E+00   9.984E-01
 164  7.32633242   0.710  -1.35984   3.53383   6.65667   1.14678   0.00000   1.687E-03   0.000E+00   9.983E-01
 165  7.32945327   0.710  -1.36207   3.53382   6.65774   1.15005   0.00000   1.806E-03   0.000E+00   9.982E-01
 166  7.33255185   0.710  -1.36430   3.53381   6.65881   1.15333   0.00000   1.925E-03   0.000E+00   9.981E-01
 167  7.33562848   0.710  -1.36648   3.53381   6.65985   1.15652   0.00000   2.000E-03   0.000E+00   9.980E-01
 168  7.33868347   0.710  -1.36858   3.53380   6.66085   1.15959   0.00000   2.000E-03   0.000E+00   9.980E-01
 169  7.34171712   0.710  -1.37067   3.53380   6.66186   1.16266   0.00000   2.000E-03   0.000E+00   9.980E-01
 170  7.34472972   0.710  -1.37277   3.53379   6.66286   1.16573   0.00000   2.000E-03   0.000E+00   9.980E-01
 171  7.34772157   0.710  -1.37486   3.53379   6.66386   1.16880   0.00000   2.000E-03   0.000E+00   9.980E-01
 172  7.35069295   0.710  -1.37696   3.53378   6.66486   1.17187   0.00000   2.000E-03   0.000E+00   9.980E-01
 173  7.35364414   0.710  -1.37905   3.53377   6.66586   1.17494   0.00000   2.000E-03   0.000E+00   9.980E-01
 174  7.35657541   0.710  -1.38115   3.53377   6.66686   1.17801   0.00000   2.000E-03   0.000E+00   9.980E-01
 175  7.35948703   0.710  -1.38324   3.53376   6.66786   1.18107   0.00000   2.000E-03   0.000E+00   9.980E-01
 176  7.36237926   0.710  -1.38529   3.53376   6.66884   1.18406   0.00000   2.043E-03   0.000E+00   9.980E-01
 177  7.36525235   0.710  -1.38725   3.53375   6.66978   1.18694   0.00000   2.148E-03   0.000E+00   9.979E-01
 178  7.36810657   0.710  -1.38922   3.53374   6.67071   1.18982   0.00000   2.253E-03   0.000E+00   9.977E-01
 179  7.37094214   0.710  -1.39118   3.53374   6.67165   1.19269   0.00000   2.358E-03   0.000E+00   9.976E-01
 180  7.37375933   0.710  -1.39315   3.53373   6.67259   1.19557   0.00000   2.463E-03   0.000E+00   9.975E-01
 181  7.37655835   0.710  -1.39511   3.53373   6.67353   1.19845   0.00000   2.567E-03   0.000E+00   9.974E-01
 182  7.37933945   0.710  -1.39708   3.53372   6.67446   1.20132   0.00000   2.672E-03   0.000E+00   9.973E-01
 183  7.38210286   0.710  -1.39904   3.53371   6.67540   1.20420   0.00000   2.777E-03   0.000E+00   9.972E-01
 184  7.38484879   0.710  -1.40101   3.53371   6.67634   1.20708   0.00000   2.882E-03   0.000E+00   9.971E-01
 185  7.38757747   0.710  -1.40297   3.53370   6.67728   1.20995   0.00000   2.986E-03   0.000E+00   9.970E-01
 186  7.39028911   0.710  -1.40483   3.53369   6.67815   1.21269   0.00000   3.085E-03   0.000E+00   9.969E-01
 187  7.39298393   0.710  -1.40668   3.53369   6.67900   1.21541   0.00000   3.184E-03   0.000E+00   9.968E-01
 188  7.39566213   0.710  -1.40852   3.53368   6.67986   1.21813   0.00000   3.282E-03   0.000E+00   9.967E-01
 189  7.39832391   0.710  -1.41037   3.53367   6.68072   1.22085   0.00000   3.380E-03   0.000E+00   9.966E-01
 190  7.40096948   0.710  -1.41221   3.53367   6.68158   1.22357   0.00000   3.478E-03   0.000E+00   9.965E-01
 191  7.40359903   0.710  -1.41405   3.53366   6.68243   1.22629   0.00000   3.577E-03   0.000E+00   9.964E-01
 192  7.40621276   0.710  -1.41590   3.53365   6.68329   1.22900   0.00000   3.675E-03   0.000E+00   9.963E-01
 193  7.40881085   0.710  -1.41774   3.53365   6.68415   1.23172   0.00000   3.773E-03   0.000E+00   9.962E-01
 194  7.41139348   0.710  -1.41959   3.53364   6.68501   1.23444   0.00000   3.871E-03   0.000E+00   9.961E-01
 195  7.41396086   0.710  -1.42143   3.53363   6.68587   1.23716   0.00000   3.970E-03   0.000E+00   9.960E-01
 196  7.41651314   0.710  -1.42319   3.53363   6.68667   1.23978   0.00000   4.064E-03   0.000E+00   9.959E-01
 197  7.41905051   0.710  -1.42492   3.53362   6.68746   1.24234   0.00000   4.156E-03   0.000E+00   9.958E-01
 198  7.42157314   0.710  -1.42665   3.53361   6.68824   1.24491   0.00000   4.248E-03   0.000E+00   9.958E-01
 199  7.42408121   0.710  -1.42838   3.53361   6.68903   1.24748   0.00000   4.340E-03   0.000E+00   9.957E-01
 200  7.42657487   0.710  -1.43010   3.53360   6.68981   1.25005   0.00000   4.432E-03   0.000E+00   9.956E-01
 201  7.42905430   0.710  -1.43183   3.53359   6.69060   1.25262   0.00000   4.525E-03   0.000E+00   9.955E-01
 202  7.43151965   0.710  -1.43356   3.53359   6.69139   1.25519   0.00000   4.617E-03   0.000E+00   9.954E-01
 203  7.43397109   0.710  -1.43529   3.53358   6.69217   1.25776   0.00000   4.709E-03   0.000E+00   9.953E-01
 204  7.43640876   0.710  -1.43702   3.53357   6.69296   1.26032   0.00000   4.801E-03   0.000E+00   9.952E-01
 205  7.43883283   0.710  -1.43874   3.53357   6.69374   1.26289   0.00000   4.893E-03   0.000E+00   9.951E-01
 206  7.44124345   0.710  -1.44047   3.53356   6.69453   1.26546   0.00000   4.986E-03   0.000E+00   9.950E-01
 207  7.44364075   0.710  -1.44211   3.53355   6.69526   1.26791   0.00000   5.073E-03   0.000E+00   9.949E-01
 208  7.44602490   0.710  -1.44373   3.53355   6.69598   1.27034   0.00000   5.159E-03   0.000E+00   9.948E-01
 209  7.44839603   0.710  -1.44534   3.53354   6.69669   1.27277   0.00000   5.246E-03   0.000E+00   9.948E-01
 210  7.45075429   0.710  -1.44696   3.53353   6.69741   1.27520   0.00000   5.332E-03   0.000E+00   9.947E-01
 211  7.45309980   0.710  -1.44858   3.53353   6.69813   1.27763   0.00000   5.419E-03   0.000E+00   9.946E-01
 212  7.45543272   0.710  -1.45020   3.53352   6.69885   1.28006   0.00000   5.505E-03   0.000E+00   9.945E-01
 213  7.45775318   0.710  -1.45182   3.53351   6.69957   1.28249   0.00000   5.591E-03   0.000E+00   9.944E-01
 214  7.46006130   0.710  -1.45343   3.53351   6.70029   1.28492   0.00000   5.678E-03   0.000E+00   9.943E-01
 215  7.46235722   0.710  -1.45505   3.53350   6.70101   1.28735   0.00000   5.764E-03   0.000E+00   9.942E-01
 216  7.46464107   0.710  -1.45667   3.53349   6.70173   1.28978   0.00000   5.851E-03   0.000E+00   9.941E-01
 217  7.46691296   0.710  -1.45829   3.53349   6.70245   1.29221   0.00000   5.937E-03   0.000E+00   9.941E-01
 218  7.46917304   0.710  -1.45988   3.53348   6.70315   1.29460   0.00000   6.022E-03   0.000E+00   9.940E-01
 219  7.47142142   0.710  -1.46139   3.53347   6.70381   1.29690   0.00000   6.103E-03   0.000E+00   9.939E-01
 220  7.47365821   0.710  -1.46290   3.53347   6.70446   1.29919   0.00000   6.184E-03   0.000E+00   9.938E-01
 221  7.47588354   0.710  -1.46442   3.53346   6.70512   1.30149   0.00000   6.265E-03   0.000E+00   9.937E-01
 222  7.47809753   0.710  -1.46593   3.53346   6.70578   1.30378   0.00000   6.345E-03   0.000E+00   9.937E-01
 223  7.48030029   0.710  -1.46744   3.53345   6.70644   1.30608   0.00000   6.426E-03   0.000E+00   9.936E-01
 224  7.48249194   0.710  -1.46896   3.53344   6.70710   1.30838   0.00000   6.507E-03   0.000E+00   9.935E-01
 225  7.48467257   0.710  -1.47047   3.53344   6.70776   1.31067   0.00000   6.588E-03   0.000E+00   9.934E-01
 226  7.48684232   0.710  -1.47198   3.53343   6.70842   1.31297   0.00000   6.669E-03   0.000E+00   9.933E-01
 227  7.48900128   0.710  -1.47349   3.53343   6.70907   1.31526   0.00000   6.750E-03   0.000E+00   9.933E-01
 228  7.49114956   0.710  -1.47501   3.53342   6.70973   1.31756   0.00000   6.831E-03   0.000E+00   9.932E-01
 229  7.49328726   0.710  -1.47652   3.53342   6.71039   1.31985   0.00000   6.912E-03   0.000E+00   9.931E-01
 230  7.49541449   0.710  -1.47803   3.53341   6.71105   1.32215   0.00000   6.993E-03   0.000E+00   9.930E-01
 231  7.49753136   0.710  -1.47945   3.53341   6.71166   1.32433   0.00000   7.137E-03   0.000E+00   9.929E-01
 232  7.49963795   0.710  -1.48087   3.53340   6.71226   1.32650   0.00000   7.289E-03   0.000E+00   9.927E-01
 233  7.50173438   0.710  -1.48228   3.53340   6.71287   1.32867   0.00000   7.440E-03   0.000E+00   9.926E-01
 234  7.50382074   0.710  -1.48369   3.53339   6.71348   1.33084   0.00000   7.591E-03   0.000E+00   9.924E-01
 235  7.50589712   0.710  -1.48510   3.53339   6.71408   1.33301   0.00000   7.743E-03   0.000E+00   9.923E-01
 236  7.50796362   0.710  -1.48651   3.53338   6.71469   1.33518   0.00000   7.894E-03   0.000E+00   9.921E-01
 237  7.51002034   0.710  -1.48793   3.53338   6.71529   1.33735   0.00000   8.045E-03   0.000E+00   9.920E-01
 238  7.51206736   0.710  -1.48934   3.53337   6.71590   1.33952   0.00000   8.196E-03   0.000E+00   9.918E-01
 239  7.51410477   0.710  -1.49075   3.53337   6.71650   1.34169   0.00000   8.348E-03   0.000E+00   9.917E-01
 240  7.51613268   0.710  -1.49216   3.53337   6.71711   1.34386   0.00000   8.499E-03   0.000E+00   9.915E-01
 241  7.51815116   0.710  -1.49358   3.53336   6.71771   1.34603   0.00000   8.650E-03   0.000E+00   9.913E-01
 242  7.52016030   0.710  -1.49499   3.53336   6.71832   1.34820   0.00000   8.802E-03   0.000E+00   9.912E-01
 243  7.52216019   0.710  -1.49640   3.53335   6.71892   1.35037   0.00000   8.953E-03   0.000E+00   9.910E-01
 244  7.52415091   0.710  -1.49775   3.53335   6.71949   1.35245   0.00000   9.146E-03   0.000E+00   9.909E-01
 245  7.52613255   0.710  -1.49907   3.53334   6.72005   1.35450   0.00000   9.358E-03   0.000E+00   9.906E-01
 246  7.52810518   0.710  -1.50039   3.53334   6.72061   1.35655   0.00000   9.570E-03   0.000E+00   9.904E-01
 247  7.53006890   0.710  -1.50170   3.53334   6.72116   1.35860   0.00000   9.782E-03   0.000E+00   9.902E-01
 248  7.53202378   0.710  -1.50302   3.53333   6.72172   1.36064   0.00000   9.994E-03   0.000E+00   9.900E-01
 249  7.53396990   0.710  -1.50434   3.53333   6.72228   1.36269   0.00000   1.021E-02   0.000E+00   9.898E-01
 250  7.53590733   0.710  -1.50566   3.53333   6.72283   1.36474   0.00000   1.042E-02   0.000E+00   9.896E-01
 251  7.53783617   0.710  -1.50698   3.53332   6.72339   1.36679   0.00000   1.063E-02   0.000E+00   9.894E-01
 252  7.53975647   0.710  -1.50830   3.53332   6.72395   1.36884   0.00000   1.084E-02   0.000E+00   9.892E-01
 253  7.54166832   0.710  -1.50962   3.53332   6.72450   1.37089   0.00000   1.105E-02   0.000E+00   9.889E-01
 254  7.54357179   0.710  -1.51094   3.53331   6.72506   1.37293   0.00000   1.126E-02   0.000E+00   9.887E-01
 255  7.54546695   0.710  -1.51225   3.53331   6.72562   1.37498   0.00000   1.148E-02   0.000E+00   9.885E-01
 256  7.54735388   0.710  -1.51357   3.53331   6.72617   1.37703   0.00000   1.169E-02   0.000E+00   9.883E-01
 257  7.54923265   0.710  -1.51489   3.53330   6.72673   1.37908   0.00000   1.190E-02   0.000E+00   9.881E-01
 258  7.55110332   0.710  -1.51616   3.53330   6.72726   1.38107   0.00000   1.211E-02   0.000E+00   9.879E-01
 259  7.55296597   0.710  -1.51739   3.53329   6.72777   1.38300   0.00000   1.230E-02   0.000E+00   9.877E-01
 260  7.55482067   0.710  -1.51861   3.53329   6.72829   1.38493   0.00000   1.250E-02   0.000E+00   9.875E-01
 261  7.55666748   0.710  -1.51984   3.53329   6.72880   1.38687   0.00000   1.270E-02   0.000E+00   9.873E-01
 262  7.55850647   0.710  -1.52107   3.53329   6.72931   1.38880   0.00000   1.290E-02   0.000E+00   9.871E-01
 263  7.56033770   0.710  -1.52229   3.53328   6.72982   1.39074   0.00000   1.309E-02   0.000E+00   9.869E-01
 264  7.56216125   0.710  -1.52352   3.53328   6.73033   1.39267   0.00000   1.329E-02   0.000E+00   9.867E-01
 265  7.56397717   0.710  -1.52475   3.53328   6.73085   1.39460   0.00000   1.349E-02   0.000E+00   9.865E-01
 266  7.56578553   0.710  -1.52597   3.53327   6.73136   1.39654   0.00000   1.369E-02   0.000E+00   9.863E-01
 267  7.56758639   0.710  -1.52720   3.53327   6.73187   1.39847   0.00000   1.388E-02   0.000E+00   9.861E-01
 268  7.56937982   0.710  -1.52843   3.53327   6.73238   1.40040   0.00000   1.408E-02   0.000E+00   9.859E-01
 269  7.57116586   0.710  -1.52965   3.53326   6.73289   1.40234   0.00000   1.428E-02   0.000E+00   9.857E-01
 270  7.57294460   0.710  -1.53088   3.53326   6.73341   1.40427   0.00000   1.448E-02   0.000E+00   9.855E-01
 271  7.57471608   0.710  -1.53211   3.53326   6.73392   1.40620   0.00000   1.468E-02   0.000E+00   9.853E-01
 272  7.57648036   0.710  -1.53333   3.53325   6.73443   1.40814   0.00000   1.487E-02   0.000E+00   9.851E-01
 273  7.57823750   0.710  -1.53453   3.53325   6.73493   1.41003   0.00000   1.509E-02   0.000E+00   9.849E-01
 274  7.57998756   0.710  -1.53567   3.53325   6.73540   1.41186   0.00000   1.533E-02   0.000E+00   9.847E-01
 275  7.58173060   0.710  -1.53681   3.53325   6.73587   1.41368   0.00000   1.558E-02   0.000E+00   9.844E-01
 276  7.58346667   0.710  -1.53795   3.53324   6.73635   1.41550   0.00000   1.582E-02   0.000E+00   9.842E-01
 277  7.58519583   0.710  -1.53909   3.53324   6.73682   1.41733   0.00000   1.607E-02   0.000E+00   9.839E-01
 278  7.58691813   0.710  -1.54023   3.53324   6.73729   1.41915   0.00000   1.631E-02   0.000E+00   9.837E-01
 279  7.58863363   0.710  -1.54137   3.53324   6.73776   1.42098   0.00000   1.656E-02   0.000E+00   9.834E-01
 280  7.59034238   0.710  -1.54251   3.53324   6.73824   1.42280   0.00000   1.681E-02   0.000E+00   9.832E-01
 281  7.59204443   0.710  -1.54365   3.53323   6.73871   1.42462   0.00000   1.705E-02   0.000E+00   9.829E-01
 282  7.59373984   0.710  -1.54479   3.53323   6.73918   1.42645   0.00000   1.730E-02   0.000E+00   9.827E-01
 283  7.59542866   0.710  -1.54593   3.53323   6.73965   1.42827   0.00000   1.754E-02   0.000E+00   9.825E-01
 284  7.59711093   0.710  -1.54707   3.53323   6.74013   1.43009   0.00000   1.779E-02   0.000E+00   9.822E-01
 285  7.59878671   0.710  -1.54821   3.53323   6.74060   1.43192   0.00000   1.803E-02   0.000E+00   9.820E-01
 286  7.60045605   0.710  -1.54935   3.53323   6.74107   1.43374   0.00000   1.828E-02   0.000E+00   9.817E-01
 287  7.60211900   0.710  -1.55049   3.53322   6.74154   1.43557   0.00000   1.852E-02   0.000E+00   9.815E-01
 288  7.60377560   0.710  -1.55163   3.53322   6.74201   1.43739   0.00000   1.877E-02   0.000E+00   9.812E-01
 289  7.60542591   0.710  -1.55277   3.53322   6.74248   1.43921   0.00000   1.902E-02   0.000E+00   9.810E-01
 290  7.60706997   0.710  -1.55383   3.53322   6.74292   1.44092   0.00000   1.930E-02   0.000E+00   9.807E-01
 291  7.60870784   0.710  -1.55489   3.53322   6.74336   1.44264   0.00000   1.959E-02   0.000E+00   9.804E-01
 292  7.61033954   0.710  -1.55595   3.53322   6.74379   1.44435   0.00000   1.987E-02   0.000E+00   9.801E-01
 293  7.61196515   0.710  -1.55701   3.53322   6.74423   1.44607   0.00000   2.016E-02   0.000E+00   9.798E-01
 294  7.61358468   0.710  -1.55807   3.53321   6.74467   1.44778   0.00000   2.044E-02   0.000E+00   9.796E-01
 295  7.61519821   0.710  -1.55912   3.53321   6.74510   1.44950   0.00000   2.073E-02   0.000E+00   9.793E-01
 296  7.61680575   0.710  -1.56018   3.53321   6.74554   1.45121   0.00000   2.101E-02   0.000E+00   9.790E-01
 297  7.61840738   0.710  -1.56124   3.53321   6.74597   1.45293   0.00000   2.130E-02   0.000E+00   9.787E-01
 298  7.62000311   0.710  -1.56230   3.53321   6.74641   1.45465   0.00000   2.158E-02   0.000E+00   9.784E-01
 299  7.62159300   0.710  -1.56336   3.53321   6.74685   1.45636   0.00000   2.187E-02   0.000E+00   9.781E-01
 300  7.62317710   0.710  -1.56442   3.53321   6.74728   1.45808   0.00000   2.215E-02   0.000E+00   9.778E-01
 301  7.62475544   0.710  -1.56548   3.53321   6.74772   1.45979   0.00000   2.244E-02   0.000E+00   9.776E-01
 302  7.62632806   0.710  -1.56654   3.53321   6.74816   1.46151   0.00000   2.272E-02   0.000E+00   9.773E-01
 303  7.62789501   0.710  -1.56760   3.53320   6.74859   1.46322   0.00000   2.301E-02   0.000E+00   9.770E-01
 304  7.62945632   0.710  -1.56865   3.53320   6.74903   1.46494   0.00000   2.329E-02   0.000E+00   9.767E-01
 305  7.63101205   0.710  -1.56971   3.53320   6.74946   1.46665   0.00000   2.358E-02   0.000E+00   9.764E-01
 306  7.63256221   0.710  -1.57077   3.53320   6.74990   1.46837   0.00000   2.386E-02   0.000E+00   9.761E-01
 307  7.63410687   0.710  -1.57179   3.53320   6.75032   1.47003   0.00000   2.417E-02   0.000E+00   9.758E-01
 308  7.63564605   0.710  -1.57277   3.53320   6.75072   1.47164   0.00000   2.448E-02   0.000E+00   9.755E-01
 309  7.63717980   0.710  -1.57375   3.53320   6.75112   1.47325   0.00000   2.480E-02   0.000E+00   9.752E-01
 310  7.63870815   0.710  -1.57473   3.53320   6.75153   1.47487   0.00000   2.512E-02   0.000E+00   9.749E-01
 311  7.64023113   0.710  -1.57571   3.53320   6.75193   1.47648   0.00000   2.544E-02   0.000E+00   9.746E-01
 312  7.64174880   0.710  -1.57669   3.53320   6.75233   1.47809   0.00000   2.575E-02   0.000E+00   9.742E-01
 313  7.64326118   0.710  -1.57767   3.53320   6.75273   1.47970   0.00000   2.607E-02   0.000E+00   9.739E-01
 314  7.64476831   0.710  -1.57865   3.53320   6.75314   1.48131   0.00000   2.639E-02   0.000E+00   9.736E-01
 315  7.64627023   0.710  -1.57963   3.53320   6.75354   1.48292   0.00000   2.671E-02   0.000E+00   9.733E-01
 316  7.64776698   0.710  -1.58061   3.53320   6.75394   1.48454   0.00000   2.702E-02   0.000E+00   9.730E-01
 317  7.64925858   0.710  -1.58159   3.53320   6.75434   1.48615   0.00000   2.734E-02   0.000E+00   9.727E-01
 318  7.65074508   0.710  -1.58257   3.53320   6.75474   1.48776   0.00000   2.766E-02   0.000E+00   9.723E-01
 319  7.65222651   0.710  -1.58355   3.53320   6.75515   1.48937   0.00000   2.798E-02   0.000E+00   9.720E-01
 320  7.65370290   0.710  -1.58453   3.53320   6.75555   1.49098   0.00000   2.829E-02   0.000E+00   9.717E-01
 321  7.65517429   0.710  -1.58551   3.53320   6.75595   1.49260   0.00000   2.861E-02   0.000E+00   9.714E-01
 322  7.65664071   0.710  -1.58649   3.53320   6.75635   1.49421   0.00000   2.893E-02   0.000E+00   9.711E-01
 323  7.65810220   0.710  -1.58747   3.53320   6.75676   1.49582   0.00000   2.925E-02   0.000E+00   9.708E-01
 324  7.65955878   0.710  -1.58845   3.53320   6.75716   1.49743   0.00000   2.956E-02   0.000E+00   9.704E-01
 325  7.66101050   0.710  -1.58943   3.53320   6.75756   1.49904   0.00000   2.988E-02   0.000E+00   9.701E-01
 326  7.66245738   0.710  -1.59036   3.53320   6.75794   1.50059   0.00000   3.022E-02   0.000E+00   9.698E-01
 327  7.66389945   0.710  -1.59127   3.53320   6.75832   1.50210   0.00000   3.056E-02   0.000E+00   9.694E-01
 328  7.66533675   0.710  -1.59217   3.53320   6.75869   1.50361   0.00000   3.090E-02   0.000E+00   9.691E-01
 329  7.66676932   0.710  -1.59308   3.53320   6.75906   1.50513   0.00000   3.125E-02   0.000E+00   9.688E-01
 330  7.66819717   0.710  -1.59399   3.53320   6.75943   1.50664   0.00000   3.159E-02   0.000E+00   9.684E-01
 331  7.66962034   0.710  -1.59489   3.53321   6.75981   1.50815   0.00000   3.193E-02   0.000E+00   9.681E-01
 332  7.67103886   0.710  -1.59580   3.53321   6.76018   1.50966   0.00000   3.227E-02   0.000E+00   9.677E-01
 333  7.67245277   0.710  -1.59670   3.53321   6.76055   1.51117   0.00000   3.262E-02   0.000E+00   9.674E-01
 334  7.67386209   0.710  -1.59761   3.53321   6.76092   1.51268   0.00000   3.296E-02   0.000E+00   9.670E-01
 335  7.67526685   0.710  -1.59852   3.53321   6.76130   1.51419   0.00000   3.330E-02   0.000E+00   9.667E-01
 336  7.67666708   0.710  -1.59942   3.53321   6.76167   1.51571   0.00000   3.365E-02   0.000E+00   9.664E-01
 337  7.67806281   0.710  -1.60033   3.53321   6.76204   1.51722   0.00000   3.399E-02   0.000E+00   9.660E-01
 338  7.67945406   0.710  -1.60123   3.53321   6.76241   1.51873   0.00000   3.433E-02   0.000E+00   9.657E-01
 339  7.68084088   0.710  -1.60214   3.53321   6.76279   1.52024   0.00000   3.468E-02   0.000E+00   9.653E-01
 340  7.68222328   0.710  -1.60305   3.53321   6.76316   1.52175   0.00000   3.502E-02   0.000E+00   9.650E-01
 341  7.68360130   0.710  -1.60395   3.53322   6.76353   1.52326   0.00000   3.536E-02   0.000E+00   9.646E-01
 342  7.68497495   0.710  -1.60486   3.53322   6.76390   1.52477   0.00000   3.570E-02   0.000E+00   9.643E-01
 343  7.68634428   0.710  -1.60576   3.53322   6.76428   1.52629   0.00000   3.605E-02   0.000E+00   9.640E-01
 344  7.68770930   0.710  -1.60667   3.53322   6.76465   1.52780   0.00000   3.639E-02   0.000E+00   9.636E-01
 345  7.68907005   0.710  -1.60758   3.53322   6.76502   1.52931   0.00000   3.673E-02   0.000E+00   9.633E-01
 346  7.69042654   0.710  -1.60847   3.53322   6.76539   1.53080   0.00000   3.710E-02   0.000E+00   9.629E-01
 347  7.69177881   0.710  -1.60930   3.53322   6.76573   1.53221   0.00000   3.756E-02   0.000E+00   9.624E-01
 348  7.69312688   0.710  -1.61014   3.53322   6.76608   1.53362   0.00000   3.802E-02   0.000E+00   9.620E-01
 349  7.69447078   0.710  -1.61097   3.53322   6.76642   1.53504   0.00000   3.848E-02   0.000E+00   9.615E-01
 350  7.69581054   0.710  -1.61180   3.53323   6.76677   1.53645   0.00000   3.894E-02   0.000E+00   9.611E-01
 351  7.69714618   0.710  -1.61264   3.53323   6.76711   1.53787   0.00000   3.939E-02   0.000E+00   9.606E-01
 352  7.69847772   0.710  -1.61347   3.53323   6.76746   1.53928   0.00000   3.985E-02   0.000E+00   9.601E-01
 353  7.69980519   0.710  -1.61431   3.53323   6.76780   1.54069   0.00000   4.031E-02   0.000E+00   9.597E-01
 354  7.70112861   0.710  -1.61514   3.53323   6.76815   1.54211   0.00000   4.077E-02   0.000E+00   9.592E-01
 355  7.70244802   0.710  -1.61597   3.53323   6.76849   1.54352   0.00000   4.123E-02   0.000E+00   9.588E-01
 356  7.70376342   0.710  -1.61681   3.53323   6.76884   1.54493   0.00000   4.168E-02   0.000E+00   9.583E-01
 357  7.70507486   0.710  -1.61764   3.53324   6.76918   1.54635   0.00000   4.214E-02   0.000E+00   9.579E-01
 358  7.70638235   0.710  -1.61848   3.53324   6.76953   1.54776   0.00000   4.260E-02   0.000E+00   9.574E-01
 359  7.70768591   0.710  -1.61931   3.53324   6.76987   1.54917   0.00000   4.306E-02   0.000E+00   9.569E-01
 360  7.70898557   0.710  -1.62015   3.53324   6.77022   1.55059   0.00000   4.352E-02   0.000E+00   9.565E-01
 361  7.71028136   0.710  -1.62098   3.53324   6.77056   1.55200   0.00000   4.397E-02   0.000E+00   9.560E-01
 362  7.71157329   0.710  -1.62181   3.53324   6.77091   1.55342   0.00000   4.443E-02   0.000E+00   9.556E-01
 363  7.71286139   0.710  -1.62265   3.53324   6.77125   1.55483   0.00000   4.489E-02   0.000E+00   9.551E-01
 364  7.71414568   0.710  -1.62348   3.53325   6.77160   1.55624   0.00000   4.535E-02   0.000E+00   9.547E-01
 365  7.71542618   0.710  -1.62432   3.53325   6.77194   1.55766   0.00000   4.581E-02   0.000E+00   9.542E-01
 366  7.71670292   0.710  -1.62515   3.53325   6.77229   1.55907   0.00000   4.626E-02   0.000E+00   9.537E-01
 367  7.71797591   0.710  -1.62598   3.53325   6.77263   1.56048   0.00000   4.672E-02   0.000E+00   9.533E-01
 368  7.71924519   0.710  -1.62679   3.53325   6.77297   1.56186   0.00000   4.719E-02   0.000E+00   9.528E-01
 369  7.72051076   0.710  -1.62756   3.53325   6.77329   1.56318   0.00000   4.766E-02   0.000E+00   9.523E-01
 370  7.72177266   0.710  -1.62833   3.53326   6.77360   1.56449   0.00000   4.813E-02   0.000E+00   9.519E-01
 371  7.72303091   0.710  -1.62909   3.53326   6.77392   1.56581   0.00000   4.860E-02   0.000E+00   9.514E-01
 372  7.72428551   0.710  -1.62986   3.53326   6.77424   1.56713   0.00000   4.907E-02   0.000E+00   9.509E-01
 373  7.72553651   0.710  -1.63063   3.53326   6.77456   1.56845   0.00000   4.954E-02   0.000E+00   9.505E-01
 374  7.72678391   0.710  -1.63140   3.53326   6.77488   1.56976   0.00000   5.001E-02   0.000E+00   9.500E-01
 375  7.72802774   0.710  -1.63216   3.53327   6.77520   1.57108   0.00000   5.048E-02   0.000E+00   9.495E-01
 376  7.72926801   0.710  -1.63293   3.53327   6.77552   1.57240   0.00000   5.095E-02   0.000E+00   9.491E-01
 377  7.73050476   0.710  -1.63370   3.53327   6.77584   1.57372   0.00000   5.142E-02   0.000E+00   9.486E-01
 378  7.73173799   0.710  -1.63447   3.53327   6.77616   1.57503   0.00000   5.189E-02   0.000E+00   9.481E-01
 379  7.73296773   0.710  -1.63523   3.53327   6.77648   1.57635   0.00000   5.236E-02   0.000E+00   9.476E-01
 380  7.73419400   0.710  -1.63600   3.53328   6.77680   1.57767   0.00000   5.283E-02   0.000E+00   9.472E-01
 381  7.73541681   0.710  -1.63677   3.53328   6.77712   1.57899   0.00000   5.330E-02   0.000E+00   9.467E-01
 382  7.73663620   0.710  -1.63753   3.53328   6.77744   1.58030   0.00000   5.377E-02   0.000E+00   9.462E-01
 383  7.73785216   0.710  -1.63830   3.53328   6.77776   1.58162   0.00000   5.424E-02   0.000E+00   9.458E-01
 384  7.73906474   0.710  -1.63907   3.53329   6.77807   1.58294   0.00000   5.471E-02   0.000E+00   9.453E-01
 385  7.74027393   0.710  -1.63984   3.53329   6.77839   1.58426   0.00000   5.518E-02   0.000E+00   9.448E-01
 386  7.74147977   0.710  -1.64060   3.53329   6.77871   1.58557   0.00000   5.565E-02   0.000E+00   9.444E-01
 387  7.74268227   0.710  -1.64137   3.53329   6.77903   1.58689   0.00000   5.612E-02   0.000E+00   9.439E-01
 388  7.74388145   0.710  -1.64214   3.53329   6.77935   1.58821   0.00000   5.659E-02   0.000E+00   9.434E-01
 389  7.74507733   0.710  -1.64291   3.53330   6.77967   1.58953   0.00000   5.706E-02   0.000E+00   9.429E-01
 390  7.74626993   0.710  -1.64367   3.53330   6.77999   1.59084   0.00000   5.753E-02   0.000E+00   9.425E-01
 391  7.74745926   0.710  -1.64444   3.53330   6.78031   1.59216   0.00000   5.800E-02   0.000E+00   9.420E-01
 392  7.85052673   0.710  -1.70537   3.53362   6.80656   1.69922   0.00000   1.245E-01   0.000E+00   8.755E-01
 393  7.93376497   0.710  -1.74996   3.53400   6.82728   1.77887   0.00000   2.176E-01   0.000E+00   7.824E-01
 394  8.00358659   0.710  -1.78289   3.53434   6.84397   1.83636   0.00000   3.295E-01   0.000E+00   6.705E-01
 395  8.06372224   0.710  -1.80763   3.53459   6.85764   1.87694   0.00000   4.484E-01   0.000E+00   5.516E-01
 396  8.11653480   0.710  -1.82576   3.53475   6.86837   1.90363   0.00000   5.602E-01   0.000E+00   4.398E-01
 397  8.16361577   0.710  -1.83939   3.53482   6.87682   1.92109   0.00000   6.602E-01   0.000E+00   3.398E-01
 398  8.20608830   0.709  -1.84880   3.53483   6.88291   1.93058   0.00000   7.389E-01   0.000E+00   2.611E-01
 399  8.24477470   0.709  -1.85581   3.53480   6.88770   1.93625   0.00040   8.012E-01   0.000E+00   1.988E-01
 400  8.28029506   0.709  -1.86119   3.53476   6.89160   1.93930   0.00107   8.522E-01   0.000E+00   1.478E-01
 401  8.31312862   0.709  -1.86507   3.53471   6.89447   1.94055   0.00279   8.917E-01   0.000E+00   1.083E-01
 402  8.34365343   0.709  -1.86730   3.53465   6.89620   1.93982   0.00567   9.184E-01   0.000E+00   8.155E-02
 403  8.37217294   0.709  -1.86952   3.53459   6.89794   1.93909   0.00856   9.452E-01   0.000E+00   5.477E-02
 404  8.39893447   0.708  -1.87117   3.53454   6.89929   1.93791   0.01122   9.670E-01   0.000E+00   3.290E-02
 405  8.42414221   0.708  -1.87146   3.53449   6.89971   1.93570   0.01335   9.773E-01   0.000E+00   2.272E-02
 406  8.44796674   0.708  -1.87174   3.53444   6.90014   1.93348   0.01548   9.876E-01   0.000E+00   1.255E-02
 407  8.47055200   0.708  -1.87203   3.53439   6.90056   1.93126   0.01761   9.979E-01   0.000E+00   2.378E-03
 408  8.49202055   0.708  -1.87232   3.53434   6.90099   1.92904   0.01974   1.008E+00   0.000E+00  -7.795E-03
 409  8.51247765   0.708  -1.87219   3.53431   6.90113   1.92691   0.02151   1.014E+00   0.000E+00  -1.355E-02
 410  8.53201433   0.708  -1.87170   3.53428   6.90101   1.92487   0.02296   1.016E+00   0.000E+00  -1.536E-02
 411  8.55070985   0.708  -1.87121   3.53425   6.90089   1.92282   0.02440   1.017E+00   0.000E+00  -1.716E-02
 412  8.56863368   0.708  -1.87071   3.53422   6.90078   1.92078   0.02585   1.019E+00   0.000E+00  -1.896E-02
 413  8.58584700   0.708  -1.87022   3.53419   6.90066   1.91873   0.02729   1.021E+00   0.000E+00  -2.077E-02
 414  8.60240399   0.708  -1.86973   3.53417   6.90054   1.91669   0.02873   1.022E+00   0.000E+00  -2.257E-02
 415  8.61835288   0.707  -1.86924   3.53414   6.90042   1.91464   0.03018   1.024E+00   0.000E+00  -2.438E-02
 416  8.63373676   0.707  -1.86872   3.53412   6.90027   1.91286   0.03143   1.025E+00   0.000E+00  -2.534E-02
 417  8.64859429   0.707  -1.86815   3.53410   6.90007   1.91151   0.03235   1.024E+00   0.000E+00  -2.490E-02
 418  8.66296030   0.707  -1.86759   3.53409   6.89986   1.91016   0.03327   1.024E+00   0.000E+00  -2.446E-02
 419  8.67686627   0.707  -1.86703   3.53408   6.89966   1.90880   0.03419   1.024E+00   0.000E+00  -2.402E-02
 420  8.69034076   0.707  -1.86646   3.53406   6.89945   1.90745   0.03511   1.023E+00   0.000E+00  -2.358E-02
 421  8.70340974   0.707  -1.86590   3.53405   6.89925   1.90610   0.03603   1.023E+00   0.000E+00  -2.314E-02
 422  8.71609691   0.707  -1.86533   3.53404   6.89904   1.90474   0.03695   1.023E+00   0.000E+00  -2.271E-02
 423  8.72842393   0.707  -1.86477   3.53402   6.89884   1.90339   0.03787   1.022E+00   0.000E+00  -2.227E-02
 424  8.74041070   0.707  -1.86421   3.53401   6.89863   1.90204   0.03879   1.022E+00   0.000E+00  -2.183E-02
 425  8.75207550   0.707  -1.86364   3.53400   6.89843   1.90069   0.03971   1.022E+00   0.000E+00  -2.139E-02
 426  8.76343517   0.707  -1.86308   3.53398   6.89822   1.89933   0.04063   1.021E+00   0.000E+00  -2.095E-02
 427  8.77450526   0.707  -1.86261   3.53398   6.89804   1.89837   0.03896   1.021E+00   0.000E+00  -2.043E-02
 428  8.78530018   0.706  -1.86219   3.53397   6.89787   1.89762   0.03589   1.020E+00   0.000E+00  -1.985E-02
 429  8.79583327   0.706  -1.86177   3.53397   6.89770   1.89686   0.03283   1.019E+00   0.000E+00  -1.927E-02
 430  8.80611694   0.706  -1.86134   3.53396   6.89754   1.89611   0.02976   1.019E+00   0.000E+00  -1.870E-02
 431  8.81616272   0.706  -1.86092   3.53396   6.89737   1.89535   0.02669   1.018E+00   0.000E+00  -1.812E-02
 432  8.82598138   0.706  -1.86050   3.53395   6.89720   1.89460   0.02363   1.018E+00   0.000E+00  -1.754E-02
 433  8.83558295   0.706  -1.86008   3.53395   6.89703   1.89385   0.02056   1.017E+00   0.000E+00  -1.697E-02
 434  8.84497683   0.706  -1.85966   3.53395   6.89686   1.89309   0.01750   1.016E+00   0.000E+00  -1.639E-02
 435  8.85417181   0.706  -1.85924   3.53394   6.89669   1.89234   0.01443   1.016E+00   0.000E+00  -1.581E-02
 436  8.86317614   0.706  -1.85882   3.53394   6.89652   1.89158   0.01136   1.015E+00   0.000E+00  -1.524E-02
 437  8.87199757   0.706  -1.85840   3.53393   6.89636   1.89083   0.00830   1.015E+00   0.000E+00  -1.466E-02
 438  8.88064338   0.706  -1.85798   3.53393   6.89619   1.89008   0.00523   1.014E+00   0.000E+00  -1.408E-02
 439  8.88912043   0.706  -1.85756   3.53392   6.89602   1.88932   0.00217   1.013E+00   0.000E+00  -1.351E-02
 440  8.89743517   0.706  -1.85760   3.53393   6.89597   1.88984   0.00005   1.012E+00   0.000E+00  -1.186E-02
 441  8.90559371   0.706  -1.85878   3.53397   6.89621   1.89343   0.00021   1.008E+00   0.000E+00  -7.628E-03
 442  8.91360181   0.706  -1.85995   3.53402   6.89645   1.89701   0.00037   1.003E+00   0.000E+00  -3.398E-03
 443  8.92146491   0.707  -1.86112   3.53406   6.89669   1.90059   0.00054   9.992E-01   0.000E+00   8.325E-04
 444  8.92918818   0.707  -1.86229   3.53410   6.89694   1.90418   0.00070   9.950E-01   0.000E+00   5.063E-03
 445  8.93677650   0.707  -1.86346   3.53414   6.89718   1.90776   0.00086   9.908E-01   0.000E+00   9.293E-03
 446  8.94423450   0.707  -1.86463   3.53418   6.89742   1.91134   0.00103   9.866E-01   0.000E+00   1.352E-02
 447  8.95156659   0.708  -1.86581   3.53423   6.89766   1.91493   0.00119   9.824E-01   0.000E+00   1.775E-02
 448  8.95877694   0.708  -1.86698   3.53427   6.89790   1.91851   0.00135   9.782E-01   0.000E+00   2.198E-02
 449  8.96586954   0.708  -1.86815   3.53431   6.89814   1.92209   0.00152   9.740E-01   0.000E+00   2.621E-02
 450  8.97284816   0.708  -1.86932   3.53435   6.89838   1.92568   0.00168   9.698E-01   0.000E+00   3.044E-02
 451  8.97971642   0.709  -1.87049   3.53439   6.89862   1.92926   0.00184   9.656E-01   0.000E+00   3.467E-02
 452  8.98647774   0.709  -1.87166   3.53444   6.89886   1.93284   0.00201   9.615E-01   0.000E+00   3.890E-02
 453  8.99313541   0.709  -1.87284   3.53448   6.89910   1.93643   0.00217   9.573E-01   0.000E+00   4.314E-02
 454  8.99969256   0.709  -1.87261   3.53446   6.89925   1.93482   0.00449   9.628E-01   0.000E+00   3.754E-02
 455  9.00615218   0.709  -1.87229   3.53443   6.89940   1.93287   0.00696   9.690E-01   0.000E+00   3.129E-02
 456  9.01251713   0.709  -1.87197   3.53440   6.89954   1.93092   0.00943   9.751E-01   0.000E+00   2.504E-02
 457  9.01879014   0.709  -1.87165   3.53438   6.89968   1.92896   0.01190   9.813E-01   0.000E+00   1.878E-02
 458  9.02497383   0.708  -1.87133   3.53435   6.89982   1.92701   0.01436   9.875E-01   0.000E+00   1.253E-02
 459  9.03107071   0.708  -1.87101   3.53432   6.89996   1.92506   0.01683   9.937E-01   0.000E+00   6.279E-03
 460  9.03708318   0.708  -1.87069   3.53430   6.90011   1.92311   0.01930   9.998E-01   0.000E+00   2.683E-05
 461  9.04301354   0.708  -1.87037   3.53427   6.90025   1.92116   0.02177   1.006E+00   0.000E+00  -6.225E-03
 462  9.04886402   0.708  -1.87005   3.53424   6.90039   1.91920   0.02423   1.012E+00   0.000E+00  -1.248E-02
 463  9.05463673   0.708  -1.86974   3.53422   6.90053   1.91725   0.02670   1.018E+00   0.000E+00  -1.873E-02
 464  9.06033371   0.708  -1.86921   3.53420   6.90042   1.91561   0.02819   1.020E+00   0.000E+00  -2.053E-02
 465  9.06595693   0.707  -1.86862   3.53418   6.90020   1.91409   0.02932   1.020E+00   0.000E+00  -2.071E-02
 466  9.07150827   0.707  -1.86802   3.53417   6.89999   1.91256   0.03045   1.021E+00   0.000E+00  -2.089E-02
 467  9.07698954   0.707  -1.86743   3.53415   6.89978   1.91104   0.03157   1.021E+00   0.000E+00  -2.107E-02
 468  9.08240250   0.707  -1.86683   3.53414   6.89957   1.90951   0.03270   1.021E+00   0.000E+00  -2.125E-02
 469  9.08774882   0.707  -1.86624   3.53412   6.89936   1.90799   0.03383   1.021E+00   0.000E+00  -2.143E-02
 470  9.09303012   0.707  -1.86564   3.53411   6.89915   1.90646   0.03496   1.022E+00   0.000E+00  -2.161E-02
 471  9.09824797   0.707  -1.86505   3.53409   6.89894   1.90494   0.03609   1.022E+00   0.000E+00  -2.179E-02
 472  9.10340388   0.707  -1.86445   3.53408   6.89873   1.90341   0.03722   1.022E+00   0.000E+00  -2.197E-02
 473  9.10849929   0.707  -1.86386   3.53406   6.89852   1.90189   0.03835   1.022E+00   0.000E+00  -2.215E-02
 474  9.11353561   0.707  -1.86326   3.53405   6.89830   1.90036   0.03948   1.022E+00   0.000E+00  -2.233E-02
 475  9.11851420   0.707  -1.86267   3.53403   6.89809   1.89884   0.04061   1.023E+00   0.000E+00  -2.251E-02
 476  9.12343636   0.707  -1.86207   3.53402   6.89788   1.89731   0.04174   1.023E+00   0.000E+00  -2.269E-02
 477  9.12830335   0.707  -1.86155   3.53401   6.89769   1.89610   0.04124   1.023E+00   0.000E+00  -2.250E-02
 478  9.13311641   0.707  -1.86115   3.53400   6.89753   1.89541   0.03807   1.022E+00   0.000E+00  -2.171E-02
 479  9.13787672   0.707  -1.86075   3.53400   6.89736   1.89471   0.03489   1.021E+00   0.000E+00  -2.091E-02
 480  9.14258541   0.706  -1.86035   3.53400   6.89720   1.89402   0.03171   1.020E+00   0.000E+00  -2.012E-02
 481  9.14724359   0.706  -1.85995   3.53399   6.89704   1.89333   0.02853   1.019E+00   0.000E+00  -1.933E-02
 482  9.15185234   0.706  -1.85955   3.53399   6.89688   1.89264   0.02536   1.019E+00   0.000E+00  -1.853E-02
 483  9.15641270   0.706  -1.85915   3.53399   6.89671   1.89194   0.02218   1.018E+00   0.000E+00  -1.774E-02
 484  9.16092567   0.706  -1.85875   3.53398   6.89655   1.89125   0.01900   1.017E+00   0.000E+00  -1.695E-02
 485  9.16539222   0.706  -1.85835   3.53398   6.89639   1.89056   0.01582   1.016E+00   0.000E+00  -1.615E-02
 486  9.16981330   0.706  -1.85795   3.53397   6.89623   1.88987   0.01265   1.015E+00   0.000E+00  -1.536E-02
 487  9.17418983   0.706  -1.85755   3.53397   6.89606   1.88917   0.00947   1.014E+00   0.000E+00  -1.456E-02
 488  9.17852270   0.706  -1.85715   3.53397   6.89590   1.88848   0.00629   1.014E+00   0.000E+00  -1.377E-02
 489  9.18281276   0.706  -1.85675   3.53396   6.89574   1.88779   0.00311   1.013E+00   0.000E+00  -1.298E-02
 490  9.18706086   0.706  -1.85638   3.53396   6.89559   1.88717   0.00002   1.012E+00   0.000E+00  -1.213E-02
 491  9.19126781   0.706  -1.85736   3.53399   6.89587   1.88986   0.00102   1.008E+00   0.000E+00  -8.594E-03
 492  9.19543440   0.706  -1.85834   3.53402   6.89615   1.89255   0.00202   1.005E+00   0.000E+00  -5.060E-03
 493  9.19956139   0.706  -1.85931   3.53405   6.89643   1.89524   0.00302   1.001E+00   0.000E+00  -1.526E-03
 494  9.20364954   0.707  -1.86029   3.53408   6.89672   1.89793   0.00402   9.979E-01   0.000E+00   2.008E-03
 495  9.20769956   0.707  -1.86127   3.53411   6.89700   1.90062   0.00502   9.943E-01   0.000E+00   5.542E-03
 496  9.21171216   0.707  -1.86225   3.53414   6.89728   1.90331   0.00602   9.908E-01   0.000E+00   9.076E-03
 497  9.21568802   0.707  -1.86322   3.53417   6.89757   1.90600   0.00702   9.873E-01   0.000E+00   1.261E-02
 498  9.21962782   0.707  -1.86420   3.53420   6.89785   1.90869   0.00802   9.838E-01   0.000E+00   1.614E-02
 499  9.22353220   0.708  -1.86518   3.53423   6.89813   1.91138   0.00902   9.803E-01   0.000E+00   1.968E-02
 500  9.22740179   0.708  -1.86616   3.53426   6.89842   1.91407   0.01002   9.767E-01   0.000E+00   2.321E-02
 501  9.23123720   0.708  -1.86714   3.53429   6.89870   1.91676   0.01102   9.732E-01   0.000E+00   2.675E-02
 502  9.23503904   0.708  -1.86811   3.53432   6.89898   1.91945   0.01201   9.697E-01   0.000E+00   3.028E-02
 503  9.23880789   0.709  -1.86909   3.53435   6.89927   1.92214   0.01301   9.662E-01   0.000E+00   3.381E-02
 504  9.24254431   0.708  -1.86906   3.53435   6.89929   1.92178   0.01465   9.680E-01   0.000E+00   3.203E-02
 505  9.24624886   0.708  -1.86852   3.53432   6.89918   1.91989   0.01661   9.725E-01   0.000E+00   2.756E-02
 506  9.24992208   0.708  -1.86799   3.53430   6.89908   1.91799   0.01856   9.770E-01   0.000E+00   2.309E-02
 507  9.25356449   0.708  -1.86745   3.53428   6.89897   1.91610   0.02052   9.815E-01   0.000E+00   1.861E-02
 508  9.25717660   0.708  -1.86691   3.53426   6.89887   1.91421   0.02247   9.860E-01   0.000E+00   1.414E-02
 509  9.26075892   0.708  -1.86637   3.53423   6.89876   1.91231   0.02443   9.905E-01   0.000E+00   9.670E-03
 510  9.26431193   0.708  -1.86584   3.53421   6.89866   1.91042   0.02638   9.950E-01   0.000E+00   5.198E-03
 511  9.26783611   0.708  -1.86530   3.53419   6.89855   1.90853   0.02834   9.994E-01   0.000E+00   7.264E-04
 512  9.27133192   0.707  -1.86476   3.53417   6.89844   1.90663   0.03030   1.004E+00   0.000E+00  -3.745E-03
 513  9.27479982   0.707  -1.86422   3.53414   6.89834   1.90474   0.03225   1.008E+00   0.000E+00  -8.217E-03
 514  9.27824025   0.707  -1.86368   3.53412   6.89823   1.90285   0.03421   1.013E+00   0.000E+00  -1.269E-02
 515  9.28165363   0.707  -1.86315   3.53410   6.89813   1.90095   0.03616   1.017E+00   0.000E+00  -1.716E-02
 516  9.28504040   0.707  -1.86261   3.53408   6.89802   1.89906   0.03812   1.022E+00   0.000E+00  -2.163E-02
 517  9.28840096   0.707  -1.86211   3.53406   6.89790   1.89752   0.03978   1.025E+00   0.000E+00  -2.442E-02
 518  9.29173571   0.707  -1.86171   3.53405   6.89775   1.89677   0.04078   1.024E+00   0.000E+00  -2.352E-02
 519  9.29504506   0.707  -1.86131   3.53405   6.89759   1.89601   0.04178   1.023E+00   0.000E+00  -2.262E-02
 520  9.29832937   0.707  -1.86091   3.53405   6.89744   1.89525   0.04278   1.022E+00   0.000E+00  -2.172E-02
 521  9.30158904   0.707  -1.86052   3.53404   6.89728   1.89450   0.04379   1.021E+00   0.000E+00  -2.082E-02
 522  9.30482442   0.707  -1.86012   3.53404   6.89713   1.89374   0.04479   1.020E+00   0.000E+00  -1.993E-02
 523  9.30803588   0.707  -1.85972   3.53403   6.89697   1.89299   0.04579   1.019E+00   0.000E+00  -1.903E-02
 524  9.31122376   0.706  -1.85932   3.53403   6.89682   1.89223   0.04680   1.018E+00   0.000E+00  -1.813E-02
 525  9.31438842   0.706  -1.85892   3.53402   6.89666   1.89147   0.04780   1.018E+00   0.000E+00  -1.723E-02
 526  9.31753018   0.706  -1.85852   3.53402   6.89651   1.89072   0.04880   1.017E+00   0.000E+00  -1.633E-02
 527  9.32064937   0.706  -1.85812   3.53401   6.89635   1.88996   0.04981   1.016E+00   0.000E+00  -1.543E-02
 528  9.32374632   0.706  -1.85772   3.53401   6.89620   1.88920   0.05081   1.015E+00   0.000E+00  -1.453E-02
 529  9.32682135   0.706  -1.85732   3.53400   6.89604   1.88845   0.05181   1.014E+00   0.000E+00  -1.364E-02
 530  9.32987475   0.706  -1.85692   3.53400   6.89589   1.88769   0.05282   1.013E+00   0.000E+00  -1.274E-02
 531  9.33290684   0.706  -1.85660   3.53400   6.89575   1.88723   0.04907   1.013E+00   0.000E+00  -1.241E-02
 532  9.33591790   0.706  -1.85629   3.53400   6.89562   1.88678   0.04511   1.012E+00   0.000E+00  -1.211E-02
 533  9.33890824   0.706  -1.85597   3.53400   6.89548   1.88634   0.04115   1.012E+00   0.000E+00  -1.181E-02
 534  9.34187812   0.706  -1.85566   3.53399   6.89535   1.88589   0.03720   1.012E+00   0.000E+00  -1.151E-02
 535  9.34482783   0.706  -1.85535   3.53399   6.89522   1.88544   0.03324   1.012E+00   0.000E+00  -1.122E-02
 536  9.34775764   0.706  -1.85504   3.53399   6.89508   1.88499   0.02928   1.011E+00   0.000E+00  -1.092E-02
 537  9.35066782   0.706  -1.85472   3.53399   6.89495   1.88454   0.02532   1.011E+00   0.000E+00  -1.062E-02
 538  9.35355863   0.706  -1.85441   3.53399   6.89481   1.88410   0.02136   1.011E+00   0.000E+00  -1.032E-02
 539  9.35643032   0.706  -1.85410   3.53399   6.89468   1.88365   0.01741   1.010E+00   0.000E+00  -1.002E-02
 540  9.35928315   0.706  -1.85378   3.53399   6.89455   1.88320   0.01345   1.010E+00   0.000E+00  -9.718E-03
 541  9.36211736   0.706  -1.85347   3.53398   6.89441   1.88275   0.00949   1.010E+00   0.000E+00  -9.418E-03
 542  9.36493320   0.705  -1.85316   3.53398   6.89428   1.88231   0.00553   1.009E+00   0.000E+00  -9.119E-03
 543  9.36773089   0.705  -1.85284   3.53398   6.89414   1.88186   0.00158   1.009E+00   0.000E+00  -8.819E-03
 544  9.37051068   0.706  -1.85325   3.53399   6.89427   1.88288   0.00106   1.007E+00   0.000E+00  -7.015E-03
 545  9.37327279   0.706  -1.85414   3.53401   6.89458   1.88488   0.00281   1.004E+00   0.000E+00  -4.215E-03
 546  9.37601745   0.706  -1.85502   3.53403   6.89489   1.88688   0.00457   1.002E+00   0.000E+00  -1.414E-03
 547  9.37874486   0.706  -1.85590   3.53405   6.89520   1.88887   0.00632   9.988E-01   0.000E+00   1.386E-03
 548  9.38145526   0.706  -1.85679   3.53407   6.89550   1.89087   0.00808   9.959E-01   0.000E+00   4.186E-03
 549  9.38414884   0.706  -1.85767   3.53409   6.89581   1.89287   0.00984   9.931E-01   0.000E+00   6.986E-03
 550  9.38682582   0.707  -1.85855   3.53411   6.89612   1.89486   0.01159   9.902E-01   0.000E+00   9.786E-03
 551  9.38948640   0.707  -1.85944   3.53413   6.89642   1.89686   0.01335   9.874E-01   0.000E+00   1.259E-02
 552  9.39213078   0.707  -1.86032   3.53415   6.89673   1.89886   0.01510   9.845E-01   0.000E+00   1.539E-02
 553  9.39475916   0.707  -1.86120   3.53417   6.89704   1.90085   0.01686   9.817E-01   0.000E+00   1.819E-02
 554  9.39737173   0.707  -1.86209   3.53419   6.89734   1.90285   0.01861   9.788E-01   0.000E+00   2.099E-02
 555  9.39996867   0.708  -1.86297   3.53421   6.89765   1.90485   0.02037   9.760E-01   0.000E+00   2.379E-02
 556  9.40255018   0.708  -1.86385   3.53423   6.89796   1.90684   0.02213   9.731E-01   0.000E+00   2.659E-02
 557  9.40511643   0.708  -1.86441   3.53425   6.89816   1.90802   0.02385   9.719E-01   0.000E+00   2.784E-02
 558  9.40766761   0.708  -1.86396   3.53423   6.89804   1.90669   0.02550   9.754E-01   0.000E+00   2.433E-02
 559  9.41020388   0.708  -1.86352   3.53422   6.89792   1.90536   0.02714   9.789E-01   0.000E+00   2.081E-02
 560  9.41272544   0.708  -1.86307   3.53420   6.89780   1.90403   0.02879   9.824E-01   0.000E+00   1.730E-02
 561  9.41523243   0.707  -1.86263   3.53419   6.89768   1.90270   0.03043   9.859E-01   0.000E+00   1.379E-02
 562  9.41772504   0.707  -1.86218   3.53417   6.89756   1.90137   0.03207   9.895E-01   0.000E+00   1.028E-02
 563  9.42020342   0.707  -1.86173   3.53416   6.89744   1.90004   0.03372   9.930E-01   0.000E+00   6.768E-03
 564  9.42266775   0.707  -1.86129   3.53414   6.89732   1.89871   0.03536   9.965E-01   0.000E+00   3.257E-03
 565  9.42511816   0.707  -1.86084   3.53413   6.89720   1.89738   0.03701   1.000E+00   0.000E+00  -2.545E-04
 566  9.42755483   0.707  -1.86039   3.53411   6.89708   1.89605   0.03865   1.004E+00   0.000E+00  -3.766E-03
 567  9.42997790   0.707  -1.85995   3.53410   6.89696   1.89472   0.04030   1.007E+00   0.000E+00  -7.278E-03
 568  9.43238753   0.707  -1.85950   3.53408   6.89684   1.89339   0.04194   1.011E+00   0.000E+00  -1.079E-02
 569  9.43478386   0.707  -1.85906   3.53407   6.89672   1.89206   0.04358   1.014E+00   0.000E+00  -1.430E-02
 570  9.43716704   0.707  -1.85861   3.53405   6.89660   1.89073   0.04523   1.018E+00   0.000E+00  -1.781E-02
 571  9.43953722   0.706  -1.85822   3.53405   6.89645   1.89004   0.04239   1.018E+00   0.000E+00  -1.773E-02
 572  9.44189453   0.706  -1.85784   3.53405   6.89629   1.88943   0.03899   1.017E+00   0.000E+00  -1.720E-02
 573  9.44423912   0.706  -1.85746   3.53404   6.89614   1.88882   0.03559   1.016E+00   0.000E+00  -1.666E-02
 574  9.44657111   0.706  -1.85708   3.53404   6.89598   1.88822   0.03219   1.016E+00   0.000E+00  -1.613E-02
 575  9.44889065   0.706  -1.85670   3.53404   6.89582   1.88761   0.02879   1.015E+00   0.000E+00  -1.560E-02
 576  9.45119787   0.706  -1.85632   3.53404   6.89566   1.88700   0.02539   1.015E+00   0.000E+00  -1.507E-02
 577  9.45349289   0.706  -1.85593   3.53403   6.89551   1.88639   0.02199   1.014E+00   0.000E+00  -1.454E-02
 578  9.45577585   0.706  -1.85555   3.53403   6.89535   1.88578   0.01859   1.014E+00   0.000E+00  -1.401E-02
 579  9.45804688   0.706  -1.85517   3.53403   6.89519   1.88518   0.01519   1.013E+00   0.000E+00  -1.347E-02
 580  9.46030609   0.706  -1.85479   3.53403   6.89504   1.88457   0.01179   1.013E+00   0.000E+00  -1.294E-02
 581  9.46255360   0.706  -1.85441   3.53403   6.89488   1.88396   0.00839   1.012E+00   0.000E+00  -1.241E-02
 582  9.46478955   0.706  -1.85403   3.53402   6.89472   1.88335   0.00499   1.012E+00   0.000E+00  -1.188E-02
 583  9.46701404   0.706  -1.85365   3.53402   6.89456   1.88274   0.00159   1.011E+00   0.000E+00  -1.135E-02
 584  9.46922720   0.706  -1.85377   3.53403   6.89460   1.88309   0.00129   1.010E+00   0.000E+00  -9.946E-03
 585  9.47142913   0.706  -1.85433   3.53404   6.89480   1.88426   0.00370   1.008E+00   0.000E+00  -7.782E-03
 586  9.47361996   0.706  -1.85488   3.53405   6.89500   1.88544   0.00611   1.005E+00   0.000E+00  -5.618E-03
 587  9.47579979   0.706  -1.85544   3.53406   6.89520   1.88661   0.00852   1.003E+00   0.000E+00  -3.455E-03
 588  9.47796874   0.706  -1.85600   3.53407   6.89540   1.88779   0.01093   1.001E+00   0.000E+00  -1.291E-03
 589  9.48012691   0.706  -1.85656   3.53408   6.89560   1.88896   0.01334   9.990E-01   0.000E+00   8.731E-04
 590  9.48227440   0.707  -1.85712   3.53409   6.89580   1.89014   0.01575   9.968E-01   0.000E+00   3.037E-03
 591  9.48441133   0.707  -1.85768   3.53410   6.89600   1.89131   0.01816   9.946E-01   0.000E+00   5.201E-03
 592  9.48653779   0.707  -1.85824   3.53412   6.89620   1.89248   0.02057   9.925E-01   0.000E+00   7.364E-03
 593  9.48865390   0.707  -1.85879   3.53413   6.89640   1.89366   0.02298   9.903E-01   0.000E+00   9.528E-03
 594  9.49075974   0.707  -1.85935   3.53414   6.89660   1.89483   0.02539   9.881E-01   0.000E+00   1.169E-02
 595  9.49285542   0.707  -1.85991   3.53415   6.89680   1.89601   0.02781   9.860E-01   0.000E+00   1.386E-02
 596  9.49494104   0.707  -1.86047   3.53416   6.89700   1.89718   0.03022   9.838E-01   0.000E+00   1.602E-02
 597  9.49701669   0.707  -1.86086   3.53417   6.89714   1.89798   0.03247   9.824E-01   0.000E+00   1.738E-02
 598  9.49908247   0.707  -1.86047   3.53416   6.89701   1.89703   0.03402   9.848E-01   0.000E+00   1.499E-02
 599  9.50113846   0.707  -1.86007   3.53415   6.89688   1.89607   0.03557   9.872E-01   0.000E+00   1.260E-02
 600  9.50318477   0.707  -1.85968   3.53414   6.89676   1.89512   0.03711   9.896E-01   0.000E+00   1.021E-02
 601  9.50522149   0.707  -1.85928   3.53413   6.89663   1.89416   0.03866   9.920E-01   0.000E+00   7.823E-03
 602  9.50724869   0.707  -1.85889   3.53412   6.89650   1.89321   0.04021   9.944E-01   0.000E+00   5.435E-03
 603  9.50926648   0.707  -1.85849   3.53411   6.89638   1.89225   0.04176   9.968E-01   0.000E+00   3.046E-03
 604  9.51127493   0.707  -1.85810   3.53411   6.89625   1.89130   0.04330   9.992E-01   0.000E+00   6.578E-04
 605  9.51327414   0.707  -1.85770   3.53410   6.89613   1.89034   0.04485   1.002E+00   0.000E+00  -1.731E-03
 606  9.51526419   0.707  -1.85731   3.53409   6.89600   1.88939   0.04640   1.004E+00   0.000E+00  -4.119E-03
 607  9.51724516   0.707  -1.85691   3.53408   6.89587   1.88843   0.04794   1.006E+00   0.000E+00  -6.507E-03
 608  9.51921714   0.706  -1.85652   3.53407   6.89575   1.88748   0.04949   1.009E+00   0.000E+00  -8.896E-03
 609  9.52118020   0.706  -1.85613   3.53406   6.89562   1.88653   0.05104   1.011E+00   0.000E+00  -1.128E-02
 610  9.52313443   0.706  -1.85573   3.53405   6.89549   1.88557   0.05258   1.014E+00   0.000E+00  -1.367E-02
 611  9.52507991   0.706  -1.85538   3.53405   6.89535   1.88500   0.04961   1.014E+00   0.000E+00  -1.382E-02
 612  9.52701671   0.706  -1.85504   3.53405   6.89520   1.88451   0.04565   1.013E+00   0.000E+00  -1.347E-02
 613  9.52894491   0.706  -1.85470   3.53405   6.89506   1.88402   0.04169   1.013E+00   0.000E+00  -1.312E-02
 614  9.53086459   0.706  -1.85436   3.53405   6.89491   1.88354   0.03774   1.013E+00   0.000E+00  -1.278E-02
 615  9.53277582   0.706  -1.85401   3.53405   6.89476   1.88305   0.03378   1.012E+00   0.000E+00  -1.243E-02
 616  9.53467867   0.706  -1.85367   3.53405   6.89462   1.88256   0.02982   1.012E+00   0.000E+00  -1.208E-02
 617  9.53657322   0.706  -1.85333   3.53404   6.89447   1.88208   0.02586   1.011E+00   0.000E+00  -1.174E-02
 618  9.53845955   0.706  -1.85299   3.53404   6.89432   1.88159   0.02191   1.011E+00   0.000E+00  -1.139E-02
 619  9.54033772   0.706  -1.85265   3.53404   6.89418   1.88110   0.01795   1.011E+00   0.000E+00  -1.104E-02
 620  9.54220780   0.706  -1.85231   3.53404   6.89403   1.88061   0.01399   1.010E+00   0.000E+00  -1.070E-02
 621  9.54406986   0.706  -1.85197   3.53404   6.89388   1.88013   0.01003   1.010E+00   0.000E+00  -1.035E-02
 622  9.54592397   0.706  -1.85162   3.53404   6.89374   1.87964   0.00608   1.010E+00   0.000E+00  -1.000E-02
 623  9.54777020   0.705  -1.85128   3.53404   6.89359   1.87915   0.00212   1.009E+00   0.000E+00  -9.655E-03
 624  9.54960862   0.705  -1.85131   3.53404   6.89359   1.87925   0.00137   1.008E+00   0.000E+00  -8.681E-03
 625  9.55143928   0.706  -1.85176   3.53405   6.89376   1.88004   0.00433   1.007E+00   0.000E+00  -6.983E-03
 626  9.55326226   0.706  -1.85221   3.53405   6.89394   1.88082   0.00728   1.005E+00   0.000E+00  -5.286E-03
 627  9.55507763   0.706  -1.85266   3.53406   6.89411   1.88160   0.01024   1.003E+00   0.000E+00  -3.589E-03
 628  9.55688543   0.706  -1.85311   3.53407   6.89428   1.88238   0.01319   1.002E+00   0.000E+00  -1.891E-03
 629  9.55868574   0.706  -1.85356   3.53407   6.89446   1.88316   0.01615   1.000E+00   0.000E+00  -1.941E-04
 630  9.56047862   0.706  -1.85400   3.53408   6.89463   1.88394   0.01910   9.984E-01   0.000E+00   1.503E-03
 631  9.56226413   0.706  -1.85445   3.53408   6.89480   1.88473   0.02205   9.967E-01   0.000E+00   3.201E-03
 632  9.56404232   0.706  -1.85490   3.53409   6.89497   1.88551   0.02501   9.951E-01   0.000E+00   4.898E-03
 633  9.56581327   0.707  -1.85535   3.53410   6.89515   1.88629   0.02796   9.934E-01   0.000E+00   6.595E-03
 634  9.56757702   0.707  -1.85580   3.53410   6.89532   1.88707   0.03092   9.918E-01   0.000E+00   8.293E-03
 635  9.56933364   0.707  -1.85625   3.53411   6.89549   1.88785   0.03387   9.901E-01   0.000E+00   9.990E-03
 636  9.57108318   0.707  -1.85670   3.53411   6.89567   1.88863   0.03683   9.885E-01   0.000E+00   1.169E-02
 637  9.57282571   0.707  -1.85706   3.53412   6.89581   1.88926   0.03914   9.872E-01   0.000E+00   1.301E-02
 638  9.57456127   0.707  -1.85674   3.53412   6.89569   1.88864   0.03618   9.889E-01   0.000E+00   1.126E-02
 639  9.57628992   0.707  -1.85641   3.53411   6.89557   1.88801   0.03323   9.906E-01   0.000E+00   9.505E-03
 640  9.57801172   0.707  -1.85609   3.53411   6.89546   1.88739   0.03028   9.924E-01   0.000E+00   7.753E-03
 641  9.57972671   0.707  -1.85576   3.53410   6.89534   1.88677   0.02732   9.941E-01   0.000E+00   6.001E-03
 642  9.58143497   0.707  -1.85544   3.53410   6.89522   1.88614   0.02437   9.958E-01   0.000E+00   4.249E-03
 643  9.58313653   0.706  -1.85511   3.53409   6.89511   1.88552   0.02141   9.975E-01   0.000E+00   2.497E-03
 644  9.58483145   0.706  -1.85478   3.53409   6.89499   1.88490   0.01846   9.992E-01   0.000E+00   7.454E-04
 645  9.58651978   0.706  -1.85446   3.53408   6.89487   1.88427   0.01550   1.001E+00   0.000E+00  -1.007E-03
 646  9.58820157   0.706  -1.85413   3.53408   6.89476   1.88365   0.01255   1.003E+00   0.000E+00  -2.759E-03
 647  9.58987687   0.706  -1.85381   3.53407   6.89464   1.88303   0.00959   1.004E+00   0.000E+00  -4.511E-03
 648  9.59154574   0.706  -1.85348   3.53407   6.89452   1.88240   0.00664   1.006E+00   0.000E+00  -6.263E-03
 649  9.59320822   0.706  -1.85316   3.53407   6.89441   1.88178   0.00369   1.008E+00   0.000E+00  -8.015E-03
 650  9.59486436   0.706  -1.85283   3.53406   6.89429   1.88115   0.00073   1.010E+00   0.000E+00  -9.767E-03
 651  9.59651421   0.706  -1.85287   3.53406   6.89431   1.88119   0.00256   1.009E+00   0.000E+00  -9.363E-03
 652  9.59815781   0.706  -1.85303   3.53406   6.89437   1.88144   0.00596   1.008E+00   0.000E+00  -8.251E-03
 653  9.59979522   0.706  -1.85320   3.53407   6.89443   1.88170   0.00936   1.007E+00   0.000E+00  -7.139E-03
 654  9.60142647   0.706  -1.85336   3.53407   6.89449   1.88195   0.01276   1.006E+00   0.000E+00  -6.028E-03
 655  9.60305162   0.706  -1.85352   3.53407   6.89455   1.88220   0.01616   1.005E+00   0.000E+00  -4.916E-03
 656  9.60467072   0.706  -1.85368   3.53407   6.89461   1.88246   0.01956   1.004E+00   0.000E+00  -3.804E-03
 657  9.60628380   0.706  -1.85385   3.53408   6.89467   1.88271   0.02296   1.002E+00   0.000E+00  -2.692E-03
 658  9.60789091   0.706  -1.85401   3.53408   6.89473   1.88296   0.02636   1.001E+00   0.000E+00  -1.580E-03
 659  9.60949209   0.706  -1.85417   3.53408   6.89479   1.88322   0.02976   1.000E+00   0.000E+00  -4.684E-04
 660  9.61108740   0.706  -1.85433   3.53408   6.89485   1.88347   0.03316   9.990E-01   0.000E+00   6.435E-04
 661  9.61267686   0.707  -1.85450   3.53408   6.89491   1.88372   0.03656   9.979E-01   0.000E+00   1.755E-03
 662  9.61426053   0.707  -1.85466   3.53409   6.89497   1.88397   0.03996   9.968E-01   0.000E+00   2.867E-03
 663  9.61583845   0.707  -1.85482   3.53409   6.89503   1.88423   0.04336   9.957E-01   0.000E+00   3.979E-03
 664  9.61741065   0.707  -1.85480   3.53409   6.89502   1.88419   0.04406   9.954E-01   0.000E+00   4.253E-03
 665  9.61897718   0.707  -1.85449   3.53409   6.89490   1.88372   0.04066   9.965E-01   0.000E+00   3.253E-03
 666  9.62053808   0.707  -1.85418   3.53409   6.89478   1.88325   0.03726   9.975E-01   0.000E+00   2.253E-03
 667  9.62209339   0.706  -1.85388   3.53408   6.89466   1.88279   0.03386   9.986E-01   0.000E+00   1.252E-03
 668  9.62364315   0.706  -1.85357   3.53408   6.89454   1.88232   0.03046   9.996E-01   0.000E+00   2.522E-04
 669  9.62518740   0.706  -1.85326   3.53408   6.89442   1.88185   0.02706   1.001E+00   0.000E+00  -7.481E-04
 670  9.62672618   0.706  -1.85296   3.53408   6.89429   1.88138   0.02366   1.002E+00   0.000E+00  -1.748E-03
 671  9.62825953   0.706  -1.85265   3.53408   6.89417   1.88091   0.02026   1.003E+00   0.000E+00  -2.749E-03
 672  9.62978748   0.706  -1.85234   3.53408   6.89405   1.88044   0.01686   1.004E+00   0.000E+00  -3.749E-03
 673  9.63131008   0.706  -1.85204   3.53408   6.89393   1.87997   0.01346   1.005E+00   0.000E+00  -4.749E-03
 674  9.63282735   0.706  -1.85173   3.53407   6.89381   1.87950   0.01006   1.006E+00   0.000E+00  -5.750E-03
 675  9.63433934   0.706  -1.85142   3.53407   6.89369   1.87903   0.00666   1.007E+00   0.000E+00  -6.750E-03
 676  9.63584609   0.706  -1.85111   3.53407   6.89357   1.87856   0.00326   1.008E+00   0.000E+00  -7.750E-03
 677  9.63734763   0.706  -1.85083   3.53407   6.89345   1.87812   0.00017   1.009E+00   0.000E+00  -8.674E-03
 678  9.63884399   0.706  -1.85095   3.53407   6.89350   1.87827   0.00447   1.008E+00   0.000E+00  -7.777E-03
 679  9.64033522   0.706  -1.85108   3.53407   6.89355   1.87841   0.00876   1.007E+00   0.000E+00  -6.880E-03
 680  9.64182134   0.706  -1.85120   3.53407   6.89360   1.87856   0.01305   1.006E+00   0.000E+00  -5.983E-03
 681  9.64330240   0.706  -1.85133   3.53408   6.89365   1.87871   0.01734   1.005E+00   0.000E+00  -5.086E-03
 682  9.64477842   0.706  -1.85145   3.53408   6.89370   1.87886   0.02164   1.004E+00   0.000E+00  -4.189E-03
 683  9.64624944   0.706  -1.85158   3.53408   6.89375   1.87901   0.02593   1.004E+00   0.000E+00  -3.292E-03
 684  9.64771550   0.706  -1.85171   3.53408   6.89380   1.87916   0.03022   1.003E+00   0.000E+00  -2.395E-03
 685  9.64917662   0.706  -1.85183   3.53408   6.89385   1.87931   0.03451   1.002E+00   0.000E+00  -1.498E-03
 686  9.65063284   0.706  -1.85196   3.53408   6.89390   1.87946   0.03880   1.001E+00   0.000E+00  -6.011E-04
 687  9.65208420   0.706  -1.85208   3.53409   6.89395   1.87961   0.04310   1.000E+00   0.000E+00   2.959E-04
 688  9.65353073   0.706  -1.85221   3.53409   6.89400   1.87975   0.04739   9.991E-01   0.000E+00   1.193E-03
 689  9.65497245   0.706  -1.85233   3.53409   6.89404   1.87990   0.05168   9.982E-01   0.000E+00   2.090E-03
 690  9.65640940   0.706  -1.85246   3.53409   6.89409   1.88005   0.05597   9.973E-01   0.000E+00   2.987E-03
 691  9.65784161   0.706  -1.85232   3.53409   6.89403   1.87985   0.05439   9.975E-01   0.000E+00   2.733E-03
 692  9.65926912   0.706  -1.85205   3.53409   6.89392   1.87949   0.05010   9.983E-01   0.000E+00   1.947E-03
 693  9.66069195   0.706  -1.85178   3.53409   6.89381   1.87912   0.04581   9.990E-01   0.000E+00   1.162E-03
 694  9.66211013   0.706  -1.85151   3.53409   6.89370   1.87876   0.04152   9.998E-01   0.000E+00   3.764E-04
 695  9.66352370   0.706  -1.85124   3.53409   6.89359   1.87840   0.03722   1.001E+00   0.000E+00  -4.090E-04
 696  9.66493268   0.706  -1.85097   3.53409   6.89348   1.87803   0.03293   1.001E+00   0.000E+00  -1.194E-03
 697  9.66633710   0.706  -1.85070   3.53408   6.89337   1.87767   0.02864   1.002E+00   0.000E+00  -1.980E-03
 698  9.66773700   0.706  -1.85043   3.53408   6.89326   1.87730   0.02435   1.003E+00   0.000E+00  -2.765E-03
 699  9.66913240   0.706  -1.85016   3.53408   6.89315   1.87694   0.02005   1.004E+00   0.000E+00  -3.551E-03
 700  9.67052333   0.706  -1.84989   3.53408   6.89304   1.87658   0.01576   1.004E+00   0.000E+00  -4.336E-03
 701  9.67190982   0.706  -1.84962   3.53408   6.89293   1.87621   0.01147   1.005E+00   0.000E+00  -5.121E-03
 702  9.67329189   0.706  -1.84935   3.53408   6.89282   1.87585   0.00718   1.006E+00   0.000E+00  -5.907E-03
 703  9.67466959   0.706  -1.84908   3.53408   6.89271   1.87548   0.00288   1.006E+00   0.000E+00  -6.692E-03
 704  9.67604292   0.706  -1.84893   3.53408   6.89265   1.87528   0.00000   1.007E+00   0.000E+00  -6.979E-03
 705  9.67741193   0.706  -1.84903   3.53408   6.89269   1.87539   0.00000   1.006E+00   0.000E+00  -6.244E-03
 706  9.67877663   0.706  -1.84914   3.53408   6.89273   1.87551   0.00000   1.005E+00   0.000E+00  -5.508E-03
 707  9.68013706   0.706  -1.84924   3.53408   6.89277   1.87563   0.00000   1.005E+00   0.000E+00  -4.773E-03
 708  9.68149325   0.706  -1.84934   3.53408   6.89281   1.87574   0.00000   1.004E+00   0.000E+00  -4.038E-03
 709  9.68284521   0.706  -1.84944   3.53408   6.89285   1.87586   0.00000   1.003E+00   0.000E+00  -3.303E-03
 710  9.68419297   0.706  -1.84954   3.53408   6.89289   1.87597   0.00000   1.002E+00   0.000E+00  -2.567E-03
 711  9.68553657   0.706  -1.84964   3.53409   6.89293   1.87609   0.00000   1.002E+00   0.000E+00  -1.832E-03
 712  9.68687602   0.706  -1.84974   3.53409   6.89296   1.87621   0.00000   1.001E+00   0.000E+00  -1.097E-03
 713  9.68821135   0.706  -1.84984   3.53409   6.89300   1.87632   0.00000   1.000E+00   0.000E+00  -3.616E-04
 714  9.68954259   0.706  -1.84994   3.53409   6.89304   1.87644   0.00000   9.993E-01   0.000E+00   3.736E-04
 715  9.69086976   0.706  -1.85005   3.53409   6.89308   1.87655   0.00000   9.985E-01   0.000E+00   1.109E-03
 716  9.69219289   0.706  -1.85015   3.53409   6.89312   1.87667   0.00000   9.978E-01   0.000E+00   1.844E-03
 717  9.69351200   0.706  -1.85025   3.53409   6.89316   1.87679   0.00000   9.970E-01   0.000E+00   2.579E-03
 718  9.69482711   0.706  -1.85019   3.53409   6.89313   1.87670   0.00000   9.974E-01   0.000E+00   2.284E-03
 719  9.69613826   0.706  -1.85012   3.53409   6.89311   1.87660   0.00000   9.977E-01   0.000E+00   1.959E-03
 720  9.69744545   0.706  -1.85006   3.53409   6.89308   1.87651   0.00000   9.981E-01   0.000E+00   1.634E-03
 721  9.69874873   0.706  -1.84999   3.53409   6.89305   1.87641   0.00000   9.985E-01   0.000E+00   1.309E-03
 722  9.70004810   0.706  -1.84993   3.53409   6.89303   1.87632   0.00000   9.989E-01   0.000E+00   9.844E-04
 723  9.70134360   0.706  -1.84986   3.53409   6.89300   1.87622   0.00000   9.992E-01   0.000E+00   6.594E-04
 724  9.70263525   0.706  -1.84980   3.53410   6.89297   1.87613   0.00000   9.996E-01   0.000E+00   3.345E-04
 725  9.70392307   0.706  -1.84973   3.53410   6.89295   1.87603   0.00000   1.000E+00   0.000E+00   9.562E-06
 726  9.70520708   0.706  -1.84967   3.53410   6.89292   1.87594   0.00000   1.000E+00   0.000E+00  -3.154E-04
 727  9.70648730   0.706  -1.84960   3.53410   6.89289   1.87584   0.00000   1.001E+00   0.000E+00  -6.403E-04
 728  9.70776376   0.706  -1.84954   3.53410   6.89286   1.87575   0.00000   1.001E+00   0.000E+00  -9.653E-04
 729  9.70903648   0.706  -1.84947   3.53410   6.89284   1.87565   0.00000   1.001E+00   0.000E+00  -1.290E-03
 730  9.71030548   0.706  -1.84941   3.53410   6.89281   1.87556   0.00000   1.002E+00   0.000E+00  -1.615E-03
 731  9.71157079   0.706  -1.84933   3.53410   6.89278   1.87545   0.00000   1.002E+00   0.000E+00  -1.757E-03
 732  9.71283242   0.706  -1.84925   3.53410   6.89275   1.87533   0.00000   1.002E+00   0.000E+00  -1.784E-03
 733  9.71409039   0.706  -1.84917   3.53410   6.89271   1.87522   0.00000   1.002E+00   0.000E+00  -1.811E-03
 734  9.71534473   0.706  -1.84910   3.53410   6.89268   1.87510   0.00000   1.002E+00   0.000E+00  -1.837E-03
 735  9.71659546   0.706  -1.84902   3.53410   6.89265   1.87499   0.00000   1.002E+00   0.000E+00  -1.864E-03
 736  9.71784260   0.706  -1.84894   3.53410   6.89261   1.87487   0.00000   1.002E+00   0.000E+00  -1.891E-03
 737  9.71908616   0.706  -1.84886   3.53410   6.89258   1.87476   0.00000   1.002E+00   0.000E+00  -1.918E-03
 738  9.72032618   0.706  -1.84878   3.53410   6.89255   1.87464   0.00000   1.002E+00   0.000E+00  -1.945E-03
 739  9.72156266   0.706  -1.84870   3.53410   6.89252   1.87453   0.00000   1.002E+00   0.000E+00  -1.972E-03
 740  9.72279564   0.706  -1.84862   3.53410   6.89248   1.87441   0.00000   1.002E+00   0.000E+00  -1.999E-03
 741  9.72402512   0.706  -1.84855   3.53410   6.89245   1.87430   0.00000   1.002E+00   0.000E+00  -2.026E-03
 742  9.72525113   0.706  -1.84847   3.53410   6.89242   1.87418   0.00000   1.002E+00   0.000E+00  -2.053E-03
 743  9.72647369   0.706  -1.84839   3.53410   6.89238   1.87407   0.00000   1.002E+00   0.000E+00  -2.080E-03
 744  9.72769282   0.706  -1.84831   3.53410   6.89235   1.87395   0.00000   1.002E+00   0.000E+00  -2.099E-03
 745  9.72890854   0.706  -1.84823   3.53410   6.89232   1.87384   0.00000   1.002E+00   0.000E+00  -2.093E-03
 746  9.73012086   0.706  -1.84816   3.53410   6.89229   1.87373   0.00000   1.002E+00   0.000E+00  -2.088E-03
 747  9.73132981   0.706  -1.84808   3.53410   6.89226   1.87361   0.00000   1.002E+00   0.000E+00  -2.083E-03
 748  9.73253541   0.706  -1.84800   3.53410   6.89223   1.87350   0.00000   1.002E+00   0.000E+00  -2.078E-03
 749  9.73373766   0.706  -1.84793   3.53410   6.89219   1.87339   0.00000   1.002E+00   0.000E+00  -2.072E-03
 750  9.73493660   0.706  -1.84785   3.53410   6.89216   1.87328   0.00000   1.002E+00   0.000E+00  -2.067E-03
 751  9.73613223   0.706  -1.84778   3.53411   6.89213   1.87316   0.00000   1.002E+00   0.000E+00  -2.062E-03
 752  9.73732459   0.706  -1.84770   3.53411   6.89210   1.87305   0.00000   1.002E+00   0.000E+00  -2.057E-03
 753  9.73851367   0.706  -1.84762   3.53411   6.89207   1.87294   0.00000   1.002E+00   0.000E+00  -2.051E-03
 754  9.73969951   0.706  -1.84755   3.53411   6.89204   1.87283   0.00000   1.002E+00   0.000E+00  -2.046E-03
 755  9.74088213   0.706  -1.84747   3.53411   6.89201   1.87272   0.00000   1.002E+00   0.000E+00  -2.041E-03
 756  9.74206153   0.706  -1.84739   3.53411   6.89197   1.87260   0.00000   1.002E+00   0.000E+00  -2.036E-03
 757  9.74323773   0.706  -1.84732   3.53411   6.89194   1.87249   0.00000   1.002E+00   0.000E+00  -2.031E-03
 758  9.74441076   0.706  -1.84724   3.53411   6.89191   1.87238   0.00000   1.002E+00   0.000E+00  -2.023E-03
 759  9.74558063   0.706  -1.84717   3.53411   6.89188   1.87228   0.00000   1.002E+00   0.000E+00  -2.016E-03
 760  9.74674736   0.706  -1.84710   3.53411   6.89185   1.87217   0.00000   1.002E+00   0.000E+00  -2.008E-03
 761  9.74791096   0.706  -1.84702   3.53411   6.89182   1.87206   0.00000   1.002E+00   0.000E+00  -2.001E-03
 762  9.74907145   0.706  -1.84695   3.53411   6.89179   1.87195   0.00000   1.002E+00   0.000E+00  -1.993E-03
 763  9.75022885   0.706  -1.84688   3.53411   6.89176   1.87185   0.00000   1.002E+00   0.000E+00  -1.986E-03
 764  9.75138317   0.706  -1.84680   3.53411   6.89173   1.87174   0.00000   1.002E+00   0.000E+00  -1.978E-03
 765  9.75253444   0.706  -1.84673   3.53411   6.89170   1.87163   0.00000   1.002E+00   0.000E+00  -1.971E-03
 766  9.75368265   0.706  -1.84666   3.53411   6.89167   1.87153   0.00000   1.002E+00   0.000E+00  -1.963E-03
 767  9.75482785   0.706  -1.84658   3.53411   6.89164   1.87142   0.00000   1.002E+00   0.000E+00  -1.956E-03
 768  9.75597002   0.706  -1.84651   3.53411   6.89161   1.87131   0.00000   1.002E+00   0.000E+00  -1.948E-03
 769  9.75710921   0.706  -1.84644   3.53411   6.89157   1.87121   0.00000   1.002E+00   0.000E+00  -1.941E-03
 770  9.75824541   0.706  -1.84636   3.53411   6.89154   1.87110   0.00000   1.002E+00   0.000E+00  -1.933E-03
 771  9.75937865   0.706  -1.84629   3.53411   6.89151   1.87099   0.00000   1.002E+00   0.000E+00  -1.926E-03
 772  9.76050894   0.706  -1.84622   3.53411   6.89149   1.87089   0.00000   1.002E+00   0.000E+00  -1.918E-03
 773  9.76163629   0.706  -1.84615   3.53411   6.89146   1.87079   0.00000   1.002E+00   0.000E+00  -1.911E-03
 774  9.76276073   0.706  -1.84609   3.53411   6.89143   1.87069   0.00000   1.002E+00   0.000E+00  -1.903E-03
 775  9.76388226   0.706  -1.84602   3.53411   6.89140   1.87059   0.00000   1.002E+00   0.000E+00  -1.896E-03
 776  9.76500090   0.706  -1.84595   3.53411   6.89137   1.87049   0.00000   1.002E+00   0.000E+00  -1.888E-03
 777  9.76611667   0.706  -1.84588   3.53411   6.89134   1.87038   0.00000   1.002E+00   0.000E+00  -1.881E-03
 778  9.76722958   0.706  -1.84581   3.53412   6.89132   1.87028   0.00000   1.002E+00   0.000E+00  -1.873E-03
 779  9.76833965   0.705  -1.84574   3.53412   6.89129   1.87018   0.00000   1.002E+00   0.000E+00  -1.866E-03
 780  9.76944688   0.705  -1.84567   3.53412   6.89126   1.87008   0.00000   1.002E+00   0.000E+00  -1.859E-03
 781  9.77055130   0.705  -1.84560   3.53412   6.89123   1.86998   0.00000   1.002E+00   0.000E+00  -1.851E-03
 782  9.77165292   0.705  -1.84553   3.53412   6.89120   1.86987   0.00000   1.002E+00   0.000E+00  -1.844E-03
 783  9.77275175   0.705  -1.84547   3.53412   6.89117   1.86977   0.00000   1.002E+00   0.000E+00  -1.836E-03
 784  9.77384781   0.705  -1.84540   3.53412   6.89114   1.86967   0.00000   1.002E+00   0.000E+00  -1.829E-03
 785  9.77494111   0.705  -1.84533   3.53412   6.89112   1.86957   0.00000   1.002E+00   0.000E+00  -1.821E-03
 786  9.77603166   0.705  -1.84527   3.53412   6.89109   1.86948   0.00000   1.002E+00   0.000E+00  -1.814E-03
 787  9.77711948   0.705  -1.84520   3.53412   6.89106   1.86938   0.00000   1.002E+00   0.000E+00  -1.806E-03
 788  9.77820459   0.705  -1.84513   3.53412   6.89103   1.86929   0.00000   1.002E+00   0.000E+00  -1.799E-03
 789  9.77928699   0.705  -1.84507   3.53412   6.89101   1.86919   0.00000   1.002E+00   0.000E+00  -1.791E-03
 790  9.78036669   0.705  -1.84500   3.53412   6.89098   1.86909   0.00000   1.002E+00   0.000E+00  -1.784E-03
 791  9.78144372   0.705  -1.84494   3.53412   6.89095   1.86900   0.00000   1.002E+00   0.000E+00  -1.776E-03
 792  9.78251809   0.705  -1.84487   3.53412   6.89092   1.86890   0.00000   1.002E+00   0.000E+00  -1.769E-03
 793  9.78358980   0.705  -1.84480   3.53412   6.89090   1.86880   0.00000   1.002E+00   0.000E+00  -1.761E-03
 794  9.78465888   0.705  -1.84474   3.53412   6.89087   1.86871   0.00000   1.002E+00   0.000E+00  -1.754E-03
 795  9.78572533   0.705  -1.84467   3.53412   6.89084   1.86861   0.00000   1.002E+00   0.000E+00  -1.746E-03
 796  9.78678917   0.705  -1.84461   3.53412   6.89081   1.86851   0.00000   1.002E+00   0.000E+00  -1.739E-03
 797  9.78785041   0.705  -1.84454   3.53412   6.89078   1.86842   0.00000   1.002E+00   0.000E+00  -1.731E-03
 798  9.78890906   0.705  -1.84448   3.53412   6.89076   1.86832   0.00000   1.002E+00   0.000E+00  -1.725E-03
 799  9.78996514   0.705  -1.84441   3.53412   6.89073   1.86823   0.00000   1.002E+00   0.000E+00  -1.719E-03
 800  9.79101866   0.705  -1.84435   3.53412   6.89071   1.86814   0.00000   1.002E+00   0.000E+00  -1.713E-03
 801  9.79206963   0.705  -1.84429   3.53412   6.89068   1.86805   0.00000   1.002E+00   0.000E+00  -1.707E-03
 802  9.79311806   0.705  -1.84423   3.53412   6.89066   1.86796   0.00000   1.002E+00   0.000E+00  -1.701E-03
 803  9.79416396   0.705  -1.84416   3.53412   6.89063   1.86787   0.00000   1.002E+00   0.000E+00  -1.695E-03
 804  9.79520735   0.705  -1.84410   3.53412   6.89061   1.86778   0.00000   1.002E+00   0.000E+00  -1.689E-03
 805  9.79624824   0.705  -1.84404   3.53412   6.89058   1.86768   0.00000   1.002E+00   0.000E+00  -1.683E-03
 806  9.79728665   0.705  -1.84397   3.53412   6.89056   1.86759   0.00000   1.002E+00   0.000E+00  -1.677E-03
 807  9.79832257   0.705  -1.84391   3.53412   6.89053   1.86750   0.00000   1.002E+00   0.000E+00  -1.671E-03
 808  9.79935603   0.705  -1.84385   3.53412   6.89050   1.86741   0.00000   1.002E+00   0.000E+00  -1.665E-03
 809  9.80038704   0.705  -1.84379   3.53412   6.89048   1.86732   0.00000   1.002E+00   0.000E+00  -1.659E-03
 810  9.80141560   0.705  -1.84372   3.53412   6.89045   1.86723   0.00000   1.002E+00   0.000E+00  -1.653E-03
 811  9.80244174   0.705  -1.84366   3.53412   6.89043   1.86714   0.00000   1.002E+00   0.000E+00  -1.647E-03
 812  9.80346546   0.705  -1.84360   3.53412   6.89040   1.86705   0.00000   1.002E+00   0.000E+00  -1.640E-03
 813  9.80448676   0.705  -1.84354   3.53412   6.89038   1.86696   0.00000   1.002E+00   0.000E+00  -1.633E-03
 814  9.80550568   0.705  -1.84348   3.53412   6.89035   1.86688   0.00000   1.002E+00   0.000E+00  -1.627E-03
 815  9.80652221   0.705  -1.84342   3.53412   6.89033   1.86679   0.00000   1.002E+00   0.000E+00  -1.620E-03
 816  9.80753636   0.705  -1.84336   3.53412   6.89030   1.86670   0.00000   1.002E+00   0.000E+00  -1.613E-03
 817  9.80854815   0.705  -1.84330   3.53412   6.89028   1.86661   0.00000   1.002E+00   0.000E+00  -1.606E-03
 818  9.80955759   0.705  -1.84324   3.53413   6.89026   1.86652   0.00000   1.002E+00   0.000E+00  -1.600E-03
 819  9.81056469   0.705  -1.84318   3.53413   6.89023   1.86644   0.00000   1.002E+00   0.000E+00  -1.593E-03
 820  9.81156946   0.705  -1.84312   3.53413   6.89021   1.86635   0.00000   1.002E+00   0.000E+00  -1.586E-03
 821  9.81257191   0.705  -1.84306   3.53413   6.89018   1.86626   0.00000   1.002E+00   0.000E+00  -1.579E-03
 822  9.81357205   0.705  -1.84300   3.53413   6.89016   1.86617   0.00000   1.002E+00   0.000E+00  -1.573E-03
 823  9.81456989   0.705  -1.84294   3.53413   6.89013   1.86609   0.00000   1.002E+00   0.000E+00  -1.566E-03
 824  9.81556545   0.705  -1.84288   3.53413   6.89011   1.86600   0.00000   1.002E+00   0.000E+00  -1.559E-03
 825  9.81655873   0.705  -1.84283   3.53413   6.89008   1.86592   0.00000   1.002E+00   0.000E+00  -1.554E-03
 826  9.81754974   0.705  -1.84277   3.53413   6.89006   1.86583   0.00000   1.002E+00   0.000E+00  -1.549E-03
 827  9.81853849   0.705  -1.84271   3.53413   6.89004   1.86575   0.00000   1.002E+00   0.000E+00  -1.544E-03
 828  9.81952500   0.705  -1.84265   3.53413   6.89001   1.86566   0.00000   1.002E+00   0.000E+00  -1.538E-03
 829  9.82050928   0.705  -1.84259   3.53413   6.88999   1.86558   0.00000   1.002E+00   0.000E+00  -1.533E-03
 830  9.82149133   0.705  -1.84254   3.53413   6.88997   1.86550   0.00000   1.002E+00   0.000E+00  -1.528E-03
 831  9.82247116   0.705  -1.84248   3.53413   6.88994   1.86541   0.00000   1.001E+00   0.000E+00  -1.523E-03
 832  9.82344879   0.705  -1.84242   3.53413   6.88992   1.86533   0.00000   1.001E+00   0.000E+00  -1.517E-03
 833  9.82442422   0.705  -1.84236   3.53413   6.88990   1.86524   0.00000   1.001E+00   0.000E+00  -1.512E-03
 834  9.82539746   0.705  -1.84231   3.53413   6.88988   1.86516   0.00000   1.001E+00   0.000E+00  -1.507E-03
 835  9.82636853   0.705  -1.84225   3.53413   6.88985   1.86508   0.00000   1.001E+00   0.000E+00  -1.502E-03
 836  9.82733744   0.705  -1.84219   3.53413   6.88983   1.86499   0.00000   1.001E+00   0.000E+00  -1.496E-03
 837  9.82830418   0.705  -1.84213   3.53413   6.88981   1.86491   0.00000   1.001E+00   0.000E+00  -1.491E-03
 838  9.82926878   0.705  -1.84208   3.53413   6.88978   1.86483   0.00000   1.001E+00   0.000E+00  -1.486E-03
 839  9.83023124   0.705  -1.84202   3.53413   6.88976   1.86475   0.00000   1.001E+00   0.000E+00  -1.481E-03
 840  9.83119157   0.705  -1.84197   3.53413   6.88974   1.86467   0.00000   1.001E+00   0.000E+00  -1.475E-03
 841  9.83214979   0.705  -1.84191   3.53413   6.88972   1.86459   0.00000   1.001E+00   0.000E+00  -1.470E-03
 842  9.83310589   0.705  -1.84186   3.53413   6.88970   1.86451   0.00000   1.001E+00   0.000E+00  -1.465E-03
 843  9.83405990   0.705  -1.84180   3.53413   6.88967   1.86443   0.00000   1.001E+00   0.000E+00  -1.460E-03
 844  9.83501181   0.705  -1.84175   3.53414   6.88965   1.86435   0.00000   1.001E+00   0.000E+00  -1.455E-03
 845  9.83596164   0.705  -1.84170   3.53414   6.88963   1.86427   0.00000   1.001E+00   0.000E+00  -1.449E-03
 846  9.83690940   0.705  -1.84164   3.53414   6.88961   1.86419   0.00000   1.001E+00   0.000E+00  -1.444E-03
 847  9.83785509   0.705  -1.84159   3.53414   6.88959   1.86411   0.00000   1.001E+00   0.000E+00  -1.439E-03
 848  9.83879873   0.705  -1.84153   3.53414   6.88957   1.86404   0.00000   1.001E+00   0.000E+00  -1.434E-03
 849  9.83974033   0.705  -1.84148   3.53414   6.88954   1.86396   0.00000   1.001E+00   0.000E+00  -1.428E-03
 850  9.84067989   0.705  -1.84142   3.53414   6.88952   1.86388   0.00000   1.001E+00   0.000E+00  -1.423E-03
 851  9.84161741   0.705  -1.84137   3.53414   6.88950   1.86380   0.00000   1.001E+00   0.000E+00  -1.418E-03
 852  9.84255292   0.705  -1.84132   3.53414   6.88948   1.86372   0.00000   1.001E+00   0.000E+00  -1.413E-03
 853  9.84348642   0.705  -1.84126   3.53414   6.88946   1.86365   0.00000   1.001E+00   0.000E+00  -1.407E-03
 854  9.84441792   0.705  -1.84121   3.53414   6.88944   1.86357   0.00000   1.001E+00   0.000E+00  -1.402E-03
 855  9.84534742   0.705  -1.84116   3.53414   6.88942   1.86349   0.00000   1.001E+00   0.000E+00  -1.397E-03
 856  9.84627494   0.705  -1.84111   3.53414   6.88940   1.86342   0.00000   1.001E+00   0.000E+00  -1.392E-03
 857  9.84720048   0.705  -1.84105   3.53414   6.88938   1.86334   0.00000   1.001E+00   0.000E+00  -1.386E-03
 858  9.84812405   0.705  -1.84100   3.53414   6.88935   1.86326   0.00000   1.001E+00   0.000E+00  -1.381E-03
 859  9.84904566   0.705  -1.84095   3.53414   6.88933   1.86319   0.00000   1.001E+00   0.000E+00  -1.376E-03
 860  9.84996532   0.705  -1.84090   3.53414   6.88931   1.86311   0.00000   1.001E+00   0.000E+00  -1.371E-03
 861  9.85088304   0.705  -1.84084   3.53414   6.88929   1.86303   0.00000   1.001E+00   0.000E+00  -1.365E-03
 862  9.85179882   0.705  -1.84079   3.53414   6.88927   1.86296   0.00000   1.001E+00   0.000E+00  -1.360E-03
 863  9.85271268   0.705  -1.84074   3.53414   6.88925   1.86288   0.00000   1.001E+00   0.000E+00  -1.355E-03
 864  9.85362462   0.705  -1.84069   3.53414   6.88923   1.86281   0.00000   1.001E+00   0.000E+00  -1.350E-03
 865  9.85453464   0.705  -1.84064   3.53414   6.88921   1.86273   0.00000   1.001E+00   0.000E+00  -1.345E-03
 866  9.85544276   0.705  -1.84059   3.53414   6.88919   1.86266   0.00000   1.001E+00   0.000E+00  -1.341E-03
 867  9.85634899   0.705  -1.84054   3.53414   6.88917   1.86259   0.00000   1.001E+00   0.000E+00  -1.336E-03
 868  9.85725333   0.705  -1.84049   3.53414   6.88915   1.86252   0.00000   1.001E+00   0.000E+00  -1.332E-03
 869  9.85815579   0.705  -1.84044   3.53414   6.88913   1.86244   0.00000   1.001E+00   0.000E+00  -1.327E-03
 870  9.85905638   0.705  -1.84039   3.53414   6.88911   1.86237   0.00000   1.001E+00   0.000E+00  -1.323E-03
 871  9.85995511   0.705  -1.84034   3.53415   6.88909   1.86230   0.00000   1.001E+00   0.000E+00  -1.318E-03
 872  9.86085198   0.705  -1.84029   3.53415   6.88907   1.86223   0.00000   1.001E+00   0.000E+00  -1.314E-03
 873  9.86174700   0.705  -1.84024   3.53415   6.88905   1.86215   0.00000   1.001E+00   0.000E+00  -1.309E-03
 874  9.86264018   0.705  -1.84019   3.53415   6.88903   1.86208   0.00000   1.001E+00   0.000E+00  -1.305E-03
 875  9.86353153   0.705  -1.84014   3.53415   6.88901   1.86201   0.00000   1.001E+00   0.000E+00  -1.300E-03
 876  9.86442105   0.705  -1.84009   3.53415   6.88899   1.86193   0.00000   1.001E+00   0.000E+00  -1.296E-03
 877  9.86530876   0.705  -1.84004   3.53415   6.88897   1.86186   0.00000   1.001E+00   0.000E+00  -1.291E-03
 878  9.86619465   0.705  -1.83999   3.53415   6.88895   1.86179   0.00000   1.001E+00   0.000E+00  -1.287E-03
 879  9.86707874   0.705  -1.83994   3.53415   6.88893   1.86172   0.00000   1.001E+00   0.000E+00  -1.282E-03
 880  9.86796104   0.705  -1.83989   3.53415   6.88891   1.86165   0.00000   1.001E+00   0.000E+00  -1.278E-03
 881  9.86884154   0.705  -1.83984   3.53415   6.88889   1.86158   0.00000   1.001E+00   0.000E+00  -1.273E-03
 882  9.86972027   0.705  -1.83979   3.53415   6.88887   1.86151   0.00000   1.001E+00   0.000E+00  -1.269E-03
 883  9.87059721   0.705  -1.83974   3.53415   6.88885   1.86144   0.00000   1.001E+00   0.000E+00  -1.264E-03
 884  9.87147240   0.705  -1.83969   3.53415   6.88883   1.86137   0.00000   1.001E+00   0.000E+00  -1.260E-03
 885  9.87234582   0.705  -1.83965   3.53415   6.88882   1.86130   0.00000   1.001E+00   0.000E+00  -1.255E-03
 886  9.87321749   0.705  -1.83960   3.53415   6.88880   1.86123   0.00000   1.001E+00   0.000E+00  -1.251E-03
 887  9.87408741   0.705  -1.83955   3.53415   6.88878   1.86116   0.00000   1.001E+00   0.000E+00  -1.246E-03
 888  9.87495559   0.704  -1.83950   3.53415   6.88876   1.86110   0.00000   1.001E+00   0.000E+00  -1.242E-03
 889  9.87582205   0.704  -1.83945   3.53415   6.88874   1.86103   0.00000   1.001E+00   0.000E+00  -1.237E-03
 890  9.87668677   0.704  -1.83940   3.53415   6.88872   1.86096   0.00000   1.001E+00   0.000E+00  -1.233E-03
 891  9.87754978   0.704  -1.83935   3.53415   6.88870   1.86089   0.00000   1.001E+00   0.000E+00  -1.228E-03
 892  9.87841108   0.704  -1.83931   3.53415   6.88869   1.86082   0.00000   1.001E+00   0.000E+00  -1.224E-03
 893  9.87927067   0.704  -1.83926   3.53415   6.88867   1.86075   0.00000   1.001E+00   0.000E+00  -1.219E-03
 894  9.88012856   0.704  -1.83921   3.53415   6.88865   1.86069   0.00000   1.001E+00   0.000E+00  -1.215E-03
 895  9.88098477   0.704  -1.83917   3.53415   6.88863   1.86062   0.00000   1.001E+00   0.000E+00  -1.210E-03
 896  9.88183928   0.704  -1.83912   3.53415   6.88861   1.86055   0.00000   1.001E+00   0.000E+00  -1.206E-03
 897  9.88269212   0.704  -1.83908   3.53415   6.88860   1.86049   0.00000   1.001E+00   0.000E+00  -1.202E-03
 898  9.88354329   0.704  -1.83903   3.53416   6.88858   1.86042   0.00000   1.001E+00   0.000E+00  -1.197E-03
 899  9.88439280   0.704  -1.83898   3.53416   6.88856   1.86035   0.00000   1.001E+00   0.000E+00  -1.193E-03
 900  9.88524064   0.704  -1.83894   3.53416   6.88854   1.86029   0.00000   1.001E+00   0.000E+00  -1.188E-03
 901  9.88608683   0.704  -1.83889   3.53416   6.88852   1.86022   0.00000   1.001E+00   0.000E+00  -1.184E-03
 902  9.88693138   0.704  -1.83884   3.53416   6.88851   1.86015   0.00000   1.001E+00   0.000E+00  -1.179E-03
 903  9.88777429   0.704  -1.83880   3.53416   6.88849   1.86009   0.00000   1.001E+00   0.000E+00  -1.175E-03
 904  9.88861557   0.704  -1.83875   3.53416   6.88847   1.86002   0.00000   1.001E+00   0.000E+00  -1.170E-03
 905  9.88945522   0.704  -1.83871   3.53416   6.88845   1.85996   0.00000   1.001E+00   0.000E+00  -1.166E-03
 906  9.89029324   0.704  -1.83866   3.53416   6.88844   1.85989   0.00000   1.001E+00   0.000E+00  -1.163E-03
 907  9.89112966   0.704  -1.83862   3.53416   6.88842   1.85983   0.00000   1.001E+00   0.000E+00  -1.159E-03
 908  9.89196447   0.704  -1.83857   3.53416   6.88840   1.85977   0.00000   1.001E+00   0.000E+00  -1.155E-03
 909  9.89279767   0.704  -1.83853   3.53416   6.88838   1.85970   0.00000   1.001E+00   0.000E+00  -1.151E-03
 910  9.89362928   0.704  -1.83849   3.53416   6.88837   1.85964   0.00000   1.001E+00   0.000E+00  -1.148E-03
 911  9.89445930   0.704  -1.83844   3.53416   6.88835   1.85958   0.00000   1.001E+00   0.000E+00  -1.144E-03
 912  9.89528774   0.704  -1.83840   3.53416   6.88833   1.85951   0.00000   1.001E+00   0.000E+00  -1.140E-03
 913  9.89611460   0.704  -1.83835   3.53416   6.88832   1.85945   0.00000   1.001E+00   0.000E+00  -1.136E-03
 914  9.89693989   0.704  -1.83831   3.53416   6.88830   1.85938   0.00000   1.001E+00   0.000E+00  -1.133E-03
 915  9.89776361   0.704  -1.83826   3.53416   6.88828   1.85932   0.00000   1.001E+00   0.000E+00  -1.129E-03
 916  9.89858578   0.704  -1.83822   3.53416   6.88826   1.85926   0.00000   1.001E+00   0.000E+00  -1.125E-03
 917  9.89940639   0.704  -1.83818   3.53416   6.88825   1.85919   0.00000   1.001E+00   0.000E+00  -1.121E-03
 918  9.90022545   0.704  -1.83813   3.53416   6.88823   1.85913   0.00000   1.001E+00   0.000E+00  -1.118E-03
 919  9.90104297   0.704  -1.83809   3.53416   6.88821   1.85907   0.00000   1.001E+00   0.000E+00  -1.114E-03
 920  9.90185896   0.704  -1.83805   3.53416   6.88820   1.85901   0.00000   1.001E+00   0.000E+00  -1.110E-03
 921  9.90267341   0.704  -1.83801   3.53416   6.88818   1.85895   0.00000   1.001E+00   0.000E+00  -1.106E-03
 922  9.90348634   0.704  -1.83796   3.53416   6.88816   1.85889   0.00000   1.001E+00   0.000E+00  -1.103E-03
 923  9.90429775   0.704  -1.83792   3.53416   6.88815   1.85883   0.00000   1.001E+00   0.000E+00  -1.099E-03
 924  9.90510765   0.704  -1.83788   3.53416   6.88813   1.85877   0.00000   1.001E+00   0.000E+00  -1.095E-03
 925  9.90591604   0.704  -1.83783   3.53417   6.88811   1.85871   0.00000   1.001E+00   0.000E+00  -1.091E-03
 926  9.90672293   0.704  -1.83779   3.53417   6.88810   1.85865   0.00000   1.001E+00   0.000E+00  -1.088E-03
 927  9.90752833   0.704  -1.83775   3.53417   6.88808   1.85859   0.00000   1.001E+00   0.000E+00  -1.084E-03
 928  9.90833223   0.704  -1.83771   3.53417   6.88806   1.85853   0.00000   1.001E+00   0.000E+00  -1.080E-03
 929  9.90913464   0.704  -1.83766   3.53417   6.88805   1.85846   0.00000   1.001E+00   0.000E+00  -1.076E-03
 930  9.90993558   0.704  -1.83762   3.53417   6.88803   1.85840   0.00000   1.001E+00   0.000E+00  -1.073E-03
 931  9.91073504   0.704  -1.83758   3.53417   6.88802   1.85834   0.00000   1.001E+00   0.000E+00  -1.069E-03
 932  9.91153304   0.704  -1.83754   3.53417   6.88800   1.85829   0.00000   1.001E+00   0.000E+00  -1.066E-03
 933  9.91232956   0.704  -1.83750   3.53417   6.88798   1.85823   0.00000   1.001E+00   0.000E+00  -1.063E-03
 934  9.91312464   0.704  -1.83746   3.53417   6.88797   1.85817   0.00000   1.001E+00   0.000E+00  -1.060E-03
 935  9.91391825   0.704  -1.83742   3.53417   6.88795   1.85811   0.00000   1.001E+00   0.000E+00  -1.057E-03
 936  9.91471043   0.704  -1.83738   3.53417   6.88794   1.85805   0.00000   1.001E+00   0.000E+00  -1.054E-03
 937  9.91550115   0.704  -1.83734   3.53417   6.88792   1.85799   0.00000   1.001E+00   0.000E+00  -1.051E-03
 938  9.91629045   0.704  -1.83730   3.53417   6.88791   1.85794   0.00000   1.001E+00   0.000E+00  -1.048E-03
 939  9.91707831   0.704  -1.83726   3.53417   6.88789   1.85788   0.00000   1.001E+00   0.000E+00  -1.045E-03
 940  9.91786474   0.704  -1.83722   3.53417   6.88787   1.85782   0.00000   1.001E+00   0.000E+00  -1.042E-03
 941  9.91864975   0.704  -1.83717   3.53417   6.88786   1.85776   0.00000   1.001E+00   0.000E+00  -1.039E-03
 942  9.91943335   0.704  -1.83713   3.53417   6.88784   1.85770   0.00000   1.001E+00   0.000E+00  -1.036E-03
 943  9.92021553   0.704  -1.83709   3.53417   6.88783   1.85764   0.00000   1.001E+00   0.000E+00  -1.033E-03
 944  9.92099631   0.704  -1.83705   3.53417   6.88781   1.85758   0.00000   1.001E+00   0.000E+00  -1.030E-03
 945  9.92177568   0.704  -1.83701   3.53417   6.88780   1.85753   0.00000   1.001E+00   0.000E+00  -1.027E-03
 946  9.92255366   0.704  -1.83697   3.53417   6.88778   1.85747   0.00000   1.001E+00   0.000E+00  -1.023E-03
 947  9.92333025   0.704  -1.83693   3.53417   6.88777   1.85742   0.00000   1.001E+00   0.000E+00  -1.020E-03
 948  9.92410546   0.704  -1.83689   3.53417   6.88775   1.85736   0.00000   1.001E+00   0.000E+00  -1.016E-03
 949  9.92487928   0.704  -1.83685   3.53417   6.88774   1.85730   0.00000   1.001E+00   0.000E+00  -1.013E-03
 950  9.92565172   0.704  -1.83682   3.53417   6.88773   1.85725   0.00000   1.001E+00   0.000E+00  -1.009E-03
 951  9.92642280   0.704  -1.83678   3.53418   6.88771   1.85719   0.00000   1.001E+00   0.000E+00  -1.006E-03
 952  9.92719250   0.704  -1.83674   3.53418   6.88770   1.85714   0.00000   1.001E+00   0.000E+00  -1.002E-03
 953  9.92796085   0.704  -1.83670   3.53418   6.88768   1.85708   0.00000   1.001E+00   0.000E+00  -9.986E-04
 954  9.92872784   0.704  -1.83666   3.53418   6.88767   1.85702   0.00000   1.001E+00   0.000E+00  -9.951E-04
 955  9.92949347   0.704  -1.83662   3.53418   6.88765   1.85697   0.00000   1.001E+00   0.000E+00  -9.916E-04
 956  9.93025776   0.704  -1.83658   3.53418   6.88764   1.85691   0.00000   1.001E+00   0.000E+00  -9.881E-04
 957  9.93102071   0.704  -1.83654   3.53418   6.88763   1.85685   0.00000   1.001E+00   0.000E+00  -9.845E-04
 958  9.93178232   0.704  -1.83650   3.53418   6.88761   1.85680   0.00000   1.001E+00   0.000E+00  -9.813E-04
 959  9.93254259   0.704  -1.83646   3.53418   6.88760   1.85675   0.00000   1.001E+00   0.000E+00  -9.782E-04
 960  9.93330154   0.704  -1.83642   3.53418   6.88758   1.85669   0.00000   1.001E+00   0.000E+00  -9.751E-04
 961  9.93405916   0.704  -1.83639   3.53418   6.88757   1.85664   0.00000   1.001E+00   0.000E+00  -9.721E-04
 962  9.93481546   0.704  -1.83635   3.53418   6.88756   1.85658   0.00000   1.001E+00   0.000E+00  -9.690E-04
 963  9.93557045   0.704  -1.83631   3.53418   6.88754   1.85653   0.00000   1.001E+00   0.000E+00  -9.659E-04
 964  9.93632413   0.704  -1.83627   3.53418   6.88753   1.85648   0.00000   1.001E+00   0.000E+00  -9.629E-04
 965  9.93707650   0.704  -1.83624   3.53418   6.88751   1.85642   0.00000   1.001E+00   0.000E+00  -9.598E-04
 966  9.93782758   0.704  -1.83620   3.53418   6.88750   1.85637   0.00000   1.001E+00   0.000E+00  -9.567E-04
 967  9.93857735   0.704  -1.83616   3.53418   6.88748   1.85631   0.00000   1.001E+00   0.000E+00  -9.536E-04
 968  9.93932583   0.704  -1.83612   3.53418   6.88747   1.85626   0.00000   1.001E+00   0.000E+00  -9.506E-04
 969  9.94007303   0.704  -1.83609   3.53418   6.88746   1.85621   0.00000   1.001E+00   0.000E+00  -9.475E-04
 970  9.94081894   0.704  -1.83605   3.53418   6.88744   1.85615   0.00000   1.001E+00   0.000E+00  -9.444E-04
 971  9.94156357   0.704  -1.83601   3.53418   6.88743   1.85610   0.00000   1.001E+00   0.000E+00  -9.414E-04
 972  9.94230693   0.704  -1.83598   3.53418   6.88741   1.85605   0.00000   1.001E+00   0.000E+00  -9.386E-04
 973  9.94304902   0.704  -1.83594   3.53418   6.88740   1.85600   0.00000   1.001E+00   0.000E+00  -9.357E-04
 974  9.94378984   0.704  -1.83590   3.53418   6.88739   1.85594   0.00000   1.001E+00   0.000E+00  -9.329E-04
 975  9.94452940   0.704  -1.83587   3.53418   6.88737   1.85589   0.00000   1.001E+00   0.000E+00  -9.300E-04
 976  9.94526770   0.704  -1.83583   3.53418   6.88736   1.85584   0.00000   1.001E+00   0.000E+00  -9.272E-04
 977  9.94600475   0.704  -1.83579   3.53418   6.88735   1.85579   0.00000   1.001E+00   0.000E+00  -9.243E-04
 978  9.94674055   0.704  -1.83576   3.53419   6.88733   1.85574   0.00000   1.001E+00   0.000E+00  -9.215E-04
 979  9.94747511   0.704  -1.83572   3.53419   6.88732   1.85569   0.00000   1.001E+00   0.000E+00  -9.187E-04
 980  9.94820843   0.704  -1.83568   3.53419   6.88731   1.85563   0.00000   1.001E+00   0.000E+00  -9.158E-04
 981  9.94894051   0.704  -1.83565   3.53419   6.88729   1.85558   0.00000   1.001E+00   0.000E+00  -9.130E-04
 982  9.94967136   0.704  -1.83561   3.53419   6.88728   1.85553   0.00000   1.001E+00   0.000E+00  -9.101E-04
 983  9.95040098   0.704  -1.83557   3.53419   6.88727   1.85548   0.00000   1.001E+00   0.000E+00  -9.073E-04
 984  9.95112937   0.704  -1.83554   3.53419   6.88725   1.85543   0.00000   1.001E+00   0.000E+00  -9.044E-04
 985  9.95185655   0.704  -1.83550   3.53419   6.88724   1.85538   0.00000   1.001E+00   0.000E+00  -9.016E-04
 986  9.95258251   0.704  -1.83546   3.53419   6.88723   1.85533   0.00000   1.001E+00   0.000E+00  -8.989E-04
 987  9.95330726   0.704  -1.83543   3.53419   6.88721   1.85528   0.00000   1.001E+00   0.000E+00  -8.961E-04
 988  9.95403081   0.704  -1.83539   3.53419   6.88720   1.85523   0.00000   1.001E+00   0.000E+00  -8.933E-04
 989  9.95475315   0.704  -1.83536   3.53419   6.88718   1.85518   0.00000   1.001E+00   0.000E+00  -8.906E-04
 990  9.95547429   0.704  -1.83532   3.53419   6.88717   1.85513   0.00000   1.001E+00   0.000E+00  -8.878E-04
 991  9.95619423   0.704  -1.83529   3.53419   6.88716   1.85508   0.00000   1.001E+00   0.000E+00  -8.850E-04
 992  9.95691298   0.704  -1.83525   3.53419   6.88714   1.85503   0.00000   1.001E+00   0.000E+00  -8.823E-04
 993  9.95763055   0.704  -1.83522   3.53419   6.88713   1.85498   0.00000   1.001E+00   0.000E+00  -8.795E-04
 994  9.95834693   0.704  -1.83518   3.53419   6.88712   1.85493   0.00000   1.001E+00   0.000E+00  -8.767E-04
 995  9.95906213   0.704  -1.83515   3.53419   6.88710   1.85488   0.00000   1.001E+00   0.000E+00  -8.739E-04
 996  9.95977616   0.704  -1.83511   3.53419   6.88709   1.85483   0.00000   1.001E+00   0.000E+00  -8.712E-04
 997  9.96048901   0.704  -1.83508   3.53419   6.88708   1.85479   0.00000   1.001E+00   0.000E+00  -8.684E-04
 998  9.96120070   0.704  -1.83504   3.53419   6.88706   1.85474   0.00000   1.001E+00   0.000E+00  -8.657E-04
 999  9.96191122   0.704  -1.83501   3.53419   6.88705   1.85469   0.00000   1.001E+00   0.000E+00  -8.632E-04
1000  9.96262058   0.704  -1.83498   3.53419   6.88704   1.85464   0.00000   1.001E+00   0.000E+00  -8.607E-04
1001  9.96332878   0.704  -1.83494   3.53419   6.88703   1.85459   0.00000   1.001E+00   0.000E+00  -8.581E-04
1002  9.96403584   0.704  -1.83491   3.53419   6.88702   1.85454   0.00000   1.001E+00   0.000E+00  -8.556E-04
1003  9.96474174   0.704  -1.83487   3.53419   6.88700   1.85450   0.00000   1.001E+00   0.000E+00  -8.530E-04
1004  9.96544649   0.704  -1.83484   3.53419   6.88699   1.85445   0.00000   1.001E+00   0.000E+00  -8.505E-04
1005  9.96615011   0.703  -1.83481   3.53420   6.88698   1.85440   0.00000   1.001E+00   0.000E+00  -8.479E-04
1006  9.96685259   0.703  -1.83477   3.53420   6.88697   1.85435   0.00000   1.001E+00   0.000E+00  -8.454E-04
1007  9.96755393   0.703  -1.83474   3.53420   6.88696   1.85431   0.00000   1.001E+00   0.000E+00  -8.428E-04
1008  9.96825414   0.703  -1.83471   3.53420   6.88694   1.85426   0.00000   1.001E+00   0.000E+00  -8.403E-04
1009  9.96895322   0.703  -1.83467   3.53420   6.88693   1.85421   0.00000   1.001E+00   0.000E+00  -8.377E-04
1010  9.96965119   0.703  -1.83464   3.53420   6.88692   1.85416   0.00000   1.001E+00   0.000E+00  -8.352E-04
1011  9.97034803   0.703  -1.83461   3.53420   6.88691   1.85411   0.00000   1.001E+00   0.000E+00  -8.327E-04
1012  9.97104375   0.703  -1.83457   3.53420   6.88690   1.85407   0.00000   1.001E+00   0.000E+00  -8.302E-04
1013  9.97173836   0.703  -1.83454   3.53420   6.88688   1.85402   0.00000   1.001E+00   0.000E+00  -8.277E-04
1014  9.97243187   0.703  -1.83451   3.53420   6.88687   1.85398   0.00000   1.001E+00   0.000E+00  -8.252E-04
1015  9.97312426   0.703  -1.83448   3.53420   6.88686   1.85393   0.00000   1.001E+00   0.000E+00  -8.228E-04
1016  9.97381556   0.703  -1.83444   3.53420   6.88685   1.85389   0.00000   1.001E+00   0.000E+00  -8.203E-04
1017  9.97450575   0.703  -1.83441   3.53420   6.88684   1.85384   0.00000   1.001E+00   0.000E+00  -8.178E-04
1018  9.97519485   0.703  -1.83438   3.53420   6.88682   1.85379   0.00000   1.001E+00   0.000E+00  -8.154E-04
1019  9.97588286   0.703  -1.83435   3.53420   6.88681   1.85375   0.00000   1.001E+00   0.000E+00  -8.129E-04
1020  9.97656979   0.703  -1.83432   3.53420   6.88680   1.85370   0.00000   1.001E+00   0.000E+00  -8.104E-04
1021  9.97725562   0.703  -1.83428   3.53420   6.88679   1.85366   0.00000   1.001E+00   0.000E+00  -8.080E-04
1022  9.97794038   0.703  -1.83425   3.53420   6.88678   1.85361   0.00000   1.001E+00   0.000E+00  -8.055E-04
1023  9.97862405   0.703  -1.83422   3.53420   6.88676   1.85357   0.00000   1.001E+00   0.000E+00  -8.030E-04
1024  9.97930666   0.703  -1.83419   3.53420   6.88675   1.85352   0.00000   1.001E+00   0.000E+00  -8.005E-04
1025  9.97998819   0.703  -1.83416   3.53420   6.88674   1.85348   0.00000   1.001E+00   0.000E+00  -7.981E-04
1026  9.98066865   0.703  -1.83412   3.53420   6.88673   1.85343   0.00000   1.001E+00   0.000E+00  -7.957E-04
1027  9.98134805   0.703  -1.83409   3.53420   6.88672   1.85339   0.00000   1.001E+00   0.000E+00  -7.933E-04
1028  9.98202639   0.703  -1.83406   3.53420   6.88671   1.85334   0.00000   1.001E+00   0.000E+00  -7.909E-04
1029  9.98270367   0.703  -1.83403   3.53420   6.88670   1.85330   0.00000   1.001E+00   0.000E+00  -7.885E-04
1030  9.98337989   0.703  -1.83400   3.53420   6.88669   1.85325   0.00000   1.001E+00   0.000E+00  -7.862E-04
1031  9.98405507   0.703  -1.83397   3.53421   6.88667   1.85321   0.00000   1.001E+00   0.000E+00  -7.838E-04
1032  9.98472919   0.703  -1.83394   3.53421   6.88666   1.85317   0.00000   1.001E+00   0.000E+00  -7.814E-04
1033  9.98540227   0.703  -1.83390   3.53421   6.88665   1.85312   0.00000   1.001E+00   0.000E+00  -7.790E-04
1034  9.98607431   0.703  -1.83387   3.53421   6.88664   1.85308   0.00000   1.001E+00   0.000E+00  -7.766E-04
1035  9.98674532   0.703  -1.83384   3.53421   6.88663   1.85303   0.00000   1.001E+00   0.000E+00  -7.742E-04
1036  9.98741528   0.703  -1.83381   3.53421   6.88662   1.85299   0.00000   1.001E+00   0.000E+00  -7.718E-04
1037  9.98808422   0.703  -1.83378   3.53421   6.88661   1.85295   0.00000   1.001E+00   0.000E+00  -7.694E-04
1038  9.98875212   0.703  -1.83375   3.53421   6.88660   1.85290   0.00000   1.001E+00   0.000E+00  -7.670E-04
1039  9.98941900   0.703  -1.83372   3.53421   6.88659   1.85286   0.00000   1.001E+00   0.000E+00  -7.648E-04
1040  9.99008486   0.703  -1.83369   3.53421   6.88657   1.85282   0.00000   1.001E+00   0.000E+00  -7.626E-04
1041  9.99074970   0.703  -1.83366   3.53421   6.88656   1.85277   0.00000   1.001E+00   0.000E+00  -7.603E-04
1042  9.99141352   0.703  -1.83363   3.53421   6.88655   1.85273   0.00000   1.001E+00   0.000E+00  -7.581E-04
1043  9.99207633   0.703  -1.83360   3.53421   6.88654   1.85269   0.00000   1.001E+00   0.000E+00  -7.558E-04
1044  9.99273813   0.703  -1.83357   3.53421   6.88653   1.85265   0.00000   1.001E+00   0.000E+00  -7.536E-04
1045  9.99339892   0.703  -1.83354   3.53422   6.88652   1.85260   0.00000   1.001E+00   0.000E+00  -7.513E-04
1046  9.99405871   0.703  -1.83351   3.53422   6.88651   1.85256   0.00000   1.001E+00   0.000E+00  -7.491E-04
1047  9.99471750   0.703  -1.83348   3.53422   6.88650   1.85252   0.00000   1.001E+00   0.000E+00  -7.468E-04
1048  9.99537528   0.703  -1.83345   3.53422   6.88649   1.85248   0.00000   1.001E+00   0.000E+00  -7.446E-04
1049  9.99603208   0.703  -1.83342   3.53422   6.88648   1.85243   0.00000   1.001E+00   0.000E+00  -7.423E-04
1050  9.99668788   0.703  -1.83339   3.53422   6.88647   1.85239   0.00000   1.001E+00   0.000E+00  -7.401E-04
1051  9.99734270   0.703  -1.83336   3.53422   6.88646   1.85235   0.00000   1.001E+00   0.000E+00  -7.379E-04
1052  9.99799652   0.703  -1.83333   3.53422   6.88645   1.85231   0.00000   1.001E+00   0.000E+00  -7.359E-04
1053  9.99864937   0.703  -1.83330   3.53422   6.88644   1.85226   0.00000   1.001E+00   0.000E+00  -7.340E-04
1054  9.99930124   0.703  -1.83327   3.53422   6.88643   1.85222   0.00000   1.001E+00   0.000E+00  -7.320E-04
1055  9.99995212   0.703  -1.83324   3.53422   6.88642   1.85218   0.00000   1.001E+00   0.000E+00  -7.301E-04
1056 10.00060204   0.703  -1.83321   3.53422   6.88641   1.85214   0.00000   1.001E+00   0.000E+00  -7.281E-04
1057 10.00125098   0.703  -1.83318   3.53422   6.88640   1.85210   0.00000   1.001E+00   0.000E+00  -7.262E-04
1058 10.00189896   0.703  -1.83315   3.53422   6.88639   1.85206   0.00000   1.001E+00   0.000E+00  -7.242E-04
1059 10.00254597   0.703  -1.83312   3.53422   6.88638   1.85202   0.00000   1.001E+00   0.000E+00  -7.223E-04
1060 10.00319201   0.703  -1.83310   3.53422   6.88636   1.85198   0.00000   1.001E+00   0.000E+00  -7.203E-04
1061 10.00383710   0.703  -1.83307   3.53422   6.88635   1.85194   0.00000   1.001E+00   0.000E+00  -7.184E-04
1062 10.00448123   0.703  -1.83304   3.53422   6.88634   1.85189   0.00000   1.001E+00   0.000E+00  -7.165E-04
1063 10.00512441   0.703  -1.83301   3.53422   6.88633   1.85185   0.00000   1.001E+00   0.000E+00  -7.145E-04
1064 10.00576663   0.703  -1.83298   3.53422   6.88632   1.85181   0.00000   1.001E+00   0.000E+00  -7.126E-04
1065 10.00640791   0.703  -1.83294   3.53422   6.88631   1.85176   0.00000   1.001E+00   0.000E+00  -7.227E-04
1066 10.00704824   0.703  -1.83291   3.53422   6.88630   1.85171   0.00000   1.001E+00   0.000E+00  -7.376E-04
1067 10.00768763   0.703  -1.83287   3.53422   6.88628   1.85166   0.00000   1.001E+00   0.000E+00  -7.526E-04
1068 10.00832608   0.703  -1.83283   3.53422   6.88627   1.85161   0.00000   1.001E+00   0.000E+00  -7.676E-04
1069 10.00896359   0.703  -1.83279   3.53422   6.88626   1.85155   0.00000   1.001E+00   0.000E+00  -7.826E-04
1070 10.00960017   0.703  -1.83276   3.53422   6.88624   1.85150   0.00000   1.001E+00   0.000E+00  -7.975E-04
1071 10.01023582   0.703  -1.83272   3.53423   6.88623   1.85145   0.00000   1.001E+00   0.000E+00  -8.125E-04
1072 10.01087054   0.703  -1.83268   3.53423   6.88622   1.85140   0.00000   1.001E+00   0.000E+00  -8.275E-04
1073 10.01150433   0.703  -1.83264   3.53423   6.88620   1.85134   0.00000   1.001E+00   0.000E+00  -8.425E-04
1074 10.01213719   0.703  -1.83261   3.53423   6.88619   1.85129   0.00000   1.001E+00   0.000E+00  -8.574E-04
1075 10.01276914   0.703  -1.83257   3.53423   6.88618   1.85124   0.00000   1.001E+00   0.000E+00  -8.724E-04
1076 10.01340017   0.703  -1.83253   3.53423   6.88616   1.85119   0.00000   1.001E+00   0.000E+00  -8.874E-04
1077 10.01403028   0.703  -1.83249   3.53423   6.88615   1.85113   0.00000   1.001E+00   0.000E+00  -9.024E-04
1078 10.01465948   0.703  -1.83246   3.53423   6.88613   1.85108   0.00000   1.001E+00   0.000E+00  -9.117E-04
1079 10.01528777   0.703  -1.83242   3.53423   6.88612   1.85103   0.00000   1.001E+00   0.000E+00  -9.110E-04
1080 10.01591515   0.703  -1.83238   3.53423   6.88611   1.85098   0.00000   1.001E+00   0.000E+00  -9.102E-04
1081 10.01654163   0.703  -1.83235   3.53423   6.88609   1.85092   0.00000   1.001E+00   0.000E+00  -9.095E-04
1082 10.01716720   0.703  -1.83231   3.53423   6.88608   1.85087   0.00000   1.001E+00   0.000E+00  -9.087E-04
1083 10.01779188   0.703  -1.83227   3.53423   6.88606   1.85082   0.00000   1.001E+00   0.000E+00  -9.080E-04
1084 10.01841565   0.703  -1.83224   3.53423   6.88605   1.85077   0.00000   1.001E+00   0.000E+00  -9.072E-04
1085 10.01903853   0.703  -1.83220   3.53423   6.88604   1.85071   0.00000   1.001E+00   0.000E+00  -9.065E-04
1086 10.01966053   0.703  -1.83216   3.53423   6.88602   1.85066   0.00000   1.001E+00   0.000E+00  -9.057E-04
1087 10.02028163   0.703  -1.83213   3.53423   6.88601   1.85061   0.00000   1.001E+00   0.000E+00  -9.050E-04
1088 10.02090184   0.703  -1.83209   3.53423   6.88599   1.85056   0.00000   1.001E+00   0.000E+00  -9.042E-04
1089 10.02152117   0.703  -1.83205   3.53423   6.88598   1.85050   0.00000   1.001E+00   0.000E+00  -9.035E-04
1090 10.02213962   0.703  -1.83202   3.53423   6.88596   1.85045   0.00000   1.001E+00   0.000E+00  -9.027E-04
1091 10.02275719   0.703  -1.83198   3.53423   6.88595   1.85040   0.00000   1.001E+00   0.000E+00  -9.020E-04
