 # M = 0.75 Mo, Y = 0.2700, Z = 2.00000E-02, alpha = 1.68, X_D = 2.0E-05
 # Solar Mixture: Asplund et al. (2005)         
 # ------------------------------------------------------------------------------------------------------------
 # NMD   LOG AGE    Xc      LOG L     LOG TE    LOG Tc   LOG RHOc    M-CC       L-PP       L-CNO       L-GRA
 #        (yr)              (Lo)        (K)       (K)   (gr/cm^3)    (Mo)        (L)         (L)         (L)
 # ------------------------------------------------------------------------------------------------------------
   1  4.97932708   0.710   0.74963   3.61780   6.11472  -1.14197   0.00000   8.740E-01   0.000E+00   1.260E-01
   2  5.06686117   0.710   0.74292   3.61793   6.11822  -1.13147   0.00000   8.799E-01   0.000E+00   1.201E-01
   3  5.13967743   0.710   0.73622   3.61806   6.12172  -1.12097   0.00000   8.858E-01   0.000E+00   1.142E-01
   4  5.20202000   0.710   0.73017   3.61817   6.12486  -1.11152   0.00000   8.897E-01   0.000E+00   1.103E-01
   5  5.25652646   0.710   0.72428   3.61828   6.12792  -1.10234   0.00000   8.931E-01   0.000E+00   1.069E-01
   6  5.30494858   0.710   0.71840   3.61839   6.13098  -1.09316   0.00000   8.965E-01   0.000E+00   1.035E-01
   7  5.34850932   0.710   0.71272   3.61849   6.13393  -1.08429   0.00000   8.965E-01   0.000E+00   1.035E-01
   8  5.38809636   0.710   0.70706   3.61859   6.13686  -1.07546   0.00000   8.959E-01   0.000E+00   1.041E-01
   9  5.42437447   0.710   0.70141   3.61869   6.13979  -1.06664   0.00000   8.953E-01   0.000E+00   1.047E-01
  10  5.45785438   0.710   0.69563   3.61879   6.14279  -1.05764   0.00000   8.933E-01   0.000E+00   1.067E-01
  11  5.48893701   0.710   0.68975   3.61889   6.14583  -1.04849   0.00000   8.901E-01   0.000E+00   1.099E-01
  12  5.51794286   0.710   0.68386   3.61900   6.14888  -1.03934   0.00000   8.870E-01   0.000E+00   1.130E-01
  13  5.54513215   0.710   0.67793   3.61910   6.15195  -1.03012   0.00000   8.836E-01   0.000E+00   1.164E-01
  14  5.57071906   0.710   0.67143   3.61920   6.15531  -1.02003   0.00000   8.773E-01   0.000E+00   1.227E-01
  15  5.59488199   0.710   0.66492   3.61930   6.15867  -1.00994   0.00000   8.709E-01   0.000E+00   1.291E-01
  16  5.61777113   0.710   0.65841   3.61940   6.16202  -0.99985   0.00000   8.646E-01   0.000E+00   1.354E-01
  17  5.63951407   0.710   0.65114   3.61951   6.16576  -0.98864   0.00000   8.549E-01   0.000E+00   1.451E-01
  18  5.66022015   0.710   0.64360   3.61962   6.16962  -0.97705   0.00000   8.439E-01   0.000E+00   1.561E-01
  19  5.67998379   0.710   0.63607   3.61972   6.17349  -0.96545   0.00000   8.329E-01   0.000E+00   1.671E-01
  20  5.69888704   0.710   0.62753   3.61984   6.17786  -0.95232   0.00000   8.171E-01   0.000E+00   1.829E-01
  21  5.71700171   0.710   0.61863   3.61996   6.18242  -0.93863   0.00000   7.995E-01   0.000E+00   2.005E-01
  22  5.73439096   0.710   0.60952   3.62007   6.18708  -0.92463   0.00000   7.807E-01   0.000E+00   2.193E-01
  23  5.75111067   0.710   0.59888   3.62020   6.19250  -0.90834   0.00000   7.522E-01   0.000E+00   2.478E-01
  24  5.76721048   0.710   0.58825   3.62032   6.19793  -0.89206   0.00000   7.238E-01   0.000E+00   2.762E-01
  25  5.78273472   0.710   0.57583   3.62044   6.20421  -0.87320   0.00000   6.837E-01   0.000E+00   3.163E-01
  26  5.79772314   0.710   0.56315   3.62056   6.21062  -0.85395   0.00000   6.419E-01   0.000E+00   3.581E-01
  27  5.81221148   0.710   0.54854   3.62068   6.21795  -0.83191   0.00000   5.851E-01   0.000E+00   4.149E-01
  28  5.82623205   0.710   0.53306   3.62078   6.22570  -0.80865   0.00000   5.220E-01   0.000E+00   4.780E-01
  29  5.83981411   0.710   0.51642   3.62088   6.23399  -0.78376   0.00000   4.504E-01   0.000E+00   5.496E-01
  30  5.85298425   0.710   0.49836   3.62096   6.24297  -0.75686   0.00000   3.703E-01   0.000E+00   6.297E-01
  31  5.86576673   0.710   0.47932   3.62100   6.25236  -0.72867   0.00000   2.899E-01   0.000E+00   7.101E-01
  32  5.87818371   0.710   0.45969   3.62102   6.26200  -0.69974   0.00000   2.153E-01   0.000E+00   7.847E-01
  33  5.89025553   0.710   0.43974   3.62099   6.27171  -0.67064   0.00000   1.515E-01   0.000E+00   8.485E-01
  34  5.90200085   0.710   0.42000   3.62095   6.28129  -0.64189   0.00000   1.006E-01   0.000E+00   8.994E-01
  35  5.91343687   0.710   0.40061   3.62086   6.29058  -0.61400   0.00000   6.467E-02   0.000E+00   9.353E-01
  36  5.92457946   0.710   0.38192   3.62075   6.29950  -0.58723   0.00000   4.032E-02   0.000E+00   9.597E-01
  37  5.93544330   0.710   0.36394   3.62061   6.30804  -0.56163   0.00000   2.455E-02   0.000E+00   9.755E-01
  38  5.94604201   0.710   0.34674   3.62044   6.31615  -0.53729   0.00000   1.445E-02   0.000E+00   9.855E-01
  39  5.95638821   0.710   0.33030   3.62026   6.32383  -0.51422   0.00000   8.513E-03   0.000E+00   9.915E-01
  40  5.96649365   0.710   0.31454   3.62006   6.33114  -0.49226   0.00000   5.395E-03   0.000E+00   9.946E-01
  41  5.97636929   0.710   0.29942   3.61984   6.33811  -0.47131   0.00000   3.000E-03   0.000E+00   9.970E-01
  42  6.01703341   0.710   0.24074   3.61881   6.36480  -0.39112   0.00000   0.000E+00   0.000E+00   1.000E+00
  43  6.05421390   0.710   0.19080   3.61768   6.38704  -0.32432   0.00000   0.000E+00   0.000E+00   1.000E+00
  44  6.08846082   0.710   0.14732   3.61653   6.40612  -0.26701   0.00000   0.000E+00   0.000E+00   1.000E+00
  45  6.12020343   0.710   0.10910   3.61545   6.42273  -0.21708   0.00000   0.000E+00   0.000E+00   1.000E+00
  46  6.14978316   0.710   0.07495   3.61442   6.43746  -0.17284   0.00000   0.000E+00   0.000E+00   1.000E+00
  47  6.17747604   0.710   0.04420   3.61345   6.45065  -0.13319   0.00000   0.000E+00   0.000E+00   1.000E+00
  48  6.20350844   0.710   0.01600   3.61254   6.46272  -0.09692   0.00000   0.000E+00   0.000E+00   1.000E+00
  49  6.22806826   0.710  -0.00965   3.61170   6.47365  -0.06408   0.00000   0.000E+00   0.000E+00   1.000E+00
  50  6.25131322   0.710  -0.03346   3.61090   6.48377  -0.03365   0.00000   0.000E+00   0.000E+00   1.000E+00
  51  6.27337698   0.710  -0.05567   3.61013   6.49318  -0.00537   0.00000   0.000E+00   0.000E+00   1.000E+00
  52  6.29437381   0.710  -0.07632   3.60943   6.50194   0.02099   0.00000   0.000E+00   0.000E+00   1.000E+00
  53  6.31440215   0.710  -0.09568   3.60875   6.51013   0.04563   0.00000   0.000E+00   0.000E+00   1.000E+00
  54  6.33354742   0.710  -0.11385   3.60813   6.51783   0.06875   0.00000   0.000E+00   0.000E+00   1.000E+00
  55  6.35188421   0.710  -0.13100   3.60753   6.52508   0.09055   0.00000   0.000E+00   0.000E+00   1.000E+00
  56  6.36947805   0.710  -0.14719   3.60697   6.53194   0.11117   0.00000   0.000E+00   0.000E+00   1.000E+00
  57  6.38638680   0.710  -0.16262   3.60643   6.53846   0.13077   0.00000   0.000E+00   0.000E+00   1.000E+00
  58  6.40266182   0.710  -0.17735   3.60591   6.54469   0.14948   0.00000   0.000E+00   0.000E+00   1.000E+00
  59  6.41834892   0.710  -0.19146   3.60541   6.55065   0.16742   0.00000   0.000E+00   0.000E+00   1.000E+00
  60  6.43348907   0.710  -0.20480   3.60494   6.55628   0.18436   0.00000   0.000E+00   0.000E+00   1.000E+00
  61  6.44811916   0.710  -0.21761   3.60449   6.56169   0.20064   0.00000   0.000E+00   0.000E+00   1.000E+00
  62  6.46227241   0.710  -0.23003   3.60405   6.56694   0.21641   0.00000   0.000E+00   0.000E+00   1.000E+00
  63  6.47597895   0.710  -0.24181   3.60363   6.57191   0.23138   0.00000   0.000E+00   0.000E+00   1.000E+00
  64  6.48926610   0.710  -0.25320   3.60323   6.57672   0.24585   0.00000   0.000E+00   0.000E+00   1.000E+00
  65  6.50215878   0.710  -0.26427   3.60284   6.58140   0.25991   0.00000   0.000E+00   0.000E+00   1.000E+00
  66  6.51467972   0.710  -0.27478   3.60246   6.58583   0.27326   0.00000   0.000E+00   0.000E+00   1.000E+00
  67  6.52684977   0.710  -0.28518   3.60208   6.59022   0.28645   0.00000   0.000E+00   0.000E+00   1.000E+00
  68  6.53868806   0.710  -0.29495   3.60174   6.59435   0.29888   0.00000   0.000E+00   0.000E+00   1.000E+00
  69  6.55021220   0.710  -0.30466   3.60140   6.59845   0.31121   0.00000   0.000E+00   0.000E+00   1.000E+00
  70  6.56143844   0.710  -0.31388   3.60107   6.60233   0.32290   0.00000   0.000E+00   0.000E+00   1.000E+00
  71  6.57238177   0.710  -0.32305   3.60075   6.60619   0.33455   0.00000   0.000E+00   0.000E+00   1.000E+00
  72  6.58305612   0.710  -0.33169   3.60044   6.60978   0.34561   0.00000   0.000E+00   0.000E+00   1.000E+00
  73  6.59347440   0.710  -0.34032   3.60013   6.61338   0.35667   0.00000   0.000E+00   0.000E+00   1.000E+00
  74  6.60364859   0.710  -0.34849   3.59984   6.61669   0.36722   0.00000   0.000E+00   0.000E+00   1.000E+00
  75  6.61358988   0.710  -0.35662   3.59956   6.61998   0.37772   0.00000   0.000E+00   0.000E+00   1.000E+00
  76  6.62330869   0.710  -0.36445   3.59928   6.62310   0.38792   0.00000   0.000E+00   0.000E+00   1.000E+00
  77  6.63281476   0.710  -0.37209   3.59901   6.62612   0.39790   0.00000   0.000E+00   0.000E+00   1.000E+00
  78  6.64211720   0.710  -0.37966   3.59874   6.62910   0.40782   0.00000   0.000E+00   0.000E+00   1.000E+00
  79  6.65122456   0.710  -0.38681   3.59849   6.63186   0.41730   0.00000   0.000E+00   0.000E+00   1.000E+00
  80  6.66014486   0.710  -0.39397   3.59824   6.63463   0.42679   0.00000   0.000E+00   0.000E+00   1.000E+00
  81  6.66888561   0.710  -0.40090   3.59800   6.63727   0.43604   0.00000   0.000E+00   0.000E+00   1.000E+00
  82  6.67745391   0.710  -0.40762   3.59776   6.63981   0.44506   0.00000   0.000E+00   0.000E+00   1.000E+00
  83  6.68585643   0.710  -0.41433   3.59753   6.64235   0.45409   0.00000   0.000E+00   0.000E+00   1.000E+00
  84  6.69409946   0.710  -0.42075   3.59731   6.64474   0.46280   0.00000   0.000E+00   0.000E+00   1.000E+00
  85  6.70218894   0.710  -0.42704   3.59709   6.64707   0.47138   0.00000   0.000E+00   0.000E+00   1.000E+00
  86  6.71013050   0.710  -0.43333   3.59688   6.64941   0.47997   0.00000   0.000E+00   0.000E+00   1.000E+00
  87  6.71792944   0.710  -0.43933   3.59667   6.65161   0.48824   0.00000   0.000E+00   0.000E+00   1.000E+00
  88  6.72559080   0.710  -0.44522   3.59646   6.65376   0.49641   0.00000   0.000E+00   0.000E+00   1.000E+00
  89  6.73311934   0.710  -0.45112   3.59626   6.65591   0.50458   0.00000   0.000E+00   0.000E+00   1.000E+00
  90  6.74051959   0.710  -0.45680   3.59607   6.65796   0.51253   0.00000   0.000E+00   0.000E+00   1.000E+00
  91  6.74779586   0.710  -0.46230   3.59588   6.65994   0.52031   0.00000   0.000E+00   0.000E+00   1.000E+00
  92  6.75495222   0.710  -0.46781   3.59570   6.66193   0.52808   0.00000   0.000E+00   0.000E+00   1.000E+00
  93  6.76199257   0.710  -0.47325   3.59552   6.66388   0.53580   0.00000   0.000E+00   0.000E+00   1.000E+00
  94  6.76892061   0.710  -0.47840   3.59535   6.66571   0.54320   0.00000   0.000E+00   0.000E+00   1.000E+00
  95  6.77573986   0.710  -0.48355   3.59518   6.66754   0.55060   0.00000   0.000E+00   0.000E+00   1.000E+00
  96  6.78245369   0.710  -0.48870   3.59501   6.66938   0.55801   0.00000   0.000E+00   0.000E+00   1.000E+00
  97  6.78906531   0.710  -0.49366   3.59485   6.67113   0.56522   0.00000   0.000E+00   0.000E+00   1.000E+00
  98  6.79557778   0.710  -0.49847   3.59469   6.67283   0.57227   0.00000   0.000E+00   0.000E+00   1.000E+00
  99  6.80199403   0.710  -0.50327   3.59454   6.67453   0.57931   0.00000   0.000E+00   0.000E+00   1.000E+00
 100  6.80831687   0.710  -0.50808   3.59438   6.67622   0.58636   0.00000   0.000E+00   0.000E+00   1.000E+00
 101  6.81454898   0.710  -0.51266   3.59424   6.67784   0.59319   0.00000   0.000E+00   0.000E+00   1.000E+00
 102  6.82069291   0.710  -0.51713   3.59410   6.67941   0.59989   0.00000   0.000E+00   0.000E+00   1.000E+00
 103  6.82675115   0.710  -0.52160   3.59396   6.68098   0.60660   0.00000   0.000E+00   0.000E+00   1.000E+00
 104  6.83272603   0.710  -0.52606   3.59382   6.68255   0.61331   0.00000   0.000E+00   0.000E+00   1.000E+00
 105  6.83861982   0.710  -0.53038   3.59369   6.68407   0.61986   0.00000   0.000E+00   0.000E+00   1.000E+00
 106  6.84443471   0.710  -0.53454   3.59356   6.68553   0.62625   0.00000   0.000E+00   0.000E+00   1.000E+00
 107  6.85017276   0.710  -0.53871   3.59344   6.68699   0.63263   0.00000   0.000E+00   0.000E+00   1.000E+00
 108  6.85583599   0.710  -0.54287   3.59331   6.68845   0.63902   0.00000   0.000E+00   0.000E+00   1.000E+00
 109  6.86142631   0.710  -0.54703   3.59319   6.68991   0.64540   0.00000   0.000E+00   0.000E+00   1.000E+00
 110  6.86694559   0.710  -0.55088   3.59308   6.69127   0.65148   0.00000   0.000E+00   0.000E+00   1.000E+00
 111  6.87239561   0.710  -0.55474   3.59297   6.69262   0.65756   0.00000   0.000E+00   0.000E+00   1.000E+00
 112  6.87777808   0.710  -0.55860   3.59286   6.69398   0.66364   0.00000   0.000E+00   0.000E+00   1.000E+00
 113  6.88309466   0.710  -0.56245   3.59275   6.69534   0.66971   0.00000   0.000E+00   0.000E+00   1.000E+00
 114  6.88834694   0.710  -0.56625   3.59264   6.69667   0.67573   0.00000   0.000E+00   0.000E+00   1.000E+00
 115  6.89353646   0.710  -0.56983   3.59254   6.69794   0.68152   0.00000   0.000E+00   0.000E+00   1.000E+00
 116  6.89866470   0.710  -0.57340   3.59244   6.69920   0.68731   0.00000   0.000E+00   0.000E+00   1.000E+00
 117  6.90373309   0.710  -0.57698   3.59234   6.70046   0.69309   0.00000   0.000E+00   0.000E+00   1.000E+00
 118  6.90874301   0.710  -0.58056   3.59225   6.70172   0.69888   0.00000   0.000E+00   0.000E+00   1.000E+00
 119  6.91369580   0.710  -0.58413   3.59215   6.70298   0.70466   0.00000   4.290E-06   0.000E+00   1.000E+00
 120  6.91859274   0.710  -0.58743   3.59206   6.70415   0.71017   0.00000   1.831E-04   0.000E+00   9.998E-01
 121  6.92343508   0.710  -0.59073   3.59198   6.70533   0.71569   0.00000   3.620E-04   0.000E+00   9.996E-01
 122  6.92822402   0.710  -0.59403   3.59190   6.70650   0.72120   0.00000   5.408E-04   0.000E+00   9.995E-01
 123  6.93296074   0.710  -0.59733   3.59181   6.70768   0.72671   0.00000   7.196E-04   0.000E+00   9.993E-01
 124  6.93764634   0.710  -0.60064   3.59173   6.70885   0.73222   0.00000   8.985E-04   0.000E+00   9.991E-01
 125  6.94228193   0.710  -0.60383   3.59165   6.70999   0.73761   0.00000   1.000E-03   0.000E+00   9.990E-01
 126  6.94686857   0.710  -0.60688   3.59158   6.71108   0.74284   0.00000   1.000E-03   0.000E+00   9.990E-01
 127  6.95140727   0.710  -0.60993   3.59150   6.71216   0.74807   0.00000   1.000E-03   0.000E+00   9.990E-01
 128  6.95589903   0.710  -0.61298   3.59143   6.71325   0.75330   0.00000   1.000E-03   0.000E+00   9.990E-01
 129  6.96034480   0.710  -0.61603   3.59136   6.71434   0.75853   0.00000   1.000E-03   0.000E+00   9.990E-01
 130  6.96474553   0.710  -0.61908   3.59129   6.71542   0.76375   0.00000   1.000E-03   0.000E+00   9.990E-01
 131  6.96910211   0.710  -0.62204   3.59122   6.71649   0.76889   0.00000   1.000E-03   0.000E+00   9.990E-01
 132  6.97341542   0.710  -0.62483   3.59116   6.71752   0.77389   0.00000   1.000E-03   0.000E+00   9.990E-01
 133  6.97768631   0.710  -0.62763   3.59110   6.71855   0.77888   0.00000   1.000E-03   0.000E+00   9.990E-01
 134  6.98191562   0.710  -0.63042   3.59104   6.71958   0.78387   0.00000   1.000E-03   0.000E+00   9.990E-01
 135  6.98610413   0.710  -0.63322   3.59098   6.72061   0.78887   0.00000   1.000E-03   0.000E+00   9.990E-01
 136  6.99025263   0.710  -0.63601   3.59092   6.72163   0.79386   0.00000   1.000E-03   0.000E+00   9.990E-01
 137  6.99436188   0.710  -0.63881   3.59086   6.72266   0.79885   0.00000   1.000E-03   0.000E+00   9.990E-01
 138  6.99843261   0.710  -0.64140   3.59081   6.72364   0.80364   0.00000   1.000E-03   0.000E+00   9.990E-01
 139  7.00246554   0.710  -0.64396   3.59077   6.72460   0.80839   0.00000   1.000E-03   0.000E+00   9.990E-01
 140  7.00646137   0.710  -0.64651   3.59072   6.72557   0.81314   0.00000   1.000E-03   0.000E+00   9.990E-01
 141  7.01042076   0.710  -0.64906   3.59068   6.72653   0.81788   0.00000   1.000E-03   0.000E+00   9.990E-01
 142  7.01434439   0.710  -0.65161   3.59063   6.72749   0.82263   0.00000   1.000E-03   0.000E+00   9.990E-01
 143  7.01823288   0.710  -0.65417   3.59059   6.72846   0.82738   0.00000   1.000E-03   0.000E+00   9.990E-01
 144  7.02208687   0.710  -0.65672   3.59054   6.72942   0.83212   0.00000   1.000E-03   0.000E+00   9.990E-01
 145  7.02590695   0.710  -0.65906   3.59051   6.73033   0.83666   0.00000   1.000E-03   0.000E+00   9.990E-01
 146  7.02969373   0.710  -0.66140   3.59048   6.73124   0.84118   0.00000   1.000E-03   0.000E+00   9.990E-01
 147  7.03344777   0.710  -0.66373   3.59044   6.73214   0.84570   0.00000   1.000E-03   0.000E+00   9.990E-01
 148  7.03716964   0.710  -0.66606   3.59041   6.73305   0.85022   0.00000   1.000E-03   0.000E+00   9.990E-01
 149  7.04085989   0.710  -0.66839   3.59038   6.73396   0.85474   0.00000   1.000E-03   0.000E+00   9.990E-01
 150  7.04451904   0.710  -0.67072   3.59034   6.73486   0.85926   0.00000   1.000E-03   0.000E+00   9.990E-01
 151  7.04814762   0.710  -0.67305   3.59031   6.73577   0.86378   0.00000   1.000E-03   0.000E+00   9.990E-01
 152  7.05174614   0.710  -0.67524   3.59028   6.73664   0.86815   0.00000   1.089E-03   0.000E+00   9.989E-01
 153  7.05531508   0.710  -0.67736   3.59026   6.73750   0.87246   0.00000   1.220E-03   0.000E+00   9.988E-01
 154  7.05885493   0.710  -0.67948   3.59024   6.73835   0.87677   0.00000   1.351E-03   0.000E+00   9.986E-01
 155  7.06236617   0.710  -0.68161   3.59022   6.73921   0.88108   0.00000   1.482E-03   0.000E+00   9.985E-01
 156  7.06584924   0.710  -0.68373   3.59020   6.74006   0.88539   0.00000   1.613E-03   0.000E+00   9.984E-01
 157  7.06930460   0.710  -0.68585   3.59017   6.74092   0.88970   0.00000   1.744E-03   0.000E+00   9.983E-01
 158  7.07273269   0.710  -0.68797   3.59015   6.74177   0.89401   0.00000   1.874E-03   0.000E+00   9.981E-01
 159  7.07613392   0.710  -0.69009   3.59013   6.74262   0.89831   0.00000   2.000E-03   0.000E+00   9.980E-01
 160  7.07950873   0.710  -0.69202   3.59012   6.74343   0.90242   0.00000   2.000E-03   0.000E+00   9.980E-01
 161  7.08285751   0.710  -0.69395   3.59011   6.74424   0.90654   0.00000   2.000E-03   0.000E+00   9.980E-01
 162  7.08618067   0.710  -0.69588   3.59010   6.74505   0.91065   0.00000   2.000E-03   0.000E+00   9.980E-01
 163  7.08947860   0.710  -0.69781   3.59008   6.74586   0.91476   0.00000   2.000E-03   0.000E+00   9.980E-01
 164  7.09275167   0.710  -0.69974   3.59007   6.74667   0.91888   0.00000   2.000E-03   0.000E+00   9.980E-01
 165  7.09600025   0.710  -0.70167   3.59006   6.74748   0.92299   0.00000   2.000E-03   0.000E+00   9.980E-01
 166  7.09922472   0.710  -0.70360   3.59005   6.74829   0.92710   0.00000   2.000E-03   0.000E+00   9.980E-01
 167  7.10242542   0.710  -0.70552   3.59004   6.74909   0.93121   0.00000   2.002E-03   0.000E+00   9.980E-01
 168  7.10560271   0.710  -0.70727   3.59004   6.74986   0.93514   0.00000   2.121E-03   0.000E+00   9.979E-01
 169  7.10875692   0.710  -0.70902   3.59004   6.75063   0.93907   0.00000   2.240E-03   0.000E+00   9.978E-01
 170  7.11188839   0.710  -0.71077   3.59004   6.75140   0.94300   0.00000   2.359E-03   0.000E+00   9.976E-01
 171  7.11499744   0.710  -0.71253   3.59004   6.75217   0.94694   0.00000   2.478E-03   0.000E+00   9.975E-01
 172  7.11808439   0.710  -0.71428   3.59004   6.75295   0.95087   0.00000   2.596E-03   0.000E+00   9.974E-01
 173  7.12114955   0.710  -0.71603   3.59004   6.75372   0.95480   0.00000   2.715E-03   0.000E+00   9.973E-01
 174  7.12419323   0.710  -0.71778   3.59004   6.75449   0.95873   0.00000   2.834E-03   0.000E+00   9.972E-01
 175  7.12721573   0.710  -0.71953   3.59004   6.75526   0.96266   0.00000   2.953E-03   0.000E+00   9.970E-01
 176  7.13021734   0.710  -0.72118   3.59005   6.75600   0.96649   0.00000   3.000E-03   0.000E+00   9.970E-01
 177  7.13319834   0.710  -0.72276   3.59005   6.75674   0.97025   0.00000   3.000E-03   0.000E+00   9.970E-01
 178  7.13615902   0.710  -0.72434   3.59006   6.75747   0.97401   0.00000   3.000E-03   0.000E+00   9.970E-01
 179  7.13909966   0.710  -0.72592   3.59007   6.75821   0.97777   0.00000   3.000E-03   0.000E+00   9.970E-01
 180  7.14202052   0.710  -0.72750   3.59008   6.75894   0.98153   0.00000   3.000E-03   0.000E+00   9.970E-01
 181  7.14492186   0.710  -0.72908   3.59009   6.75968   0.98530   0.00000   3.000E-03   0.000E+00   9.970E-01
 182  7.14780395   0.710  -0.73066   3.59010   6.76041   0.98906   0.00000   3.000E-03   0.000E+00   9.970E-01
 183  7.15066705   0.710  -0.73224   3.59011   6.76115   0.99282   0.00000   3.000E-03   0.000E+00   9.970E-01
 184  7.15351138   0.710  -0.73382   3.59012   6.76188   0.99658   0.00000   3.000E-03   0.000E+00   9.970E-01
 185  7.15633722   0.710  -0.73527   3.59014   6.76259   1.00022   0.00000   3.086E-03   0.000E+00   9.969E-01
 186  7.15914478   0.710  -0.73670   3.59016   6.76329   1.00383   0.00000   3.195E-03   0.000E+00   9.968E-01
 187  7.16193431   0.710  -0.73812   3.59017   6.76399   1.00743   0.00000   3.304E-03   0.000E+00   9.967E-01
 188  7.16470604   0.710  -0.73954   3.59019   6.76470   1.01104   0.00000   3.412E-03   0.000E+00   9.966E-01
 189  7.16746019   0.710  -0.74097   3.59021   6.76540   1.01465   0.00000   3.521E-03   0.000E+00   9.965E-01
 190  7.17019698   0.710  -0.74239   3.59023   6.76610   1.01825   0.00000   3.629E-03   0.000E+00   9.964E-01
 191  7.17291664   0.710  -0.74382   3.59025   6.76681   1.02186   0.00000   3.738E-03   0.000E+00   9.963E-01
 192  7.17561937   0.710  -0.74524   3.59027   6.76751   1.02547   0.00000   3.847E-03   0.000E+00   9.962E-01
 193  7.17830538   0.710  -0.74666   3.59029   6.76821   1.02908   0.00000   3.955E-03   0.000E+00   9.960E-01
 194  7.18097489   0.710  -0.74800   3.59032   6.76890   1.03260   0.00000   4.061E-03   0.000E+00   9.959E-01
 195  7.18362808   0.710  -0.74927   3.59034   6.76957   1.03606   0.00000   4.165E-03   0.000E+00   9.958E-01
 196  7.18626517   0.710  -0.75055   3.59037   6.77025   1.03952   0.00000   4.269E-03   0.000E+00   9.957E-01
 197  7.18888633   0.710  -0.75182   3.59040   6.77092   1.04298   0.00000   4.374E-03   0.000E+00   9.956E-01
 198  7.19149178   0.710  -0.75310   3.59043   6.77160   1.04645   0.00000   4.478E-03   0.000E+00   9.955E-01
 199  7.19408168   0.710  -0.75437   3.59046   6.77227   1.04991   0.00000   4.582E-03   0.000E+00   9.954E-01
 200  7.19665624   0.710  -0.75564   3.59049   6.77294   1.05337   0.00000   4.686E-03   0.000E+00   9.953E-01
 201  7.19921562   0.710  -0.75692   3.59051   6.77362   1.05683   0.00000   4.790E-03   0.000E+00   9.952E-01
 202  7.20176000   0.710  -0.75819   3.59054   6.77429   1.06030   0.00000   4.894E-03   0.000E+00   9.951E-01
 203  7.20428957   0.710  -0.75947   3.59057   6.77497   1.06376   0.00000   4.998E-03   0.000E+00   9.950E-01
 204  7.20680449   0.710  -0.76061   3.59061   6.77562   1.06709   0.00000   5.098E-03   0.000E+00   9.949E-01
 205  7.20930493   0.710  -0.76174   3.59064   6.77627   1.07041   0.00000   5.198E-03   0.000E+00   9.948E-01
 206  7.21179105   0.710  -0.76288   3.59068   6.77692   1.07374   0.00000   5.298E-03   0.000E+00   9.947E-01
 207  7.21426302   0.710  -0.76402   3.59072   6.77757   1.07707   0.00000   5.398E-03   0.000E+00   9.946E-01
 208  7.21672101   0.710  -0.76515   3.59075   6.77822   1.08039   0.00000   5.498E-03   0.000E+00   9.945E-01
 209  7.21916515   0.710  -0.76629   3.59079   6.77887   1.08372   0.00000   5.598E-03   0.000E+00   9.944E-01
 210  7.22159563   0.710  -0.76743   3.59083   6.77952   1.08705   0.00000   5.698E-03   0.000E+00   9.943E-01
 211  7.22401257   0.710  -0.76856   3.59087   6.78017   1.09038   0.00000   5.798E-03   0.000E+00   9.942E-01
 212  7.22641614   0.710  -0.76970   3.59090   6.78082   1.09370   0.00000   5.898E-03   0.000E+00   9.941E-01
 213  7.22880648   0.710  -0.77084   3.59094   6.78147   1.09703   0.00000   5.998E-03   0.000E+00   9.940E-01
 214  7.23118373   0.710  -0.77184   3.59099   6.78210   1.10023   0.00000   6.094E-03   0.000E+00   9.939E-01
 215  7.23354805   0.710  -0.77285   3.59103   6.78272   1.10344   0.00000   6.190E-03   0.000E+00   9.938E-01
 216  7.23589956   0.710  -0.77385   3.59108   6.78335   1.10664   0.00000   6.286E-03   0.000E+00   9.937E-01
 217  7.23823840   0.710  -0.77486   3.59112   6.78398   1.10984   0.00000   6.383E-03   0.000E+00   9.936E-01
 218  7.24056472   0.710  -0.77586   3.59117   6.78461   1.11304   0.00000   6.479E-03   0.000E+00   9.935E-01
 219  7.24287865   0.710  -0.77687   3.59122   6.78524   1.11624   0.00000   6.575E-03   0.000E+00   9.934E-01
 220  7.24518031   0.710  -0.77787   3.59126   6.78587   1.11945   0.00000   6.671E-03   0.000E+00   9.933E-01
 221  7.24746984   0.710  -0.77888   3.59131   6.78650   1.12265   0.00000   6.767E-03   0.000E+00   9.932E-01
 222  7.24974736   0.710  -0.77988   3.59135   6.78713   1.12585   0.00000   6.863E-03   0.000E+00   9.931E-01
 223  7.25201300   0.710  -0.78089   3.59140   6.78776   1.12905   0.00000   6.960E-03   0.000E+00   9.930E-01
 224  7.25426688   0.710  -0.78182   3.59145   6.78837   1.13219   0.00000   7.054E-03   0.000E+00   9.929E-01
 225  7.25650912   0.710  -0.78270   3.59150   6.78898   1.13527   0.00000   7.146E-03   0.000E+00   9.929E-01
 226  7.25873985   0.710  -0.78358   3.59156   6.78960   1.13836   0.00000   7.239E-03   0.000E+00   9.928E-01
 227  7.26095918   0.710  -0.78446   3.59161   6.79021   1.14144   0.00000   7.332E-03   0.000E+00   9.927E-01
 228  7.26316722   0.710  -0.78535   3.59167   6.79082   1.14453   0.00000   7.424E-03   0.000E+00   9.926E-01
 229  7.26536410   0.710  -0.78623   3.59172   6.79143   1.14762   0.00000   7.517E-03   0.000E+00   9.925E-01
 230  7.26754991   0.710  -0.78711   3.59177   6.79204   1.15070   0.00000   7.610E-03   0.000E+00   9.924E-01
 231  7.26972478   0.710  -0.78799   3.59183   6.79265   1.15379   0.00000   7.702E-03   0.000E+00   9.923E-01
 232  7.27188882   0.710  -0.78887   3.59188   6.79326   1.15687   0.00000   7.795E-03   0.000E+00   9.922E-01
 233  7.27404212   0.710  -0.78975   3.59193   6.79387   1.15996   0.00000   7.888E-03   0.000E+00   9.921E-01
 234  7.27618480   0.710  -0.79063   3.59199   6.79448   1.16304   0.00000   7.980E-03   0.000E+00   9.920E-01
 235  7.27831697   0.710  -0.79142   3.59205   6.79508   1.16604   0.00000   8.141E-03   0.000E+00   9.919E-01
 236  7.28043871   0.710  -0.79219   3.59211   6.79567   1.16902   0.00000   8.320E-03   0.000E+00   9.917E-01
 237  7.28255014   0.710  -0.79295   3.59217   6.79627   1.17200   0.00000   8.499E-03   0.000E+00   9.915E-01
 238  7.28465135   0.710  -0.79372   3.59223   6.79686   1.17498   0.00000   8.677E-03   0.000E+00   9.913E-01
 239  7.28674245   0.710  -0.79448   3.59230   6.79746   1.17795   0.00000   8.856E-03   0.000E+00   9.911E-01
 240  7.28882353   0.710  -0.79525   3.59236   6.79805   1.18093   0.00000   9.035E-03   0.000E+00   9.910E-01
 241  7.29089468   0.710  -0.79602   3.59242   6.79865   1.18391   0.00000   9.214E-03   0.000E+00   9.908E-01
 242  7.29295600   0.710  -0.79678   3.59248   6.79924   1.18688   0.00000   9.393E-03   0.000E+00   9.906E-01
 243  7.29500758   0.710  -0.79755   3.59254   6.79984   1.18986   0.00000   9.572E-03   0.000E+00   9.904E-01
 244  7.29704952   0.710  -0.79831   3.59260   6.80043   1.19284   0.00000   9.751E-03   0.000E+00   9.902E-01
 245  7.29908190   0.710  -0.79908   3.59267   6.80103   1.19582   0.00000   9.930E-03   0.000E+00   9.901E-01
 246  7.30110482   0.710  -0.79978   3.59273   6.80161   1.19873   0.00000   1.010E-02   0.000E+00   9.899E-01
 247  7.30311835   0.710  -0.80043   3.59280   6.80219   1.20161   0.00000   1.028E-02   0.000E+00   9.897E-01
 248  7.30512260   0.710  -0.80108   3.59287   6.80277   1.20449   0.00000   1.045E-02   0.000E+00   9.895E-01
 249  7.30711763   0.710  -0.80174   3.59295   6.80335   1.20737   0.00000   1.062E-02   0.000E+00   9.894E-01
 250  7.30910355   0.710  -0.80239   3.59302   6.80394   1.21024   0.00000   1.080E-02   0.000E+00   9.892E-01
 251  7.31108042   0.710  -0.80304   3.59309   6.80452   1.21312   0.00000   1.097E-02   0.000E+00   9.890E-01
 252  7.31304834   0.710  -0.80370   3.59316   6.80510   1.21600   0.00000   1.114E-02   0.000E+00   9.889E-01
 253  7.31500738   0.710  -0.80435   3.59323   6.80568   1.21887   0.00000   1.132E-02   0.000E+00   9.887E-01
 254  7.31695762   0.710  -0.80500   3.59330   6.80626   1.22175   0.00000   1.149E-02   0.000E+00   9.885E-01
 255  7.31889914   0.710  -0.80566   3.59337   6.80684   1.22463   0.00000   1.166E-02   0.000E+00   9.883E-01
 256  7.32083203   0.710  -0.80631   3.59344   6.80742   1.22751   0.00000   1.183E-02   0.000E+00   9.882E-01
 257  7.32275634   0.710  -0.80696   3.59351   6.80800   1.23038   0.00000   1.201E-02   0.000E+00   9.880E-01
 258  7.32467217   0.710  -0.80751   3.59359   6.80857   1.23316   0.00000   1.217E-02   0.000E+00   9.878E-01
 259  7.32657959   0.710  -0.80806   3.59367   6.80914   1.23595   0.00000   1.234E-02   0.000E+00   9.877E-01
 260  7.32847866   0.710  -0.80861   3.59374   6.80971   1.23873   0.00000   1.251E-02   0.000E+00   9.875E-01
 261  7.33036947   0.710  -0.80916   3.59382   6.81028   1.24151   0.00000   1.268E-02   0.000E+00   9.873E-01
 262  7.33225208   0.710  -0.80972   3.59390   6.81084   1.24430   0.00000   1.284E-02   0.000E+00   9.872E-01
 263  7.33412656   0.710  -0.81027   3.59398   6.81141   1.24708   0.00000   1.301E-02   0.000E+00   9.870E-01
 264  7.33599299   0.710  -0.81082   3.59405   6.81198   1.24986   0.00000   1.318E-02   0.000E+00   9.868E-01
 265  7.33785143   0.710  -0.81137   3.59413   6.81255   1.25265   0.00000   1.335E-02   0.000E+00   9.867E-01
 266  7.33970195   0.710  -0.81192   3.59421   6.81312   1.25543   0.00000   1.351E-02   0.000E+00   9.865E-01
 267  7.34154462   0.710  -0.81247   3.59428   6.81369   1.25821   0.00000   1.368E-02   0.000E+00   9.863E-01
 268  7.34337951   0.710  -0.81302   3.59436   6.81425   1.26100   0.00000   1.385E-02   0.000E+00   9.862E-01
 269  7.34520668   0.710  -0.81356   3.59444   6.81482   1.26377   0.00000   1.402E-02   0.000E+00   9.860E-01
 270  7.34702619   0.710  -0.81400   3.59452   6.81538   1.26647   0.00000   1.427E-02   0.000E+00   9.857E-01
 271  7.34883811   0.710  -0.81445   3.59461   6.81594   1.26917   0.00000   1.451E-02   0.000E+00   9.855E-01
 272  7.35064250   0.710  -0.81489   3.59470   6.81650   1.27186   0.00000   1.475E-02   0.000E+00   9.852E-01
 273  7.35243942   0.710  -0.81533   3.59478   6.81706   1.27456   0.00000   1.500E-02   0.000E+00   9.850E-01
 274  7.35422895   0.710  -0.81578   3.59487   6.81761   1.27726   0.00000   1.524E-02   0.000E+00   9.848E-01
 275  7.35601112   0.710  -0.81622   3.59495   6.81817   1.27995   0.00000   1.548E-02   0.000E+00   9.845E-01
 276  7.35778602   0.710  -0.81666   3.59504   6.81873   1.28265   0.00000   1.573E-02   0.000E+00   9.843E-01
 277  7.35955369   0.710  -0.81711   3.59513   6.81929   1.28535   0.00000   1.597E-02   0.000E+00   9.840E-01
 278  7.36131419   0.710  -0.81755   3.59521   6.81985   1.28804   0.00000   1.621E-02   0.000E+00   9.838E-01
 279  7.36306759   0.710  -0.81799   3.59530   6.82041   1.29074   0.00000   1.646E-02   0.000E+00   9.835E-01
 280  7.36481394   0.710  -0.81844   3.59538   6.82097   1.29344   0.00000   1.670E-02   0.000E+00   9.833E-01
 281  7.36655329   0.710  -0.81888   3.59547   6.82152   1.29614   0.00000   1.695E-02   0.000E+00   9.831E-01
 282  7.36828570   0.710  -0.81925   3.59556   6.82208   1.29877   0.00000   1.718E-02   0.000E+00   9.828E-01
 283  7.37001123   0.710  -0.81959   3.59566   6.82263   1.30138   0.00000   1.742E-02   0.000E+00   9.826E-01
 284  7.37172993   0.710  -0.81993   3.59575   6.82318   1.30400   0.00000   1.766E-02   0.000E+00   9.823E-01
 285  7.37344186   0.710  -0.82028   3.59585   6.82373   1.30661   0.00000   1.789E-02   0.000E+00   9.821E-01
 286  7.37514707   0.710  -0.82062   3.59594   6.82428   1.30923   0.00000   1.813E-02   0.000E+00   9.819E-01
 287  7.37684560   0.710  -0.82096   3.59604   6.82483   1.31184   0.00000   1.837E-02   0.000E+00   9.816E-01
 288  7.37853752   0.710  -0.82130   3.59613   6.82538   1.31446   0.00000   1.860E-02   0.000E+00   9.814E-01
 289  7.38022287   0.710  -0.82165   3.59623   6.82593   1.31707   0.00000   1.884E-02   0.000E+00   9.812E-01
 290  7.38190171   0.710  -0.82199   3.59632   6.82648   1.31969   0.00000   1.908E-02   0.000E+00   9.809E-01
 291  7.38357409   0.710  -0.82233   3.59642   6.82703   1.32230   0.00000   1.931E-02   0.000E+00   9.807E-01
 292  7.38524004   0.710  -0.82268   3.59651   6.82758   1.32492   0.00000   1.955E-02   0.000E+00   9.805E-01
 293  7.38689964   0.710  -0.82302   3.59660   6.82813   1.32753   0.00000   1.979E-02   0.000E+00   9.802E-01
 294  7.38855291   0.710  -0.82335   3.59670   6.82868   1.33014   0.00000   2.003E-02   0.000E+00   9.800E-01
 295  7.39019991   0.710  -0.82360   3.59680   6.82922   1.33268   0.00000   2.034E-02   0.000E+00   9.797E-01
 296  7.39184070   0.710  -0.82384   3.59691   6.82977   1.33521   0.00000   2.064E-02   0.000E+00   9.794E-01
 297  7.39347530   0.710  -0.82409   3.59701   6.83031   1.33775   0.00000   2.095E-02   0.000E+00   9.791E-01
 298  7.39510378   0.710  -0.82433   3.59712   6.83086   1.34029   0.00000   2.126E-02   0.000E+00   9.787E-01
 299  7.39672617   0.710  -0.82458   3.59722   6.83140   1.34283   0.00000   2.156E-02   0.000E+00   9.784E-01
 300  7.39834253   0.710  -0.82483   3.59733   6.83194   1.34537   0.00000   2.187E-02   0.000E+00   9.781E-01
 301  7.39995289   0.710  -0.82507   3.59743   6.83249   1.34791   0.00000   2.218E-02   0.000E+00   9.778E-01
 302  7.40155730   0.710  -0.82532   3.59753   6.83303   1.35044   0.00000   2.248E-02   0.000E+00   9.775E-01
 303  7.40315581   0.710  -0.82556   3.59764   6.83358   1.35298   0.00000   2.279E-02   0.000E+00   9.772E-01
 304  7.40474845   0.710  -0.82581   3.59774   6.83412   1.35552   0.00000   2.310E-02   0.000E+00   9.769E-01
 305  7.40633528   0.710  -0.82605   3.59785   6.83466   1.35806   0.00000   2.340E-02   0.000E+00   9.766E-01
 306  7.40791633   0.710  -0.82630   3.59795   6.83521   1.36060   0.00000   2.371E-02   0.000E+00   9.763E-01
 307  7.40949164   0.710  -0.82654   3.59806   6.83575   1.36313   0.00000   2.402E-02   0.000E+00   9.760E-01
 308  7.41106126   0.710  -0.82669   3.59817   6.83629   1.36560   0.00000   2.432E-02   0.000E+00   9.757E-01
 309  7.41262523   0.710  -0.82684   3.59828   6.83683   1.36807   0.00000   2.461E-02   0.000E+00   9.754E-01
 310  7.41418359   0.710  -0.82699   3.59839   6.83737   1.37053   0.00000   2.491E-02   0.000E+00   9.751E-01
 311  7.41573637   0.710  -0.82714   3.59851   6.83791   1.37300   0.00000   2.521E-02   0.000E+00   9.748E-01
 312  7.41728362   0.710  -0.82729   3.59862   6.83845   1.37547   0.00000   2.551E-02   0.000E+00   9.745E-01
 313  7.41882538   0.710  -0.82744   3.59873   6.83899   1.37794   0.00000   2.581E-02   0.000E+00   9.742E-01
 314  7.42036169   0.710  -0.82758   3.59885   6.83953   1.38041   0.00000   2.611E-02   0.000E+00   9.739E-01
 315  7.42189258   0.710  -0.82773   3.59896   6.84007   1.38287   0.00000   2.641E-02   0.000E+00   9.736E-01
 316  7.42341809   0.710  -0.82788   3.59907   6.84061   1.38534   0.00000   2.671E-02   0.000E+00   9.733E-01
 317  7.42493827   0.710  -0.82803   3.59918   6.84115   1.38781   0.00000   2.701E-02   0.000E+00   9.730E-01
 318  7.42645314   0.710  -0.82818   3.59930   6.84168   1.39028   0.00000   2.730E-02   0.000E+00   9.727E-01
 319  7.42796274   0.710  -0.82833   3.59941   6.84222   1.39275   0.00000   2.760E-02   0.000E+00   9.724E-01
 320  7.42946712   0.710  -0.82848   3.59952   6.84276   1.39521   0.00000   2.790E-02   0.000E+00   9.721E-01
 321  7.43096630   0.710  -0.82856   3.59964   6.84330   1.39763   0.00000   2.825E-02   0.000E+00   9.718E-01
 322  7.43246032   0.710  -0.82861   3.59977   6.84384   1.40003   0.00000   2.861E-02   0.000E+00   9.714E-01
 323  7.43394923   0.710  -0.82866   3.59989   6.84437   1.40243   0.00000   2.897E-02   0.000E+00   9.710E-01
 324  7.43543304   0.710  -0.82871   3.60002   6.84491   1.40483   0.00000   2.934E-02   0.000E+00   9.707E-01
 325  7.43691181   0.710  -0.82876   3.60014   6.84544   1.40722   0.00000   2.970E-02   0.000E+00   9.703E-01
 326  7.43838555   0.710  -0.82881   3.60026   6.84598   1.40962   0.00000   3.007E-02   0.000E+00   9.699E-01
 327  7.43985431   0.710  -0.82886   3.60039   6.84651   1.41202   0.00000   3.043E-02   0.000E+00   9.696E-01
 328  7.44131812   0.710  -0.82890   3.60051   6.84705   1.41441   0.00000   3.080E-02   0.000E+00   9.692E-01
 329  7.44277702   0.710  -0.82895   3.60063   6.84759   1.41681   0.00000   3.116E-02   0.000E+00   9.688E-01
 330  7.44423103   0.710  -0.82900   3.60076   6.84812   1.41921   0.00000   3.153E-02   0.000E+00   9.685E-01
 331  7.44568018   0.710  -0.82905   3.60088   6.84866   1.42161   0.00000   3.189E-02   0.000E+00   9.681E-01
 332  7.44712452   0.710  -0.82910   3.60101   6.84919   1.42400   0.00000   3.225E-02   0.000E+00   9.677E-01
 333  7.44856407   0.710  -0.82915   3.60113   6.84973   1.42640   0.00000   3.262E-02   0.000E+00   9.674E-01
 334  7.44999887   0.710  -0.82920   3.60125   6.85026   1.42880   0.00000   3.298E-02   0.000E+00   9.670E-01
 335  7.45142894   0.710  -0.82915   3.60139   6.85080   1.43113   0.00000   3.341E-02   0.000E+00   9.666E-01
 336  7.45285431   0.710  -0.82910   3.60153   6.85133   1.43346   0.00000   3.383E-02   0.000E+00   9.662E-01
 337  7.45427503   0.710  -0.82905   3.60166   6.85187   1.43579   0.00000   3.426E-02   0.000E+00   9.657E-01
 338  7.45569111   0.710  -0.82900   3.60180   6.85240   1.43813   0.00000   3.469E-02   0.000E+00   9.653E-01
 339  7.45710259   0.710  -0.82895   3.60194   6.85293   1.44046   0.00000   3.511E-02   0.000E+00   9.649E-01
 340  7.45850949   0.710  -0.82889   3.60207   6.85347   1.44279   0.00000   3.554E-02   0.000E+00   9.645E-01
 341  7.45991186   0.710  -0.82884   3.60221   6.85400   1.44512   0.00000   3.597E-02   0.000E+00   9.640E-01
 342  7.46130971   0.710  -0.82879   3.60235   6.85453   1.44745   0.00000   3.640E-02   0.000E+00   9.636E-01
 343  7.46270307   0.710  -0.82874   3.60248   6.85507   1.44978   0.00000   3.682E-02   0.000E+00   9.632E-01
 344  7.46409198   0.710  -0.82869   3.60262   6.85560   1.45212   0.00000   3.725E-02   0.000E+00   9.627E-01
 345  7.46547646   0.710  -0.82864   3.60276   6.85614   1.45445   0.00000   3.768E-02   0.000E+00   9.623E-01
 346  7.46685654   0.710  -0.82859   3.60289   6.85667   1.45678   0.00000   3.810E-02   0.000E+00   9.619E-01
 347  7.46823225   0.710  -0.82854   3.60303   6.85720   1.45911   0.00000   3.853E-02   0.000E+00   9.615E-01
 348  7.46960362   0.710  -0.82849   3.60317   6.85774   1.46144   0.00000   3.896E-02   0.000E+00   9.610E-01
 349  7.47097067   0.710  -0.82834   3.60332   6.85827   1.46372   0.00000   3.938E-02   0.000E+00   9.606E-01
 350  7.47233343   0.710  -0.82818   3.60347   6.85880   1.46598   0.00000   3.980E-02   0.000E+00   9.602E-01
 351  7.47369192   0.710  -0.82802   3.60362   6.85933   1.46825   0.00000   4.023E-02   0.000E+00   9.598E-01
 352  7.47504618   0.710  -0.82787   3.60377   6.85987   1.47052   0.00000   4.065E-02   0.000E+00   9.594E-01
 353  7.47639623   0.710  -0.82771   3.60392   6.86040   1.47279   0.00000   4.107E-02   0.000E+00   9.589E-01
 354  7.47774210   0.710  -0.82755   3.60407   6.86093   1.47506   0.00000   4.149E-02   0.000E+00   9.585E-01
 355  7.47908381   0.710  -0.82740   3.60422   6.86146   1.47733   0.00000   4.192E-02   0.000E+00   9.581E-01
 356  7.48042139   0.710  -0.82724   3.60438   6.86200   1.47960   0.00000   4.234E-02   0.000E+00   9.577E-01
 357  7.48175486   0.710  -0.82708   3.60453   6.86253   1.48186   0.00000   4.276E-02   0.000E+00   9.572E-01
 358  7.48308424   0.710  -0.82693   3.60468   6.86306   1.48413   0.00000   4.318E-02   0.000E+00   9.568E-01
 359  7.48440957   0.710  -0.82677   3.60483   6.86359   1.48640   0.00000   4.361E-02   0.000E+00   9.564E-01
 360  7.48573087   0.710  -0.82661   3.60498   6.86413   1.48867   0.00000   4.403E-02   0.000E+00   9.560E-01
 361  7.48704816   0.710  -0.82645   3.60513   6.86466   1.49094   0.00000   4.445E-02   0.000E+00   9.555E-01
 362  7.48836147   0.710  -0.82630   3.60528   6.86519   1.49321   0.00000   4.487E-02   0.000E+00   9.551E-01
 363  7.48967082   0.710  -0.82607   3.60544   6.86572   1.49543   0.00000   4.539E-02   0.000E+00   9.546E-01
 364  7.49097623   0.710  -0.82582   3.60561   6.86625   1.49764   0.00000   4.595E-02   0.000E+00   9.541E-01
 365  7.49227773   0.710  -0.82557   3.60577   6.86679   1.49985   0.00000   4.651E-02   0.000E+00   9.535E-01
 366  7.49357534   0.710  -0.82532   3.60594   6.86732   1.50206   0.00000   4.707E-02   0.000E+00   9.529E-01
 367  7.49486909   0.710  -0.82506   3.60610   6.86785   1.50427   0.00000   4.762E-02   0.000E+00   9.524E-01
 368  7.49615899   0.710  -0.82481   3.60626   6.86838   1.50647   0.00000   4.818E-02   0.000E+00   9.518E-01
 369  7.49744508   0.710  -0.82456   3.60643   6.86891   1.50868   0.00000   4.874E-02   0.000E+00   9.513E-01
 370  7.49872736   0.710  -0.82430   3.60659   6.86945   1.51089   0.00000   4.930E-02   0.000E+00   9.507E-01
 371  7.50000587   0.710  -0.82405   3.60676   6.86998   1.51310   0.00000   4.986E-02   0.000E+00   9.501E-01
 372  7.50128063   0.710  -0.82380   3.60692   6.87051   1.51531   0.00000   5.042E-02   0.000E+00   9.496E-01
 373  7.50255166   0.710  -0.82355   3.60709   6.87104   1.51751   0.00000   5.097E-02   0.000E+00   9.490E-01
 374  7.50381898   0.710  -0.82329   3.60725   6.87157   1.51972   0.00000   5.153E-02   0.000E+00   9.485E-01
 375  7.50508261   0.710  -0.82304   3.60741   6.87210   1.52193   0.00000   5.209E-02   0.000E+00   9.479E-01
 376  7.50634258   0.710  -0.82279   3.60758   6.87264   1.52414   0.00000   5.265E-02   0.000E+00   9.473E-01
 377  7.50759890   0.710  -0.82250   3.60775   6.87317   1.52632   0.00000   5.321E-02   0.000E+00   9.468E-01
 378  7.50885159   0.710  -0.82216   3.60792   6.87370   1.52847   0.00000   5.376E-02   0.000E+00   9.462E-01
 379  7.51010069   0.710  -0.82182   3.60810   6.87423   1.53062   0.00000   5.432E-02   0.000E+00   9.457E-01
 380  7.51134620   0.710  -0.82148   3.60828   6.87477   1.53277   0.00000   5.488E-02   0.000E+00   9.451E-01
 381  7.51258815   0.710  -0.82115   3.60845   6.87530   1.53492   0.00000   5.543E-02   0.000E+00   9.446E-01
 382  7.51382656   0.710  -0.82081   3.60863   6.87583   1.53707   0.00000   5.599E-02   0.000E+00   9.440E-01
 383  7.51506145   0.710  -0.82047   3.60881   6.87636   1.53922   0.00000   5.655E-02   0.000E+00   9.435E-01
 384  7.51629283   0.710  -0.82013   3.60898   6.87689   1.54137   0.00000   5.710E-02   0.000E+00   9.429E-01
 385  7.51752074   0.710  -0.81979   3.60916   6.87743   1.54352   0.00000   5.766E-02   0.000E+00   9.423E-01
 386  7.51874518   0.710  -0.81945   3.60934   6.87796   1.54566   0.00000   5.822E-02   0.000E+00   9.418E-01
 387  7.51996618   0.710  -0.81911   3.60951   6.87849   1.54781   0.00000   5.877E-02   0.000E+00   9.412E-01
 388  7.52118375   0.710  -0.81877   3.60969   6.87902   1.54996   0.00000   5.933E-02   0.000E+00   9.407E-01
 389  7.52239793   0.710  -0.81843   3.60987   6.87956   1.55211   0.00000   5.989E-02   0.000E+00   9.401E-01
 390  7.52360871   0.710  -0.81809   3.61004   6.88009   1.55426   0.00000   6.044E-02   0.000E+00   9.396E-01
 391  7.52481614   0.710  -0.81775   3.61022   6.88062   1.55641   0.00000   6.100E-02   0.000E+00   9.390E-01
 392  7.53181431   0.710  -0.81532   3.61132   6.88375   1.56866   0.00000   6.465E-02   0.000E+00   9.353E-01
 393  7.53870151   0.710  -0.81290   3.61241   6.88687   1.58091   0.00000   6.830E-02   0.000E+00   9.317E-01
 394  7.54548118   0.710  -0.81028   3.61353   6.89001   1.59298   0.00000   7.216E-02   0.000E+00   9.278E-01
 395  7.55215665   0.710  -0.80748   3.61467   6.89315   1.60489   0.00000   7.620E-02   0.000E+00   9.238E-01
 396  7.55873105   0.710  -0.80467   3.61582   6.89628   1.61679   0.00000   8.028E-02   0.000E+00   9.197E-01
 397  7.56520742   0.710  -0.80155   3.61700   6.89944   1.62837   0.00000   8.512E-02   0.000E+00   9.149E-01
 398  7.57158862   0.710  -0.79843   3.61818   6.90259   1.63994   0.00000   8.997E-02   0.000E+00   9.100E-01
 399  7.57787743   0.710  -0.79511   3.61936   6.90565   1.65108   0.00000   9.471E-02   0.000E+00   9.053E-01
 400  7.58407646   0.710  -0.79162   3.62054   6.90863   1.66178   0.00000   9.923E-02   0.000E+00   9.008E-01
 401  7.59018825   0.710  -0.78799   3.62175   6.91162   1.67234   0.00000   1.042E-01   0.000E+00   8.958E-01
 402  7.59621523   0.710  -0.78429   3.62297   6.91461   1.68277   0.00000   1.097E-01   0.000E+00   8.903E-01
 403  7.60215971   0.710  -0.78051   3.62419   6.91762   1.69309   0.00000   1.143E-01   0.000E+00   8.857E-01
 404  7.60802392   0.710  -0.77666   3.62543   6.92063   1.70327   0.00000   1.200E-01   0.000E+00   8.800E-01
 405  7.61381000   0.710  -0.77274   3.62668   6.92364   1.71330   0.00000   1.258E-01   0.000E+00   8.742E-01
 406  7.61952000   0.710  -0.76882   3.62792   6.92667   1.72321   0.00000   1.317E-01   0.000E+00   8.683E-01
 407  7.62515591   0.710  -0.76481   3.62919   6.92970   1.73297   0.00000   1.385E-01   0.000E+00   8.615E-01
 408  7.63071961   0.710  -0.76074   3.63047   6.93274   1.74260   0.00000   1.448E-01   0.000E+00   8.552E-01
 409  7.63621294   0.710  -0.75658   3.63176   6.93579   1.75206   0.00000   1.509E-01   0.000E+00   8.481E-01
 410  7.64163765   0.710  -0.75244   3.63306   6.93883   1.76139   0.00000   1.582E-01   0.000E+00   8.418E-01
 411  7.64699543   0.710  -0.74813   3.63439   6.94190   1.77057   0.00000   1.655E-01   0.000E+00   8.345E-01
 412  7.65228793   0.710  -0.74382   3.63573   6.94496   1.77959   0.00000   1.729E-01   0.000E+00   8.271E-01
 413  7.65751670   0.710  -0.73948   3.63707   6.94804   1.78844   0.00000   1.805E-01   0.000E+00   8.191E-01
 414  7.66268327   0.710  -0.73510   3.63843   6.95112   1.79712   0.00000   1.886E-01   0.000E+00   8.114E-01
 415  7.66778909   0.710  -0.73076   3.63979   6.95421   1.80564   0.00000   1.973E-01   0.000E+00   8.027E-01
 416  7.67283559   0.710  -0.72641   3.64116   6.95731   1.81395   0.00000   2.051E-01   0.000E+00   7.948E-01
 417  7.67782412   0.710  -0.72207   3.64253   6.96042   1.82205   0.00000   2.147E-01   0.000E+00   7.853E-01
 418  7.68275599   0.710  -0.71779   3.64390   6.96354   1.82995   0.00000   2.238E-01   0.000E+00   7.762E-01
 419  7.68763249   0.710  -0.71365   3.64525   6.96667   1.83764   0.00000   2.332E-01   0.000E+00   7.663E-01
 420  7.69245484   0.710  -0.70937   3.64662   6.96981   1.84512   0.00000   2.438E-01   0.000E+00   7.562E-01
 421  7.69722423   0.710  -0.70537   3.64795   6.97298   1.85235   0.00000   2.541E-01   0.000E+00   7.459E-01
 422  7.70194182   0.710  -0.70161   3.64923   6.97617   1.85930   0.00000   2.652E-01   0.000E+00   7.342E-01
 423  7.70660870   0.710  -0.69782   3.65052   6.97939   1.86600   0.00000   2.771E-01   0.000E+00   7.223E-01
 424  7.71122597   0.710  -0.69429   3.65175   6.98266   1.87238   0.00000   2.894E-01   0.000E+00   7.099E-01
 425  7.71579467   0.710  -0.69097   3.65294   6.98595   1.87847   0.00000   3.027E-01   0.000E+00   6.973E-01
 426  7.72031580   0.710  -0.68781   3.65409   6.98931   1.88416   0.00000   3.166E-01   1.000E-03   6.830E-01
 427  7.72479036   0.710  -0.68492   3.65518   6.99273   1.88946   0.00000   3.317E-01   1.000E-03   6.683E-01
 428  7.72921928   0.710  -0.68208   3.65626   6.99622   1.89432   0.00000   3.475E-01   1.000E-03   6.519E-01
 429  7.73360349   0.710  -0.67950   3.65729   6.99979   1.89875   0.00000   3.638E-01   1.000E-03   6.352E-01
 430  7.73794388   0.710  -0.67707   3.65828   7.00347   1.90257   0.00000   3.825E-01   1.000E-03   6.173E-01
 431  7.74224133   0.710  -0.67480   3.65924   7.00721   1.90589   0.00054   4.015E-01   1.000E-03   5.975E-01
 432  7.74649666   0.710  -0.67280   3.66015   7.01088   1.90878   0.00253   4.221E-01   1.000E-03   5.763E-01
 433  7.75071071   0.710  -0.67094   3.66102   7.01441   1.91125   0.00602   4.443E-01   1.553E-03   5.537E-01
 434  7.75488426   0.710  -0.66931   3.66185   7.01779   1.91334   0.00942   4.680E-01   2.000E-03   5.304E-01
 435  7.75901808   0.710  -0.66801   3.66261   7.02098   1.91500   0.01280   4.931E-01   2.000E-03   5.056E-01
 436  7.76311293   0.710  -0.66695   3.66333   7.02403   1.91629   0.01710   5.188E-01   2.036E-03   4.792E-01
 437  7.76716952   0.710  -0.66636   3.66395   7.02682   1.91698   0.02231   5.460E-01   2.581E-03   4.514E-01
 438  7.77118858   0.710  -0.66600   3.66453   7.02951   1.91746   0.02725   5.734E-01   3.083E-03   4.235E-01
 439  7.77517078   0.710  -0.66641   3.66494   7.03184   1.91722   0.03131   6.014E-01   3.446E-03   3.952E-01
 440  7.77911680   0.710  -0.66682   3.66535   7.03416   1.91699   0.03536   6.293E-01   3.809E-03   3.669E-01
 441  7.78302729   0.710  -0.66788   3.66563   7.03615   1.91626   0.03923   6.568E-01   4.115E-03   3.391E-01
 442  7.78690289   0.710  -0.66966   3.66574   7.03776   1.91496   0.04290   6.836E-01   4.357E-03   3.120E-01
 443  7.79074420   0.710  -0.67144   3.66586   7.03938   1.91367   0.04657   7.105E-01   4.599E-03   2.849E-01
 444  7.79455183   0.710  -0.67321   3.66597   7.04100   1.91238   0.05024   7.373E-01   4.841E-03   2.578E-01
 445  7.79832637   0.710  -0.67510   3.66606   7.04252   1.91104   0.05362   7.626E-01   5.305E-03   2.321E-01
 446  7.80206839   0.710  -0.67724   3.66607   7.04383   1.90959   0.05656   7.850E-01   6.000E-03   2.090E-01
 447  7.80577844   0.710  -0.67962   3.66603   7.04501   1.90810   0.05903   8.071E-01   6.302E-03   1.866E-01
 448  7.80945707   0.710  -0.68222   3.66595   7.04607   1.90655   0.06064   8.276E-01   7.000E-03   1.654E-01
 449  7.81310480   0.710  -0.68509   3.66580   7.04702   1.90494   0.06222   8.476E-01   7.000E-03   1.454E-01
 450  7.81672214   0.710  -0.68823   3.66558   7.04784   1.90328   0.06541   8.654E-01   7.000E-03   1.273E-01
 451  7.82030961   0.710  -0.69161   3.66531   7.04856   1.90159   0.06541   8.832E-01   7.925E-03   1.098E-01
 452  7.82386768   0.710  -0.69522   3.66498   7.04915   1.89985   0.06754   8.983E-01   8.000E-03   9.356E-02
 453  7.82739684   0.710  -0.69900   3.66461   7.04966   1.89812   0.06860   9.141E-01   8.000E-03   7.774E-02
 454  7.83089755   0.710  -0.70292   3.66419   7.05009   1.89645   0.06860   9.270E-01   8.000E-03   6.442E-02
 455  7.83437027   0.710  -0.70696   3.66374   7.05044   1.89482   0.06860   9.386E-01   9.000E-03   5.261E-02
 456  7.83781544   0.710  -0.71108   3.66327   7.05073   1.89326   0.06860   9.493E-01   9.000E-03   4.180E-02
 457  7.84123349   0.709  -0.71526   3.66276   7.05095   1.89177   0.06860   9.592E-01   9.000E-03   3.210E-02
 458  7.84462486   0.709  -0.71945   3.66223   7.05111   1.89036   0.06860   9.676E-01   9.000E-03   2.335E-02
 459  7.84798994   0.709  -0.72362   3.66170   7.05123   1.88904   0.06860   9.752E-01   9.000E-03   1.540E-02
 460  7.85132915   0.709  -0.72775   3.66115   7.05129   1.88779   0.06541   9.824E-01   9.000E-03   8.520E-03
 461  7.85464289   0.709  -0.73183   3.66061   7.05132   1.88665   0.06541   9.877E-01   9.000E-03   2.671E-03
 462  7.85793153   0.709  -0.73581   3.66005   7.05131   1.88560   0.06541   9.936E-01   9.000E-03  -2.711E-03
 463  7.86119545   0.709  -0.73968   3.65951   7.05126   1.88465   0.06273   9.977E-01   1.000E-02  -7.650E-03
 464  7.86443503   0.709  -0.74341   3.65898   7.05120   1.88378   0.06222   1.001E+00   1.000E-02  -1.149E-02
 465  7.86765062   0.709  -0.74698   3.65845   7.05111   1.88301   0.06222   1.005E+00   1.000E-02  -1.493E-02
 466  7.87084258   0.709  -0.75039   3.65796   7.05099   1.88232   0.05903   1.008E+00   1.000E-02  -1.806E-02
 467  7.87401125   0.709  -0.75363   3.65746   7.05086   1.88170   0.05903   1.011E+00   1.000E-02  -2.030E-02
 468  7.87715696   0.709  -0.75666   3.65700   7.05072   1.88118   0.05720   1.013E+00   1.000E-02  -2.250E-02
 469  7.88028006   0.709  -0.75951   3.65656   7.05057   1.88072   0.05584   1.014E+00   1.000E-02  -2.396E-02
 470  7.88338086   0.709  -0.76213   3.65615   7.05042   1.88034   0.05584   1.015E+00   1.000E-02  -2.520E-02
 471  7.88645967   0.709  -0.76457   3.65576   7.05025   1.88001   0.05347   1.017E+00   1.000E-02  -2.637E-02
 472  7.88951681   0.709  -0.76679   3.65539   7.05009   1.87974   0.05265   1.017E+00   9.057E-03  -2.688E-02
 473  7.89255258   0.709  -0.76882   3.65506   7.04991   1.87953   0.05253   1.018E+00   9.000E-03  -2.722E-02
 474  7.89556728   0.709  -0.77063   3.65475   7.04974   1.87937   0.04985   1.018E+00   9.000E-03  -2.759E-02
 475  7.89856120   0.709  -0.77224   3.65447   7.04958   1.87926   0.04985   1.018E+00   9.000E-03  -2.741E-02
 476  7.90153461   0.709  -0.77360   3.65423   7.04942   1.87917   0.04801   1.018E+00   9.000E-03  -2.725E-02
 477  7.90448781   0.709  -0.77477   3.65402   7.04925   1.87913   0.04746   1.018E+00   9.000E-03  -2.672E-02
 478  7.90742106   0.709  -0.77581   3.65383   7.04910   1.87910   0.04711   1.017E+00   9.000E-03  -2.609E-02
 479  7.91033464   0.709  -0.77666   3.65367   7.04895   1.87911   0.04557   1.016E+00   9.000E-03  -2.559E-02
 480  7.91322880   0.709  -0.77738   3.65353   7.04880   1.87913   0.04467   1.016E+00   9.000E-03  -2.490E-02
 481  7.91610379   0.709  -0.77794   3.65341   7.04866   1.87919   0.04467   1.015E+00   9.000E-03  -2.393E-02
 482  7.91895988   0.709  -0.77849   3.65330   7.04853   1.87924   0.04462   1.014E+00   9.000E-03  -2.298E-02
 483  7.92179732   0.709  -0.77874   3.65323   7.04841   1.87930   0.04350   1.013E+00   9.000E-03  -2.247E-02
 484  7.92461633   0.709  -0.77900   3.65317   7.04829   1.87937   0.04238   1.013E+00   9.000E-03  -2.197E-02
 485  7.92741716   0.709  -0.77925   3.65310   7.04817   1.87943   0.04126   1.012E+00   9.000E-03  -2.146E-02
 486  7.93020005   0.709  -0.77938   3.65306   7.04806   1.87949   0.04050   1.012E+00   9.000E-03  -2.090E-02
 487  7.93296521   0.709  -0.77938   3.65304   7.04797   1.87956   0.04013   1.011E+00   9.000E-03  -2.026E-02
 488  7.93571288   0.709  -0.77938   3.65301   7.04787   1.87963   0.03976   1.011E+00   9.000E-03  -1.962E-02
 489  7.93844328   0.709  -0.77937   3.65299   7.04777   1.87970   0.03938   1.010E+00   9.000E-03  -1.899E-02
 490  7.94115662   0.709  -0.77937   3.65297   7.04767   1.87977   0.03901   1.009E+00   9.000E-03  -1.835E-02
 491  7.94385311   0.709  -0.77935   3.65295   7.04758   1.87983   0.03862   1.009E+00   8.983E-03  -1.778E-02
 492  7.94653296   0.709  -0.77924   3.65295   7.04750   1.87985   0.03807   1.009E+00   8.858E-03  -1.766E-02
 493  7.94919638   0.709  -0.77912   3.65295   7.04743   1.87987   0.03752   1.009E+00   8.733E-03  -1.753E-02
 494  7.95184357   0.709  -0.77900   3.65295   7.04735   1.87988   0.03697   1.009E+00   8.609E-03  -1.741E-02
 495  7.95447471   0.709  -0.77888   3.65295   7.04728   1.87990   0.03642   1.008E+00   8.484E-03  -1.728E-02
 496  7.95709001   0.709  -0.77876   3.65295   7.04720   1.87992   0.03588   1.008E+00   8.359E-03  -1.716E-02
 497  7.95968966   0.709  -0.77864   3.65295   7.04712   1.87994   0.03533   1.008E+00   8.234E-03  -1.703E-02
 498  7.96227383   0.709  -0.77852   3.65295   7.04705   1.87995   0.03478   1.008E+00   8.110E-03  -1.691E-02
 499  7.96484273   0.709  -0.77841   3.65295   7.04697   1.87996   0.03425   1.008E+00   8.000E-03  -1.681E-02
 500  7.96739651   0.709  -0.77833   3.65295   7.04690   1.87992   0.03380   1.008E+00   8.000E-03  -1.688E-02
 501  7.96993537   0.709  -0.77824   3.65294   7.04683   1.87987   0.03335   1.008E+00   8.000E-03  -1.696E-02
 502  7.97245947   0.709  -0.77816   3.65294   7.04676   1.87983   0.03290   1.009E+00   8.000E-03  -1.703E-02
 503  7.97496898   0.709  -0.77807   3.65294   7.04669   1.87978   0.03246   1.009E+00   8.000E-03  -1.711E-02
 504  7.97746408   0.709  -0.77799   3.65293   7.04662   1.87974   0.03201   1.009E+00   8.000E-03  -1.718E-02
 505  7.97994492   0.709  -0.77791   3.65293   7.04655   1.87969   0.03156   1.009E+00   8.000E-03  -1.726E-02
 506  7.98241168   0.709  -0.77782   3.65293   7.04648   1.87964   0.03111   1.009E+00   8.000E-03  -1.733E-02
 507  7.98486450   0.709  -0.77774   3.65292   7.04641   1.87960   0.03066   1.009E+00   8.000E-03  -1.741E-02
 508  7.98730355   0.709  -0.77765   3.65292   7.04633   1.87955   0.03022   1.010E+00   8.000E-03  -1.748E-02
 509  7.98972897   0.709  -0.77757   3.65292   7.04626   1.87951   0.02977   1.010E+00   8.000E-03  -1.756E-02
 510  7.99214093   0.709  -0.77749   3.65291   7.04619   1.87946   0.02932   1.010E+00   8.000E-03  -1.763E-02
 511  7.99453956   0.709  -0.77741   3.65291   7.04612   1.87941   0.02888   1.010E+00   7.994E-03  -1.770E-02
 512  7.99692502   0.709  -0.77739   3.65290   7.04605   1.87934   0.02852   1.010E+00   7.939E-03  -1.774E-02
 513  7.99929744   0.709  -0.77738   3.65288   7.04598   1.87927   0.02815   1.010E+00   7.883E-03  -1.777E-02
 514  8.00165698   0.709  -0.77737   3.65287   7.04590   1.87920   0.02779   1.010E+00   7.828E-03  -1.780E-02
 515  8.00400377   0.709  -0.77735   3.65286   7.04583   1.87913   0.02742   1.010E+00   7.773E-03  -1.784E-02
 516  8.00633794   0.709  -0.77734   3.65284   7.04576   1.87906   0.02706   1.010E+00   7.717E-03  -1.787E-02
 517  8.00865964   0.709  -0.77733   3.65283   7.04568   1.87899   0.02669   1.010E+00   7.662E-03  -1.790E-02
 518  8.01096899   0.709  -0.77731   3.65282   7.04561   1.87892   0.02632   1.010E+00   7.606E-03  -1.794E-02
 519  8.01326613   0.709  -0.77730   3.65281   7.04554   1.87885   0.02596   1.010E+00   7.551E-03  -1.797E-02
 520  8.01555117   0.709  -0.77728   3.65279   7.04546   1.87878   0.02559   1.011E+00   7.495E-03  -1.800E-02
 521  8.01782426   0.709  -0.77727   3.65278   7.04539   1.87871   0.02523   1.011E+00   7.440E-03  -1.804E-02
 522  8.02008552   0.709  -0.77726   3.65277   7.04532   1.87864   0.02486   1.011E+00   7.384E-03  -1.807E-02
 523  8.02233506   0.709  -0.77724   3.65276   7.04524   1.87857   0.02450   1.011E+00   7.329E-03  -1.810E-02
 524  8.02457301   0.709  -0.77723   3.65274   7.04517   1.87850   0.02413   1.011E+00   7.273E-03  -1.814E-02
 525  8.02679948   0.709  -0.77721   3.65273   7.04510   1.87843   0.02377   1.011E+00   7.218E-03  -1.817E-02
 526  8.02901460   0.709  -0.77720   3.65272   7.04502   1.87836   0.02340   1.011E+00   7.163E-03  -1.820E-02
 527  8.03121848   0.709  -0.77719   3.65270   7.04495   1.87829   0.02304   1.011E+00   7.107E-03  -1.824E-02
 528  8.03341123   0.709  -0.77717   3.65269   7.04488   1.87822   0.02267   1.011E+00   7.052E-03  -1.827E-02
 529  8.03559297   0.709  -0.77716   3.65268   7.04481   1.87815   0.02231   1.011E+00   7.000E-03  -1.830E-02
 530  8.03776380   0.709  -0.77718   3.65266   7.04474   1.87807   0.02206   1.011E+00   7.000E-03  -1.826E-02
 531  8.03992383   0.709  -0.77719   3.65265   7.04467   1.87800   0.02181   1.011E+00   7.000E-03  -1.822E-02
 532  8.04207317   0.709  -0.77721   3.65263   7.04460   1.87793   0.02156   1.011E+00   7.000E-03  -1.819E-02
 533  8.04421193   0.709  -0.77722   3.65261   7.04453   1.87786   0.02131   1.011E+00   7.000E-03  -1.815E-02
 534  8.04634021   0.709  -0.77724   3.65260   7.04446   1.87779   0.02106   1.011E+00   7.000E-03  -1.811E-02
 535  8.04845811   0.709  -0.77725   3.65258   7.04439   1.87772   0.02081   1.011E+00   7.000E-03  -1.808E-02
 536  8.05056573   0.709  -0.77727   3.65256   7.04432   1.87765   0.02056   1.011E+00   7.000E-03  -1.804E-02
 537  8.05266317   0.709  -0.77728   3.65255   7.04426   1.87758   0.02031   1.011E+00   7.000E-03  -1.800E-02
 538  8.05475053   0.708  -0.77730   3.65253   7.04419   1.87751   0.02006   1.011E+00   7.000E-03  -1.796E-02
 539  8.05682790   0.708  -0.77731   3.65251   7.04412   1.87744   0.01981   1.011E+00   7.000E-03  -1.793E-02
 540  8.05889539   0.708  -0.77733   3.65250   7.04405   1.87737   0.01956   1.011E+00   7.000E-03  -1.789E-02
 541  8.06095308   0.708  -0.77734   3.65248   7.04398   1.87730   0.01930   1.011E+00   7.000E-03  -1.785E-02
 542  8.06300107   0.708  -0.77736   3.65246   7.04391   1.87723   0.01905   1.011E+00   7.000E-03  -1.782E-02
 543  8.06503944   0.708  -0.77737   3.65245   7.04384   1.87716   0.01880   1.010E+00   7.000E-03  -1.778E-02
 544  8.06706829   0.708  -0.77739   3.65243   7.04377   1.87709   0.01855   1.010E+00   7.000E-03  -1.774E-02
 545  8.06908771   0.708  -0.77740   3.65241   7.04370   1.87702   0.01830   1.010E+00   7.000E-03  -1.771E-02
 546  8.07109778   0.708  -0.77742   3.65240   7.04364   1.87694   0.01805   1.010E+00   7.000E-03  -1.767E-02
 547  8.07309859   0.708  -0.77743   3.65238   7.04357   1.87687   0.01780   1.010E+00   7.000E-03  -1.763E-02
 548  8.07509023   0.708  -0.77745   3.65236   7.04350   1.87680   0.01755   1.010E+00   7.000E-03  -1.759E-02
 549  8.07707277   0.708  -0.77746   3.65235   7.04343   1.87673   0.01730   1.010E+00   7.000E-03  -1.756E-02
 550  8.07904631   0.708  -0.77748   3.65233   7.04336   1.87666   0.01705   1.010E+00   7.000E-03  -1.752E-02
 551  8.08101091   0.708  -0.77749   3.65231   7.04329   1.87659   0.01680   1.010E+00   7.000E-03  -1.748E-02
 552  8.08296667   0.708  -0.77751   3.65230   7.04322   1.87652   0.01655   1.010E+00   7.000E-03  -1.745E-02
 553  8.08491367   0.708  -0.77752   3.65228   7.04315   1.87645   0.01630   1.010E+00   7.000E-03  -1.741E-02
 554  8.08685197   0.708  -0.77754   3.65226   7.04309   1.87638   0.01605   1.010E+00   7.000E-03  -1.737E-02
 555  8.08878166   0.708  -0.77756   3.65225   7.04302   1.87631   0.01579   1.010E+00   7.000E-03  -1.734E-02
 556  8.09070281   0.708  -0.77757   3.65223   7.04295   1.87624   0.01555   1.010E+00   6.999E-03  -1.730E-02
 557  8.09261550   0.708  -0.77756   3.65222   7.04290   1.87622   0.01541   1.010E+00   6.975E-03  -1.715E-02
 558  8.09451981   0.708  -0.77756   3.65221   7.04285   1.87620   0.01527   1.010E+00   6.950E-03  -1.700E-02
 559  8.09641580   0.708  -0.77755   3.65220   7.04280   1.87617   0.01513   1.010E+00   6.925E-03  -1.685E-02
 560  8.09830355   0.708  -0.77755   3.65219   7.04275   1.87615   0.01499   1.010E+00   6.901E-03  -1.670E-02
 561  8.10018313   0.708  -0.77754   3.65218   7.04270   1.87613   0.01485   1.009E+00   6.876E-03  -1.654E-02
 562  8.10205461   0.708  -0.77754   3.65218   7.04265   1.87611   0.01471   1.009E+00   6.852E-03  -1.639E-02
 563  8.10391806   0.708  -0.77753   3.65217   7.04261   1.87609   0.01458   1.009E+00   6.827E-03  -1.624E-02
 564  8.10577355   0.708  -0.77752   3.65216   7.04256   1.87607   0.01444   1.009E+00   6.802E-03  -1.609E-02
 565  8.10762115   0.708  -0.77752   3.65215   7.04251   1.87604   0.01430   1.009E+00   6.778E-03  -1.594E-02
 566  8.10946092   0.708  -0.77751   3.65214   7.04246   1.87602   0.01416   1.009E+00   6.753E-03  -1.579E-02
 567  8.11129293   0.708  -0.77751   3.65213   7.04241   1.87600   0.01402   1.009E+00   6.728E-03  -1.564E-02
 568  8.11311724   0.708  -0.77750   3.65212   7.04236   1.87598   0.01388   1.009E+00   6.704E-03  -1.549E-02
 569  8.11493392   0.708  -0.77750   3.65211   7.04231   1.87596   0.01374   1.008E+00   6.679E-03  -1.534E-02
 570  8.11674303   0.708  -0.77749   3.65210   7.04226   1.87594   0.01360   1.008E+00   6.654E-03  -1.519E-02
 571  8.11854464   0.708  -0.77748   3.65209   7.04221   1.87591   0.01347   1.008E+00   6.630E-03  -1.504E-02
 572  8.12033881   0.708  -0.77748   3.65208   7.04216   1.87589   0.01333   1.008E+00   6.605E-03  -1.489E-02
 573  8.12212559   0.708  -0.77747   3.65207   7.04212   1.87587   0.01319   1.008E+00   6.580E-03  -1.474E-02
 574  8.12390506   0.708  -0.77747   3.65207   7.04207   1.87585   0.01305   1.008E+00   6.556E-03  -1.459E-02
 575  8.12567726   0.708  -0.77746   3.65206   7.04202   1.87583   0.01291   1.008E+00   6.531E-03  -1.444E-02
 576  8.12744226   0.708  -0.77746   3.65205   7.04197   1.87581   0.01277   1.008E+00   6.506E-03  -1.429E-02
 577  8.12920011   0.708  -0.77745   3.65204   7.04192   1.87578   0.01263   1.007E+00   6.482E-03  -1.414E-02
 578  8.13095088   0.708  -0.77745   3.65203   7.04187   1.87576   0.01249   1.007E+00   6.457E-03  -1.399E-02
 579  8.13269462   0.708  -0.77744   3.65202   7.04182   1.87574   0.01236   1.007E+00   6.433E-03  -1.384E-02
 580  8.13443139   0.708  -0.77743   3.65201   7.04177   1.87572   0.01222   1.007E+00   6.408E-03  -1.369E-02
 581  8.13616124   0.708  -0.77743   3.65200   7.04172   1.87570   0.01208   1.007E+00   6.383E-03  -1.354E-02
 582  8.13788422   0.708  -0.77742   3.65199   7.04167   1.87568   0.01194   1.007E+00   6.359E-03  -1.339E-02
 583  8.13960040   0.708  -0.77742   3.65198   7.04162   1.87565   0.01180   1.007E+00   6.334E-03  -1.324E-02
 584  8.14130982   0.708  -0.77741   3.65197   7.04158   1.87563   0.01166   1.007E+00   6.309E-03  -1.309E-02
 585  8.14301254   0.708  -0.77741   3.65197   7.04153   1.87561   0.01152   1.006E+00   6.285E-03  -1.294E-02
 586  8.14470861   0.708  -0.77740   3.65196   7.04148   1.87559   0.01138   1.006E+00   6.260E-03  -1.279E-02
 587  8.14639808   0.708  -0.77739   3.65195   7.04143   1.87557   0.01124   1.006E+00   6.235E-03  -1.264E-02
 588  8.14808101   0.708  -0.77739   3.65194   7.04138   1.87555   0.01111   1.006E+00   6.211E-03  -1.249E-02
 589  8.14975744   0.708  -0.77738   3.65193   7.04133   1.87552   0.01097   1.006E+00   6.186E-03  -1.233E-02
 590  8.15142742   0.708  -0.77738   3.65192   7.04128   1.87550   0.01083   1.006E+00   6.161E-03  -1.218E-02
 591  8.15309101   0.708  -0.77737   3.65191   7.04123   1.87548   0.01069   1.006E+00   6.137E-03  -1.203E-02
 592  8.15474824   0.708  -0.77737   3.65190   7.04118   1.87546   0.01055   1.006E+00   6.112E-03  -1.188E-02
 593  8.15639918   0.708  -0.77736   3.65189   7.04113   1.87544   0.01041   1.005E+00   6.087E-03  -1.173E-02
 594  8.15804387   0.708  -0.77735   3.65188   7.04108   1.87542   0.01027   1.005E+00   6.063E-03  -1.158E-02
 595  8.15968235   0.708  -0.77735   3.65187   7.04104   1.87539   0.01013   1.005E+00   6.038E-03  -1.143E-02
 596  8.16131467   0.708  -0.77734   3.65186   7.04099   1.87537   0.01000   1.005E+00   6.013E-03  -1.128E-02
 597  8.16294088   0.708  -0.77734   3.65186   7.04095   1.87535   0.00989   1.005E+00   6.000E-03  -1.117E-02
 598  8.16456102   0.708  -0.77733   3.65185   7.04091   1.87534   0.00982   1.005E+00   6.000E-03  -1.111E-02
 599  8.16617514   0.708  -0.77732   3.65185   7.04088   1.87532   0.00976   1.005E+00   6.000E-03  -1.105E-02
 600  8.16778329   0.708  -0.77731   3.65184   7.04085   1.87531   0.00969   1.005E+00   6.000E-03  -1.099E-02
 601  8.16938550   0.708  -0.77731   3.65184   7.04082   1.87529   0.00962   1.005E+00   6.000E-03  -1.093E-02
 602  8.17098182   0.708  -0.77730   3.65183   7.04078   1.87528   0.00956   1.005E+00   6.000E-03  -1.086E-02
 603  8.17257230   0.708  -0.77729   3.65182   7.04075   1.87526   0.00949   1.005E+00   6.000E-03  -1.080E-02
 604  8.17415697   0.708  -0.77728   3.65182   7.04072   1.87525   0.00943   1.005E+00   6.000E-03  -1.074E-02
 605  8.17573589   0.708  -0.77727   3.65181   7.04069   1.87523   0.00936   1.005E+00   6.000E-03  -1.068E-02
 606  8.17730908   0.708  -0.77727   3.65181   7.04065   1.87522   0.00929   1.005E+00   6.000E-03  -1.062E-02
 607  8.17887659   0.708  -0.77726   3.65180   7.04062   1.87520   0.00923   1.004E+00   6.000E-03  -1.056E-02
 608  8.18043847   0.708  -0.77725   3.65180   7.04059   1.87519   0.00916   1.004E+00   6.000E-03  -1.049E-02
 609  8.18199475   0.708  -0.77724   3.65179   7.04056   1.87517   0.00909   1.004E+00   6.000E-03  -1.043E-02
 610  8.18354547   0.708  -0.77724   3.65178   7.04052   1.87516   0.00903   1.004E+00   6.000E-03  -1.037E-02
 611  8.18509068   0.708  -0.77723   3.65178   7.04049   1.87514   0.00896   1.004E+00   6.000E-03  -1.031E-02
 612  8.18663041   0.707  -0.77722   3.65177   7.04046   1.87513   0.00889   1.004E+00   6.000E-03  -1.025E-02
 613  8.18816470   0.707  -0.77721   3.65177   7.04043   1.87511   0.00883   1.004E+00   6.000E-03  -1.019E-02
 614  8.18969358   0.707  -0.77721   3.65176   7.04040   1.87510   0.00876   1.004E+00   6.000E-03  -1.012E-02
 615  8.19121711   0.707  -0.77720   3.65176   7.04036   1.87508   0.00870   1.004E+00   6.000E-03  -1.006E-02
 616  8.19273530   0.707  -0.77719   3.65175   7.04033   1.87507   0.00863   1.004E+00   6.000E-03  -1.000E-02
 617  8.19424821   0.707  -0.77718   3.65175   7.04030   1.87505   0.00856   1.004E+00   6.000E-03  -9.940E-03
 618  8.19575587   0.707  -0.77717   3.65174   7.04027   1.87504   0.00850   1.004E+00   6.000E-03  -9.878E-03
 619  8.19725831   0.707  -0.77717   3.65173   7.04023   1.87502   0.00843   1.004E+00   6.000E-03  -9.816E-03
 620  8.19875557   0.707  -0.77716   3.65173   7.04020   1.87501   0.00836   1.004E+00   6.000E-03  -9.755E-03
 621  8.20024769   0.707  -0.77715   3.65172   7.04017   1.87499   0.00830   1.004E+00   6.000E-03  -9.693E-03
 622  8.20173469   0.707  -0.77714   3.65172   7.04014   1.87498   0.00823   1.004E+00   6.000E-03  -9.632E-03
 623  8.20321663   0.707  -0.77714   3.65171   7.04010   1.87496   0.00816   1.004E+00   6.000E-03  -9.570E-03
 624  8.20469352   0.707  -0.77713   3.65171   7.04007   1.87495   0.00810   1.004E+00   6.000E-03  -9.508E-03
 625  8.20616541   0.707  -0.77712   3.65170   7.04004   1.87493   0.00803   1.004E+00   6.000E-03  -9.447E-03
 626  8.20763233   0.707  -0.77711   3.65170   7.04001   1.87492   0.00796   1.004E+00   6.000E-03  -9.385E-03
 627  8.20909431   0.707  -0.77710   3.65169   7.03997   1.87490   0.00790   1.003E+00   6.000E-03  -9.323E-03
 628  8.21055138   0.707  -0.77710   3.65168   7.03994   1.87489   0.00783   1.003E+00   6.000E-03  -9.262E-03
 629  8.21200358   0.707  -0.77709   3.65168   7.03991   1.87487   0.00777   1.003E+00   6.000E-03  -9.200E-03
 630  8.21345094   0.707  -0.77708   3.65167   7.03988   1.87486   0.00770   1.003E+00   6.000E-03  -9.139E-03
 631  8.21489350   0.707  -0.77707   3.65167   7.03984   1.87484   0.00763   1.003E+00   6.000E-03  -9.077E-03
 632  8.21633128   0.707  -0.77707   3.65166   7.03981   1.87483   0.00757   1.003E+00   6.000E-03  -9.015E-03
 633  8.21776431   0.707  -0.77706   3.65166   7.03978   1.87481   0.00750   1.003E+00   6.000E-03  -8.954E-03
 634  8.21919263   0.707  -0.77705   3.65165   7.03975   1.87480   0.00743   1.003E+00   6.000E-03  -8.892E-03
 635  8.22061627   0.707  -0.77704   3.65165   7.03972   1.87479   0.00737   1.003E+00   6.000E-03  -8.831E-03
 636  8.22203526   0.707  -0.77704   3.65164   7.03968   1.87477   0.00730   1.003E+00   6.000E-03  -8.769E-03
 637  8.22344963   0.707  -0.77703   3.65163   7.03965   1.87476   0.00723   1.003E+00   6.000E-03  -8.707E-03
 638  8.22485940   0.707  -0.77702   3.65163   7.03962   1.87474   0.00717   1.003E+00   6.000E-03  -8.646E-03
 639  8.22626462   0.707  -0.77701   3.65162   7.03959   1.87473   0.00710   1.003E+00   6.000E-03  -8.584E-03
 640  8.22766530   0.707  -0.77700   3.65162   7.03955   1.87471   0.00704   1.003E+00   6.000E-03  -8.522E-03
 641  8.22906148   0.707  -0.77700   3.65161   7.03952   1.87470   0.00697   1.003E+00   6.000E-03  -8.461E-03
 642  8.23045318   0.707  -0.77699   3.65161   7.03949   1.87468   0.00690   1.003E+00   6.000E-03  -8.399E-03
 643  8.23184044   0.707  -0.77698   3.65160   7.03946   1.87467   0.00684   1.003E+00   6.000E-03  -8.338E-03
 644  8.23322328   0.707  -0.77697   3.65159   7.03942   1.87465   0.00677   1.003E+00   6.000E-03  -8.276E-03
 645  8.23460174   0.707  -0.77697   3.65159   7.03939   1.87464   0.00670   1.003E+00   6.000E-03  -8.214E-03
 646  8.23597583   0.707  -0.77696   3.65158   7.03936   1.87462   0.00664   1.003E+00   6.000E-03  -8.153E-03
 647  8.23734559   0.707  -0.77695   3.65158   7.03933   1.87461   0.00657   1.003E+00   6.000E-03  -8.091E-03
 648  8.23871104   0.707  -0.77694   3.65157   7.03929   1.87459   0.00650   1.002E+00   6.000E-03  -8.029E-03
 649  8.24007221   0.707  -0.77693   3.65157   7.03926   1.87458   0.00644   1.002E+00   6.000E-03  -7.968E-03
 650  8.24142913   0.707  -0.77693   3.65156   7.03923   1.87456   0.00637   1.002E+00   6.000E-03  -7.906E-03
 651  8.24278182   0.707  -0.77692   3.65156   7.03920   1.87455   0.00631   1.002E+00   6.000E-03  -7.845E-03
 652  8.24413031   0.707  -0.77691   3.65155   7.03916   1.87453   0.00624   1.002E+00   6.000E-03  -7.783E-03
 653  8.24547463   0.707  -0.77690   3.65154   7.03913   1.87452   0.00617   1.002E+00   6.000E-03  -7.721E-03
 654  8.24681480   0.707  -0.77690   3.65154   7.03910   1.87450   0.00611   1.002E+00   6.000E-03  -7.660E-03
 655  8.24815085   0.707  -0.77689   3.65153   7.03907   1.87449   0.00604   1.002E+00   6.000E-03  -7.598E-03
 656  8.24948280   0.707  -0.77688   3.65153   7.03904   1.87447   0.00597   1.002E+00   6.000E-03  -7.536E-03
 657  8.25081067   0.707  -0.77687   3.65152   7.03900   1.87446   0.00591   1.002E+00   6.000E-03  -7.475E-03
 658  8.25213450   0.707  -0.77687   3.65152   7.03898   1.87445   0.00586   1.002E+00   5.993E-03  -7.432E-03
 659  8.25345431   0.707  -0.77686   3.65151   7.03896   1.87444   0.00582   1.002E+00   5.983E-03  -7.402E-03
 660  8.25477011   0.707  -0.77685   3.65151   7.03894   1.87443   0.00578   1.002E+00   5.972E-03  -7.372E-03
 661  8.25608195   0.707  -0.77684   3.65151   7.03892   1.87442   0.00575   1.002E+00   5.961E-03  -7.342E-03
 662  8.25738983   0.707  -0.77684   3.65150   7.03890   1.87442   0.00571   1.002E+00   5.950E-03  -7.312E-03
 663  8.25869378   0.707  -0.77683   3.65150   7.03888   1.87441   0.00567   1.002E+00   5.939E-03  -7.282E-03
 664  8.25999384   0.707  -0.77682   3.65150   7.03886   1.87440   0.00564   1.002E+00   5.928E-03  -7.252E-03
 665  8.26129001   0.707  -0.77682   3.65150   7.03884   1.87439   0.00560   1.002E+00   5.917E-03  -7.222E-03
 666  8.26258232   0.707  -0.77681   3.65149   7.03882   1.87439   0.00556   1.002E+00   5.906E-03  -7.192E-03
 667  8.26387080   0.707  -0.77680   3.65149   7.03880   1.87438   0.00552   1.002E+00   5.895E-03  -7.162E-03
 668  8.26515547   0.707  -0.77680   3.65149   7.03878   1.87437   0.00549   1.002E+00   5.884E-03  -7.132E-03
 669  8.26643635   0.707  -0.77679   3.65148   7.03876   1.87436   0.00545   1.002E+00   5.873E-03  -7.102E-03
 670  8.26771347   0.707  -0.77678   3.65148   7.03874   1.87436   0.00541   1.002E+00   5.862E-03  -7.072E-03
 671  8.26898684   0.707  -0.77677   3.65148   7.03872   1.87435   0.00538   1.002E+00   5.851E-03  -7.042E-03
 672  8.27025648   0.707  -0.77677   3.65147   7.03871   1.87434   0.00534   1.002E+00   5.840E-03  -7.012E-03
 673  8.27152243   0.707  -0.77676   3.65147   7.03869   1.87434   0.00530   1.002E+00   5.829E-03  -6.982E-03
 674  8.27278469   0.707  -0.77675   3.65147   7.03867   1.87433   0.00526   1.002E+00   5.818E-03  -6.952E-03
 675  8.27404330   0.707  -0.77675   3.65146   7.03865   1.87432   0.00523   1.002E+00   5.807E-03  -6.922E-03
 676  8.27529827   0.707  -0.77674   3.65146   7.03863   1.87431   0.00519   1.002E+00   5.796E-03  -6.892E-03
 677  8.27654963   0.707  -0.77673   3.65146   7.03861   1.87431   0.00515   1.002E+00   5.785E-03  -6.862E-03
 678  8.27779739   0.707  -0.77673   3.65145   7.03859   1.87430   0.00512   1.002E+00   5.774E-03  -6.832E-03
 679  8.27904157   0.707  -0.77672   3.65145   7.03857   1.87429   0.00508   1.002E+00   5.763E-03  -6.802E-03
 680  8.28028220   0.707  -0.77671   3.65145   7.03855   1.87428   0.00504   1.002E+00   5.752E-03  -6.772E-03
 681  8.28151930   0.707  -0.77670   3.65144   7.03853   1.87428   0.00500   1.001E+00   5.742E-03  -6.742E-03
 682  8.28275288   0.707  -0.77670   3.65144   7.03851   1.87427   0.00497   1.001E+00   5.731E-03  -6.712E-03
 683  8.28398297   0.706  -0.77669   3.65144   7.03849   1.87426   0.00493   1.001E+00   5.720E-03  -6.682E-03
 684  8.28520959   0.706  -0.77668   3.65143   7.03847   1.87425   0.00489   1.001E+00   5.709E-03  -6.652E-03
 685  8.28643275   0.706  -0.77668   3.65143   7.03845   1.87425   0.00486   1.001E+00   5.698E-03  -6.622E-03
 686  8.28765247   0.706  -0.77667   3.65143   7.03843   1.87424   0.00482   1.001E+00   5.687E-03  -6.592E-03
 687  8.28886878   0.706  -0.77666   3.65142   7.03841   1.87423   0.00478   1.001E+00   5.676E-03  -6.562E-03
 688  8.29008169   0.706  -0.77666   3.65142   7.03839   1.87423   0.00474   1.001E+00   5.665E-03  -6.532E-03
 689  8.29129123   0.706  -0.77665   3.65142   7.03837   1.87422   0.00471   1.001E+00   5.654E-03  -6.502E-03
 690  8.29249740   0.706  -0.77664   3.65141   7.03835   1.87421   0.00467   1.001E+00   5.643E-03  -6.472E-03
 691  8.29370024   0.706  -0.77663   3.65141   7.03833   1.87420   0.00463   1.001E+00   5.632E-03  -6.442E-03
 692  8.29489975   0.706  -0.77663   3.65141   7.03832   1.87420   0.00460   1.001E+00   5.621E-03  -6.412E-03
 693  8.29609596   0.706  -0.77662   3.65140   7.03830   1.87419   0.00456   1.001E+00   5.610E-03  -6.382E-03
 694  8.29728888   0.706  -0.77661   3.65140   7.03828   1.87418   0.00452   1.001E+00   5.599E-03  -6.351E-03
 695  8.29847853   0.706  -0.77661   3.65140   7.03826   1.87417   0.00448   1.001E+00   5.588E-03  -6.321E-03
 696  8.29966494   0.706  -0.77660   3.65139   7.03824   1.87417   0.00445   1.001E+00   5.577E-03  -6.291E-03
 697  8.30084811   0.706  -0.77659   3.65139   7.03822   1.87416   0.00441   1.001E+00   5.566E-03  -6.261E-03
 698  8.30202807   0.706  -0.77659   3.65139   7.03820   1.87415   0.00437   1.001E+00   5.555E-03  -6.231E-03
 699  8.30320483   0.706  -0.77658   3.65138   7.03818   1.87414   0.00434   1.001E+00   5.544E-03  -6.201E-03
 700  8.30437841   0.706  -0.77657   3.65138   7.03816   1.87414   0.00430   1.001E+00   5.533E-03  -6.171E-03
 701  8.30554883   0.706  -0.77656   3.65138   7.03814   1.87413   0.00426   1.001E+00   5.522E-03  -6.141E-03
 702  8.30671610   0.706  -0.77656   3.65137   7.03812   1.87412   0.00422   1.001E+00   5.511E-03  -6.111E-03
 703  8.30788024   0.706  -0.77655   3.65137   7.03810   1.87412   0.00419   1.001E+00   5.500E-03  -6.081E-03
 704  8.30904127   0.706  -0.77654   3.65137   7.03808   1.87411   0.00415   1.001E+00   5.490E-03  -6.051E-03
 705  8.31019921   0.706  -0.77654   3.65136   7.03806   1.87410   0.00411   1.001E+00   5.479E-03  -6.021E-03
 706  8.31135406   0.706  -0.77653   3.65136   7.03804   1.87409   0.00408   1.001E+00   5.468E-03  -5.991E-03
 707  8.31250586   0.706  -0.77652   3.65136   7.03802   1.87409   0.00404   1.001E+00   5.457E-03  -5.961E-03
 708  8.31365460   0.706  -0.77652   3.65135   7.03800   1.87408   0.00400   1.001E+00   5.446E-03  -5.931E-03
 709  8.31480032   0.706  -0.77651   3.65135   7.03798   1.87407   0.00396   1.001E+00   5.435E-03  -5.901E-03
 710  8.31594302   0.706  -0.77650   3.65135   7.03796   1.87406   0.00393   1.001E+00   5.424E-03  -5.871E-03
 711  8.31708272   0.706  -0.77649   3.65134   7.03794   1.87406   0.00389   1.001E+00   5.413E-03  -5.841E-03
 712  8.31821944   0.706  -0.77649   3.65134   7.03793   1.87405   0.00385   1.001E+00   5.402E-03  -5.811E-03
 713  8.31935320   0.706  -0.77648   3.65134   7.03791   1.87404   0.00382   1.001E+00   5.391E-03  -5.781E-03
 714  8.32048400   0.706  -0.77647   3.65133   7.03789   1.87403   0.00378   1.001E+00   5.380E-03  -5.751E-03
 715  8.32161186   0.706  -0.77647   3.65133   7.03787   1.87403   0.00374   1.001E+00   5.369E-03  -5.721E-03
 716  8.32273680   0.706  -0.77646   3.65133   7.03785   1.87402   0.00370   1.001E+00   5.358E-03  -5.691E-03
 717  8.32385884   0.706  -0.77645   3.65132   7.03783   1.87401   0.00367   1.001E+00   5.347E-03  -5.661E-03
 718  8.32497798   0.706  -0.77645   3.65132   7.03781   1.87401   0.00363   1.001E+00   5.336E-03  -5.631E-03
 719  8.32609425   0.706  -0.77644   3.65132   7.03779   1.87400   0.00359   1.001E+00   5.325E-03  -5.601E-03
 720  8.32720766   0.706  -0.77643   3.65131   7.03777   1.87399   0.00356   1.001E+00   5.314E-03  -5.571E-03
 721  8.32831822   0.706  -0.77642   3.65131   7.03775   1.87398   0.00352   1.001E+00   5.303E-03  -5.541E-03
 722  8.32942594   0.706  -0.77642   3.65131   7.03773   1.87398   0.00348   1.001E+00   5.292E-03  -5.511E-03
 723  8.33053085   0.706  -0.77641   3.65130   7.03771   1.87397   0.00344   1.001E+00   5.281E-03  -5.481E-03
 724  8.33163295   0.706  -0.77640   3.65130   7.03769   1.87396   0.00341   1.001E+00   5.270E-03  -5.451E-03
 725  8.33273227   0.706  -0.77640   3.65130   7.03767   1.87395   0.00337   1.001E+00   5.259E-03  -5.421E-03
 726  8.33382881   0.706  -0.77639   3.65129   7.03765   1.87395   0.00333   1.000E+00   5.249E-03  -5.391E-03
 727  8.33492258   0.706  -0.77638   3.65129   7.03763   1.87394   0.00330   1.000E+00   5.238E-03  -5.361E-03
 728  8.33601361   0.706  -0.77638   3.65129   7.03761   1.87393   0.00326   1.000E+00   5.227E-03  -5.331E-03
 729  8.33710191   0.706  -0.77637   3.65128   7.03759   1.87392   0.00322   1.000E+00   5.216E-03  -5.301E-03
 730  8.33818748   0.706  -0.77636   3.65128   7.03757   1.87392   0.00318   1.000E+00   5.205E-03  -5.271E-03
 731  8.33927035   0.706  -0.77635   3.65128   7.03755   1.87391   0.00315   1.000E+00   5.194E-03  -5.241E-03
 732  8.34035053   0.706  -0.77635   3.65127   7.03754   1.87390   0.00311   1.000E+00   5.183E-03  -5.211E-03
 733  8.34142802   0.706  -0.77634   3.65127   7.03752   1.87390   0.00307   1.000E+00   5.172E-03  -5.181E-03
 734  8.34250285   0.706  -0.77633   3.65127   7.03750   1.87389   0.00304   1.000E+00   5.161E-03  -5.151E-03
 735  8.34357503   0.706  -0.77633   3.65126   7.03748   1.87388   0.00300   1.000E+00   5.150E-03  -5.121E-03
 736  8.34464456   0.706  -0.77632   3.65126   7.03746   1.87387   0.00296   1.000E+00   5.139E-03  -5.091E-03
 737  8.34571147   0.706  -0.77631   3.65126   7.03744   1.87387   0.00292   1.000E+00   5.128E-03  -5.061E-03
 738  8.34677576   0.706  -0.77630   3.65126   7.03742   1.87386   0.00289   1.000E+00   5.117E-03  -5.031E-03
 739  8.34783745   0.706  -0.77630   3.65125   7.03740   1.87385   0.00285   1.000E+00   5.106E-03  -5.001E-03
 740  8.34889655   0.706  -0.77629   3.65125   7.03738   1.87384   0.00281   1.000E+00   5.095E-03  -4.971E-03
 741  8.34995308   0.706  -0.77628   3.65125   7.03736   1.87384   0.00278   1.000E+00   5.084E-03  -4.941E-03
 742  8.35100704   0.706  -0.77628   3.65124   7.03734   1.87383   0.00274   1.000E+00   5.073E-03  -4.911E-03
 743  8.35205845   0.706  -0.77627   3.65124   7.03732   1.87382   0.00270   1.000E+00   5.062E-03  -4.881E-03
 744  8.35310732   0.706  -0.77626   3.65124   7.03730   1.87381   0.00266   1.000E+00   5.051E-03  -4.851E-03
 745  8.35415366   0.706  -0.77626   3.65123   7.03728   1.87381   0.00263   1.000E+00   5.040E-03  -4.821E-03
 746  8.35519749   0.706  -0.77625   3.65123   7.03726   1.87380   0.00259   1.000E+00   5.029E-03  -4.791E-03
 747  8.35623881   0.706  -0.77624   3.65123   7.03724   1.87379   0.00255   1.000E+00   5.018E-03  -4.761E-03
 748  8.35727765   0.706  -0.77623   3.65122   7.03722   1.87379   0.00252   1.000E+00   5.008E-03  -4.731E-03
 749  8.35831400   0.706  -0.77623   3.65122   7.03721   1.87378   0.00249   1.000E+00   4.998E-03  -4.706E-03
 750  8.35934789   0.706  -0.77622   3.65122   7.03719   1.87378   0.00247   1.000E+00   4.990E-03  -4.693E-03
 751  8.36037932   0.705  -0.77622   3.65122   7.03718   1.87378   0.00246   1.000E+00   4.983E-03  -4.679E-03
 752  8.36140831   0.705  -0.77621   3.65121   7.03717   1.87378   0.00244   1.000E+00   4.976E-03  -4.666E-03
 753  8.36243487   0.705  -0.77620   3.65121   7.03716   1.87377   0.00243   9.999E-01   4.968E-03  -4.653E-03
 754  8.36345900   0.705  -0.77620   3.65121   7.03715   1.87377   0.00242   9.999E-01   4.961E-03  -4.640E-03
 755  8.36448073   0.705  -0.77619   3.65121   7.03714   1.87377   0.00240   9.999E-01   4.954E-03  -4.627E-03
 756  8.36550006   0.705  -0.77618   3.65121   7.03713   1.87377   0.00239   9.999E-01   4.947E-03  -4.613E-03
 757  8.36651700   0.705  -0.77618   3.65120   7.03711   1.87377   0.00238   9.999E-01   4.939E-03  -4.600E-03
 758  8.36753157   0.705  -0.77617   3.65120   7.03710   1.87377   0.00236   9.999E-01   4.932E-03  -4.587E-03
 759  8.36854377   0.705  -0.77617   3.65120   7.03709   1.87377   0.00235   9.998E-01   4.925E-03  -4.574E-03
 760  8.36955362   0.705  -0.77616   3.65120   7.03708   1.87377   0.00233   9.998E-01   4.917E-03  -4.560E-03
 761  8.37056112   0.705  -0.77615   3.65120   7.03707   1.87376   0.00232   9.998E-01   4.910E-03  -4.547E-03
 762  8.37156629   0.705  -0.77615   3.65120   7.03706   1.87376   0.00231   9.998E-01   4.903E-03  -4.534E-03
 763  8.37256915   0.705  -0.77614   3.65119   7.03705   1.87376   0.00229   9.998E-01   4.895E-03  -4.521E-03
 764  8.37356969   0.705  -0.77613   3.65119   7.03703   1.87376   0.00228   9.998E-01   4.888E-03  -4.508E-03
 765  8.37456793   0.705  -0.77613   3.65119   7.03702   1.87376   0.00226   9.998E-01   4.881E-03  -4.494E-03
 766  8.37556388   0.705  -0.77612   3.65119   7.03701   1.87376   0.00225   9.997E-01   4.874E-03  -4.481E-03
 767  8.37655756   0.705  -0.77611   3.65119   7.03700   1.87376   0.00224   9.997E-01   4.866E-03  -4.468E-03
 768  8.37754896   0.705  -0.77611   3.65118   7.03699   1.87376   0.00222   9.997E-01   4.859E-03  -4.455E-03
 769  8.37853811   0.705  -0.77610   3.65118   7.03698   1.87375   0.00221   9.997E-01   4.852E-03  -4.441E-03
 770  8.37952501   0.705  -0.77610   3.65118   7.03697   1.87375   0.00220   9.997E-01   4.844E-03  -4.428E-03
 771  8.38050967   0.705  -0.77609   3.65118   7.03695   1.87375   0.00218   9.997E-01   4.837E-03  -4.415E-03
 772  8.38149211   0.705  -0.77608   3.65118   7.03694   1.87375   0.00217   9.997E-01   4.830E-03  -4.402E-03
 773  8.38247232   0.705  -0.77608   3.65118   7.03693   1.87375   0.00215   9.996E-01   4.822E-03  -4.389E-03
 774  8.38345033   0.705  -0.77607   3.65117   7.03692   1.87375   0.00214   9.996E-01   4.815E-03  -4.375E-03
 775  8.38442614   0.705  -0.77606   3.65117   7.03691   1.87375   0.00213   9.996E-01   4.808E-03  -4.362E-03
 776  8.38539977   0.705  -0.77606   3.65117   7.03690   1.87375   0.00211   9.996E-01   4.801E-03  -4.349E-03
 777  8.38637122   0.705  -0.77605   3.65117   7.03689   1.87374   0.00210   9.996E-01   4.793E-03  -4.336E-03
 778  8.38734050   0.705  -0.77605   3.65117   7.03687   1.87374   0.00209   9.996E-01   4.786E-03  -4.323E-03
 779  8.38830762   0.705  -0.77604   3.65116   7.03686   1.87374   0.00207   9.996E-01   4.779E-03  -4.309E-03
 780  8.38927259   0.705  -0.77603   3.65116   7.03685   1.87374   0.00206   9.995E-01   4.771E-03  -4.296E-03
 781  8.39023542   0.705  -0.77603   3.65116   7.03684   1.87374   0.00204   9.995E-01   4.764E-03  -4.283E-03
 782  8.39119612   0.705  -0.77602   3.65116   7.03683   1.87374   0.00203   9.995E-01   4.757E-03  -4.270E-03
 783  8.39215470   0.705  -0.77601   3.65116   7.03682   1.87374   0.00202   9.995E-01   4.749E-03  -4.256E-03
 784  8.39311117   0.705  -0.77601   3.65116   7.03681   1.87374   0.00200   9.995E-01   4.742E-03  -4.243E-03
 785  8.39406554   0.705  -0.77600   3.65115   7.03679   1.87373   0.00199   9.995E-01   4.735E-03  -4.230E-03
 786  8.39501782   0.705  -0.77600   3.65115   7.03678   1.87373   0.00197   9.995E-01   4.727E-03  -4.217E-03
 787  8.39596801   0.705  -0.77599   3.65115   7.03677   1.87373   0.00196   9.994E-01   4.720E-03  -4.204E-03
 788  8.39691613   0.705  -0.77598   3.65115   7.03676   1.87373   0.00195   9.994E-01   4.713E-03  -4.190E-03
 789  8.39786218   0.705  -0.77598   3.65115   7.03675   1.87373   0.00193   9.994E-01   4.706E-03  -4.177E-03
 790  8.39880618   0.705  -0.77597   3.65114   7.03674   1.87373   0.00192   9.994E-01   4.698E-03  -4.164E-03
 791  8.39974813   0.705  -0.77596   3.65114   7.03672   1.87373   0.00191   9.994E-01   4.691E-03  -4.151E-03
 792  8.40068804   0.705  -0.77596   3.65114   7.03671   1.87373   0.00189   9.994E-01   4.684E-03  -4.137E-03
 793  8.40162592   0.705  -0.77595   3.65114   7.03670   1.87372   0.00188   9.994E-01   4.676E-03  -4.124E-03
 794  8.40256178   0.705  -0.77595   3.65114   7.03669   1.87372   0.00186   9.993E-01   4.669E-03  -4.111E-03
 795  8.40349563   0.705  -0.77594   3.65114   7.03668   1.87372   0.00185   9.993E-01   4.662E-03  -4.098E-03
 796  8.40442747   0.705  -0.77593   3.65113   7.03667   1.87372   0.00184   9.993E-01   4.654E-03  -4.085E-03
 797  8.40535732   0.705  -0.77593   3.65113   7.03666   1.87372   0.00182   9.993E-01   4.647E-03  -4.071E-03
 798  8.40628518   0.705  -0.77592   3.65113   7.03664   1.87372   0.00181   9.993E-01   4.640E-03  -4.058E-03
 799  8.40721106   0.705  -0.77591   3.65113   7.03663   1.87372   0.00180   9.993E-01   4.633E-03  -4.045E-03
 800  8.40813498   0.705  -0.77591   3.65113   7.03662   1.87372   0.00178   9.993E-01   4.625E-03  -4.032E-03
 801  8.40905693   0.705  -0.77590   3.65112   7.03661   1.87372   0.00177   9.992E-01   4.618E-03  -4.018E-03
 802  8.40997693   0.705  -0.77590   3.65112   7.03660   1.87371   0.00175   9.992E-01   4.611E-03  -4.005E-03
 803  8.41089498   0.705  -0.77589   3.65112   7.03659   1.87371   0.00174   9.992E-01   4.603E-03  -3.992E-03
 804  8.41181110   0.705  -0.77588   3.65112   7.03658   1.87371   0.00173   9.992E-01   4.596E-03  -3.979E-03
 805  8.41272529   0.705  -0.77588   3.65112   7.03656   1.87371   0.00171   9.992E-01   4.589E-03  -3.966E-03
 806  8.41363756   0.705  -0.77587   3.65112   7.03655   1.87371   0.00170   9.992E-01   4.581E-03  -3.952E-03
 807  8.41454792   0.705  -0.77586   3.65111   7.03654   1.87371   0.00169   9.991E-01   4.574E-03  -3.939E-03
 808  8.41545637   0.705  -0.77586   3.65111   7.03653   1.87371   0.00167   9.991E-01   4.567E-03  -3.926E-03
 809  8.41636293   0.705  -0.77585   3.65111   7.03652   1.87371   0.00166   9.991E-01   4.560E-03  -3.913E-03
 810  8.41726760   0.705  -0.77584   3.65111   7.03651   1.87370   0.00164   9.991E-01   4.552E-03  -3.900E-03
 811  8.41817038   0.705  -0.77584   3.65111   7.03650   1.87370   0.00163   9.991E-01   4.545E-03  -3.886E-03
 812  8.41907130   0.705  -0.77583   3.65110   7.03648   1.87370   0.00162   9.991E-01   4.538E-03  -3.873E-03
 813  8.41997035   0.705  -0.77583   3.65110   7.03647   1.87370   0.00160   9.991E-01   4.530E-03  -3.860E-03
 814  8.42086754   0.705  -0.77582   3.65110   7.03646   1.87370   0.00159   9.990E-01   4.523E-03  -3.847E-03
 815  8.42176288   0.705  -0.77581   3.65110   7.03645   1.87370   0.00157   9.990E-01   4.516E-03  -3.833E-03
 816  8.42265639   0.705  -0.77581   3.65110   7.03644   1.87370   0.00156   9.990E-01   4.508E-03  -3.820E-03
 817  8.42354805   0.705  -0.77580   3.65110   7.03643   1.87370   0.00155   9.990E-01   4.501E-03  -3.807E-03
 818  8.42443789   0.705  -0.77579   3.65109   7.03642   1.87369   0.00153   9.990E-01   4.494E-03  -3.794E-03
 819  8.42532591   0.704  -0.77579   3.65109   7.03640   1.87369   0.00152   9.990E-01   4.486E-03  -3.781E-03
 820  8.42621212   0.704  -0.77578   3.65109   7.03639   1.87369   0.00151   9.990E-01   4.479E-03  -3.767E-03
 821  8.42709652   0.704  -0.77578   3.65109   7.03638   1.87369   0.00149   9.989E-01   4.472E-03  -3.754E-03
 822  8.42797913   0.704  -0.77577   3.65109   7.03637   1.87369   0.00148   9.989E-01   4.465E-03  -3.741E-03
 823  8.42885994   0.704  -0.77576   3.65108   7.03636   1.87369   0.00146   9.989E-01   4.457E-03  -3.728E-03
 824  8.42973898   0.704  -0.77576   3.65108   7.03635   1.87369   0.00145   9.989E-01   4.450E-03  -3.714E-03
 825  8.43061623   0.704  -0.77575   3.65108   7.03633   1.87369   0.00144   9.989E-01   4.443E-03  -3.701E-03
 826  8.43149172   0.704  -0.77574   3.65108   7.03632   1.87368   0.00142   9.989E-01   4.435E-03  -3.688E-03
 827  8.43236545   0.704  -0.77574   3.65108   7.03631   1.87368   0.00141   9.989E-01   4.428E-03  -3.675E-03
 828  8.43323742   0.704  -0.77573   3.65108   7.03630   1.87368   0.00140   9.988E-01   4.421E-03  -3.662E-03
 829  8.43410765   0.704  -0.77573   3.65107   7.03629   1.87368   0.00138   9.988E-01   4.413E-03  -3.648E-03
 830  8.43497613   0.704  -0.77572   3.65107   7.03628   1.87368   0.00137   9.988E-01   4.406E-03  -3.635E-03
 831  8.43584289   0.704  -0.77571   3.65107   7.03627   1.87368   0.00135   9.988E-01   4.399E-03  -3.622E-03
 832  8.43670791   0.704  -0.77571   3.65107   7.03625   1.87368   0.00134   9.988E-01   4.392E-03  -3.609E-03
 833  8.43757122   0.704  -0.77570   3.65107   7.03624   1.87368   0.00133   9.988E-01   4.384E-03  -3.595E-03
 834  8.43843281   0.704  -0.77569   3.65106   7.03623   1.87367   0.00131   9.988E-01   4.377E-03  -3.582E-03
 835  8.43929270   0.704  -0.77569   3.65106   7.03622   1.87367   0.00130   9.987E-01   4.370E-03  -3.569E-03
 836  8.44015089   0.704  -0.77568   3.65106   7.03621   1.87367   0.00128   9.987E-01   4.362E-03  -3.556E-03
 837  8.44100739   0.704  -0.77568   3.65106   7.03620   1.87367   0.00127   9.987E-01   4.355E-03  -3.543E-03
 838  8.44186220   0.704  -0.77567   3.65106   7.03619   1.87367   0.00126   9.987E-01   4.348E-03  -3.529E-03
 839  8.44271533   0.704  -0.77566   3.65106   7.03617   1.87367   0.00124   9.987E-01   4.340E-03  -3.516E-03
 840  8.44356679   0.704  -0.77566   3.65105   7.03616   1.87367   0.00123   9.987E-01   4.333E-03  -3.503E-03
 841  8.44441658   0.704  -0.77565   3.65105   7.03615   1.87367   0.00122   9.987E-01   4.326E-03  -3.490E-03
 842  8.44526471   0.704  -0.77564   3.65105   7.03614   1.87366   0.00120   9.986E-01   4.319E-03  -3.477E-03
 843  8.44611119   0.704  -0.77564   3.65105   7.03613   1.87366   0.00119   9.986E-01   4.311E-03  -3.463E-03
 844  8.44695602   0.704  -0.77563   3.65105   7.03612   1.87366   0.00117   9.986E-01   4.304E-03  -3.450E-03
 845  8.44779922   0.704  -0.77563   3.65104   7.03611   1.87366   0.00116   9.986E-01   4.297E-03  -3.437E-03
 846  8.44864078   0.704  -0.77562   3.65104   7.03609   1.87366   0.00115   9.986E-01   4.289E-03  -3.424E-03
 847  8.44948071   0.704  -0.77561   3.65104   7.03608   1.87366   0.00113   9.986E-01   4.282E-03  -3.410E-03
 848  8.45031902   0.704  -0.77561   3.65104   7.03607   1.87366   0.00112   9.985E-01   4.275E-03  -3.397E-03
 849  8.45115571   0.704  -0.77560   3.65104   7.03606   1.87366   0.00111   9.985E-01   4.267E-03  -3.384E-03
 850  8.45199080   0.704  -0.77559   3.65104   7.03605   1.87365   0.00109   9.985E-01   4.260E-03  -3.371E-03
 851  8.45282428   0.704  -0.77559   3.65103   7.03604   1.87365   0.00108   9.985E-01   4.253E-03  -3.358E-03
 852  8.45365617   0.704  -0.77558   3.65103   7.03603   1.87365   0.00106   9.985E-01   4.245E-03  -3.344E-03
 853  8.45448647   0.704  -0.77557   3.65103   7.03601   1.87365   0.00105   9.985E-01   4.238E-03  -3.331E-03
 854  8.45531518   0.704  -0.77557   3.65103   7.03600   1.87365   0.00104   9.985E-01   4.231E-03  -3.318E-03
 855  8.45614231   0.704  -0.77556   3.65103   7.03599   1.87365   0.00102   9.984E-01   4.224E-03  -3.305E-03
 856  8.45696787   0.704  -0.77556   3.65102   7.03598   1.87365   0.00101   9.984E-01   4.216E-03  -3.291E-03
 857  8.45779187   0.704  -0.77555   3.65102   7.03597   1.87365   0.00099   9.984E-01   4.209E-03  -3.278E-03
 858  8.45861430   0.704  -0.77554   3.65102   7.03596   1.87364   0.00098   9.984E-01   4.202E-03  -3.265E-03
 859  8.45943518   0.704  -0.77554   3.65102   7.03595   1.87364   0.00097   9.984E-01   4.194E-03  -3.252E-03
 860  8.46025452   0.704  -0.77553   3.65102   7.03593   1.87364   0.00095   9.984E-01   4.187E-03  -3.239E-03
 861  8.46107231   0.704  -0.77552   3.65101   7.03592   1.87364   0.00094   9.984E-01   4.180E-03  -3.225E-03
 862  8.46188856   0.704  -0.77552   3.65101   7.03591   1.87364   0.00093   9.983E-01   4.172E-03  -3.212E-03
 863  8.46270328   0.704  -0.77551   3.65101   7.03590   1.87364   0.00091   9.983E-01   4.165E-03  -3.199E-03
 864  8.46351647   0.704  -0.77551   3.65101   7.03589   1.87364   0.00090   9.983E-01   4.158E-03  -3.186E-03
 865  8.46432815   0.704  -0.77550   3.65101   7.03588   1.87364   0.00088   9.983E-01   4.151E-03  -3.172E-03
 866  8.46513831   0.704  -0.77549   3.65101   7.03586   1.87363   0.00087   9.983E-01   4.143E-03  -3.159E-03
 867  8.46594696   0.704  -0.77549   3.65100   7.03585   1.87363   0.00086   9.983E-01   4.136E-03  -3.146E-03
 868  8.46675411   0.704  -0.77548   3.65100   7.03584   1.87363   0.00084   9.983E-01   4.129E-03  -3.133E-03
 869  8.46755976   0.704  -0.77547   3.65100   7.03583   1.87363   0.00083   9.982E-01   4.121E-03  -3.120E-03
 870  8.46836392   0.704  -0.77547   3.65100   7.03582   1.87363   0.00082   9.982E-01   4.114E-03  -3.106E-03
 871  8.46916660   0.704  -0.77546   3.65100   7.03581   1.87363   0.00080   9.982E-01   4.107E-03  -3.093E-03
 872  8.46996779   0.704  -0.77546   3.65099   7.03580   1.87363   0.00079   9.982E-01   4.099E-03  -3.080E-03
 873  8.47076751   0.704  -0.77545   3.65099   7.03578   1.87363   0.00077   9.982E-01   4.092E-03  -3.067E-03
 874  8.47156576   0.704  -0.77544   3.65099   7.03577   1.87362   0.00076   9.982E-01   4.085E-03  -3.053E-03
 875  8.47236254   0.704  -0.77544   3.65099   7.03576   1.87362   0.00075   9.982E-01   4.078E-03  -3.040E-03
 876  8.47315787   0.704  -0.77543   3.65099   7.03575   1.87362   0.00073   9.981E-01   4.070E-03  -3.027E-03
 877  8.47395174   0.704  -0.77542   3.65099   7.03574   1.87362   0.00072   9.981E-01   4.063E-03  -3.014E-03
 878  8.47474416   0.704  -0.77542   3.65098   7.03573   1.87362   0.00071   9.981E-01   4.056E-03  -3.001E-03
 879  8.47553514   0.704  -0.77541   3.65098   7.03572   1.87362   0.00069   9.981E-01   4.048E-03  -2.987E-03
 880  8.47632468   0.704  -0.77541   3.65098   7.03570   1.87362   0.00068   9.981E-01   4.041E-03  -2.974E-03
 881  8.47711279   0.704  -0.77540   3.65098   7.03569   1.87362   0.00066   9.981E-01   4.034E-03  -2.961E-03
 882  8.47789947   0.704  -0.77539   3.65098   7.03568   1.87361   0.00065   9.981E-01   4.026E-03  -2.948E-03
 883  8.47868473   0.704  -0.77539   3.65097   7.03567   1.87361   0.00064   9.980E-01   4.019E-03  -2.935E-03
 884  8.47946857   0.704  -0.77538   3.65097   7.03566   1.87361   0.00062   9.980E-01   4.012E-03  -2.921E-03
 885  8.48025100   0.704  -0.77537   3.65097   7.03565   1.87361   0.00061   9.980E-01   4.004E-03  -2.908E-03
 886  8.48103202   0.703  -0.77537   3.65097   7.03564   1.87361   0.00060   9.980E-01   4.000E-03  -2.898E-03
 887  8.48181164   0.703  -0.77536   3.65097   7.03563   1.87361   0.00060   9.980E-01   4.000E-03  -2.892E-03
 888  8.48258986   0.703  -0.77536   3.65097   7.03563   1.87361   0.00059   9.980E-01   4.000E-03  -2.887E-03
 889  8.48336669   0.703  -0.77535   3.65097   7.03562   1.87362   0.00059   9.980E-01   4.000E-03  -2.881E-03
 890  8.48414213   0.703  -0.77534   3.65097   7.03562   1.87362   0.00059   9.980E-01   4.000E-03  -2.875E-03
 891  8.48491620   0.703  -0.77534   3.65097   7.03561   1.87362   0.00058   9.980E-01   4.000E-03  -2.870E-03
 892  8.48568888   0.703  -0.77533   3.65096   7.03560   1.87362   0.00058   9.980E-01   4.000E-03  -2.864E-03
 893  8.48646019   0.703  -0.77533   3.65096   7.03560   1.87362   0.00058   9.980E-01   4.000E-03  -2.858E-03
 894  8.48723014   0.703  -0.77532   3.65096   7.03559   1.87363   0.00058   9.980E-01   4.000E-03  -2.853E-03
 895  8.48799872   0.703  -0.77531   3.65096   7.03559   1.87363   0.00057   9.980E-01   4.000E-03  -2.847E-03
 896  8.48876594   0.703  -0.77531   3.65096   7.03558   1.87363   0.00057   9.980E-01   4.000E-03  -2.841E-03
 897  8.48953181   0.703  -0.77530   3.65096   7.03558   1.87363   0.00057   9.980E-01   4.000E-03  -2.836E-03
 898  8.49029634   0.703  -0.77530   3.65096   7.03557   1.87363   0.00056   9.980E-01   4.000E-03  -2.830E-03
 899  8.49105952   0.703  -0.77529   3.65096   7.03557   1.87363   0.00056   9.980E-01   4.000E-03  -2.824E-03
 900  8.49182136   0.703  -0.77529   3.65096   7.03556   1.87364   0.00056   9.980E-01   4.000E-03  -2.819E-03
 901  8.49258186   0.703  -0.77528   3.65096   7.03555   1.87364   0.00056   9.980E-01   4.000E-03  -2.813E-03
 902  8.49334104   0.703  -0.77527   3.65096   7.03555   1.87364   0.00055   9.980E-01   4.000E-03  -2.807E-03
 903  8.49409889   0.703  -0.77527   3.65095   7.03554   1.87364   0.00055   9.980E-01   4.000E-03  -2.802E-03
 904  8.49485542   0.703  -0.77526   3.65095   7.03554   1.87364   0.00055   9.980E-01   4.000E-03  -2.796E-03
 905  8.49561064   0.703  -0.77526   3.65095   7.03553   1.87365   0.00054   9.980E-01   4.000E-03  -2.791E-03
 906  8.49636455   0.703  -0.77525   3.65095   7.03553   1.87365   0.00054   9.980E-01   4.000E-03  -2.785E-03
 907  8.49711715   0.703  -0.77524   3.65095   7.03552   1.87365   0.00054   9.980E-01   4.000E-03  -2.779E-03
 908  8.49786844   0.703  -0.77524   3.65095   7.03551   1.87365   0.00053   9.980E-01   4.000E-03  -2.774E-03
 909  8.49861844   0.703  -0.77523   3.65095   7.03551   1.87365   0.00053   9.980E-01   4.000E-03  -2.768E-03
 910  8.49936715   0.703  -0.77523   3.65095   7.03550   1.87366   0.00053   9.980E-01   4.000E-03  -2.762E-03
 911  8.50011457   0.703  -0.77522   3.65095   7.03550   1.87366   0.00053   9.980E-01   4.000E-03  -2.757E-03
 912  8.50086070   0.703  -0.77521   3.65095   7.03549   1.87366   0.00052   9.980E-01   4.000E-03  -2.751E-03
 913  8.50160556   0.703  -0.77521   3.65095   7.03549   1.87366   0.00052   9.980E-01   4.000E-03  -2.745E-03
 914  8.50234914   0.703  -0.77520   3.65095   7.03548   1.87366   0.00052   9.980E-01   4.000E-03  -2.740E-03
 915  8.50309144   0.703  -0.77520   3.65094   7.03548   1.87366   0.00051   9.980E-01   4.000E-03  -2.734E-03
 916  8.50383249   0.703  -0.77519   3.65094   7.03547   1.87367   0.00051   9.980E-01   4.000E-03  -2.728E-03
 917  8.50457227   0.703  -0.77519   3.65094   7.03546   1.87367   0.00051   9.980E-01   4.000E-03  -2.723E-03
 918  8.50531079   0.703  -0.77518   3.65094   7.03546   1.87367   0.00051   9.980E-01   4.000E-03  -2.717E-03
 919  8.50604805   0.703  -0.77517   3.65094   7.03545   1.87367   0.00050   9.980E-01   4.000E-03  -2.711E-03
 920  8.50678407   0.703  -0.77517   3.65094   7.03545   1.87367   0.00050   9.980E-01   4.000E-03  -2.706E-03
 921  8.50751885   0.703  -0.77516   3.65094   7.03544   1.87368   0.00050   9.980E-01   4.000E-03  -2.700E-03
 922  8.50825238   0.703  -0.77516   3.65094   7.03544   1.87368   0.00049   9.980E-01   4.000E-03  -2.694E-03
 923  8.50898467   0.703  -0.77515   3.65094   7.03543   1.87368   0.00049   9.980E-01   4.000E-03  -2.689E-03
 924  8.50971573   0.703  -0.77514   3.65094   7.03543   1.87368   0.00049   9.980E-01   4.000E-03  -2.683E-03
 925  8.51044557   0.703  -0.77514   3.65094   7.03542   1.87368   0.00048   9.980E-01   4.000E-03  -2.678E-03
 926  8.51117418   0.703  -0.77513   3.65093   7.03541   1.87368   0.00048   9.980E-01   4.000E-03  -2.672E-03
 927  8.51190157   0.703  -0.77513   3.65093   7.03541   1.87369   0.00048   9.980E-01   4.000E-03  -2.666E-03
 928  8.51262774   0.703  -0.77512   3.65093   7.03540   1.87369   0.00048   9.980E-01   4.000E-03  -2.661E-03
 929  8.51335270   0.703  -0.77511   3.65093   7.03540   1.87369   0.00047   9.980E-01   4.000E-03  -2.655E-03
 930  8.51407645   0.703  -0.77511   3.65093   7.03539   1.87369   0.00047   9.980E-01   4.000E-03  -2.649E-03
 931  8.51479900   0.703  -0.77510   3.65093   7.03539   1.87369   0.00047   9.980E-01   4.000E-03  -2.644E-03
 932  8.51552035   0.703  -0.77510   3.65093   7.03538   1.87370   0.00046   9.980E-01   4.000E-03  -2.638E-03
 933  8.51624050   0.703  -0.77509   3.65093   7.03537   1.87370   0.00046   9.980E-01   4.000E-03  -2.632E-03
 934  8.51695946   0.703  -0.77508   3.65093   7.03537   1.87370   0.00046   9.980E-01   4.000E-03  -2.627E-03
 935  8.51767723   0.703  -0.77508   3.65093   7.03536   1.87370   0.00046   9.980E-01   4.000E-03  -2.621E-03
 936  8.51839382   0.703  -0.77507   3.65093   7.03536   1.87370   0.00045   9.980E-01   4.000E-03  -2.615E-03
 937  8.51910923   0.703  -0.77507   3.65092   7.03535   1.87371   0.00045   9.980E-01   4.000E-03  -2.610E-03
 938  8.51982346   0.703  -0.77506   3.65092   7.03535   1.87371   0.00045   9.980E-01   4.000E-03  -2.604E-03
 939  8.52053651   0.703  -0.77506   3.65092   7.03534   1.87371   0.00044   9.980E-01   4.000E-03  -2.598E-03
 940  8.52124840   0.703  -0.77505   3.65092   7.03534   1.87371   0.00044   9.980E-01   4.000E-03  -2.593E-03
 941  8.52195913   0.703  -0.77504   3.65092   7.03533   1.87371   0.00044   9.980E-01   4.000E-03  -2.587E-03
 942  8.52266869   0.703  -0.77504   3.65092   7.03532   1.87371   0.00044   9.980E-01   4.000E-03  -2.582E-03
 943  8.52337709   0.703  -0.77503   3.65092   7.03532   1.87372   0.00043   9.980E-01   4.000E-03  -2.576E-03
 944  8.52408435   0.703  -0.77503   3.65092   7.03531   1.87372   0.00043   9.980E-01   4.000E-03  -2.570E-03
 945  8.52479045   0.703  -0.77502   3.65092   7.03531   1.87372   0.00043   9.980E-01   4.000E-03  -2.565E-03
 946  8.52549540   0.703  -0.77501   3.65092   7.03530   1.87372   0.00042   9.980E-01   4.000E-03  -2.559E-03
 947  8.52619922   0.703  -0.77501   3.65092   7.03530   1.87372   0.00042   9.980E-01   4.000E-03  -2.553E-03
 948  8.52690189   0.703  -0.77500   3.65092   7.03529   1.87373   0.00042   9.980E-01   4.000E-03  -2.548E-03
 949  8.52760343   0.703  -0.77500   3.65091   7.03529   1.87373   0.00041   9.980E-01   4.000E-03  -2.542E-03
 950  8.52830384   0.703  -0.77499   3.65091   7.03528   1.87373   0.00041   9.980E-01   4.000E-03  -2.536E-03
 951  8.52900312   0.703  -0.77498   3.65091   7.03527   1.87373   0.00041   9.980E-01   4.000E-03  -2.531E-03
 952  8.52970127   0.702  -0.77498   3.65091   7.03527   1.87373   0.00041   9.980E-01   4.000E-03  -2.525E-03
 953  8.53039831   0.702  -0.77497   3.65091   7.03526   1.87373   0.00040   9.980E-01   4.000E-03  -2.519E-03
 954  8.53109423   0.702  -0.77497   3.65091   7.03526   1.87374   0.00040   9.980E-01   4.000E-03  -2.514E-03
 955  8.53178903   0.702  -0.77496   3.65091   7.03525   1.87374   0.00040   9.980E-01   4.000E-03  -2.508E-03
 956  8.53248273   0.702  -0.77496   3.65091   7.03525   1.87374   0.00039   9.980E-01   4.000E-03  -2.502E-03
 957  8.53317532   0.702  -0.77495   3.65091   7.03524   1.87374   0.00039   9.980E-01   4.000E-03  -2.497E-03
 958  8.53386680   0.702  -0.77494   3.65091   7.03523   1.87374   0.00039   9.980E-01   4.000E-03  -2.491E-03
 959  8.53455719   0.702  -0.77494   3.65091   7.03523   1.87375   0.00039   9.980E-01   4.000E-03  -2.486E-03
 960  8.53524648   0.702  -0.77493   3.65090   7.03522   1.87375   0.00038   9.980E-01   4.000E-03  -2.480E-03
 961  8.53593468   0.702  -0.77493   3.65090   7.03522   1.87375   0.00038   9.980E-01   4.000E-03  -2.474E-03
 962  8.53662179   0.702  -0.77492   3.65090   7.03521   1.87375   0.00038   9.980E-01   4.000E-03  -2.469E-03
 963  8.53730781   0.702  -0.77491   3.65090   7.03521   1.87375   0.00037   9.980E-01   4.000E-03  -2.463E-03
 964  8.53799276   0.702  -0.77491   3.65090   7.03520   1.87376   0.00037   9.980E-01   4.000E-03  -2.457E-03
 965  8.53867662   0.702  -0.77490   3.65090   7.03520   1.87376   0.00037   9.980E-01   4.000E-03  -2.452E-03
 966  8.53935941   0.702  -0.77490   3.65090   7.03519   1.87376   0.00037   9.980E-01   4.000E-03  -2.446E-03
 967  8.54004113   0.702  -0.77489   3.65090   7.03518   1.87376   0.00036   9.980E-01   4.000E-03  -2.440E-03
 968  8.54072178   0.702  -0.77488   3.65090   7.03518   1.87376   0.00036   9.980E-01   4.000E-03  -2.435E-03
 969  8.54140136   0.702  -0.77488   3.65090   7.03517   1.87376   0.00036   9.980E-01   4.000E-03  -2.429E-03
 970  8.54207988   0.702  -0.77487   3.65090   7.03517   1.87377   0.00035   9.980E-01   4.000E-03  -2.423E-03
 971  8.54275735   0.702  -0.77487   3.65090   7.03516   1.87377   0.00035   9.980E-01   4.000E-03  -2.418E-03
 972  8.54343376   0.702  -0.77486   3.65089   7.03516   1.87377   0.00035   9.980E-01   4.000E-03  -2.412E-03
 973  8.54410911   0.702  -0.77486   3.65089   7.03515   1.87377   0.00034   9.980E-01   4.000E-03  -2.406E-03
 974  8.54478342   0.702  -0.77485   3.65089   7.03515   1.87377   0.00034   9.980E-01   4.000E-03  -2.401E-03
 975  8.54545668   0.702  -0.77484   3.65089   7.03514   1.87378   0.00034   9.980E-01   4.000E-03  -2.395E-03
 976  8.54612890   0.702  -0.77484   3.65089   7.03513   1.87378   0.00034   9.980E-01   4.000E-03  -2.390E-03
 977  8.54680008   0.702  -0.77483   3.65089   7.03513   1.87378   0.00033   9.980E-01   4.000E-03  -2.384E-03
 978  8.54747023   0.702  -0.77483   3.65089   7.03512   1.87378   0.00033   9.980E-01   4.000E-03  -2.378E-03
 979  8.54813934   0.702  -0.77482   3.65089   7.03512   1.87378   0.00033   9.980E-01   4.000E-03  -2.373E-03
 980  8.54880743   0.702  -0.77481   3.65089   7.03511   1.87378   0.00032   9.980E-01   4.000E-03  -2.367E-03
 981  8.54947449   0.702  -0.77481   3.65089   7.03511   1.87379   0.00032   9.980E-01   4.000E-03  -2.361E-03
 982  8.55014052   0.702  -0.77480   3.65089   7.03510   1.87379   0.00032   9.980E-01   4.000E-03  -2.356E-03
 983  8.55080554   0.702  -0.77480   3.65088   7.03509   1.87379   0.00032   9.980E-01   4.000E-03  -2.350E-03
 984  8.55146954   0.702  -0.77479   3.65088   7.03509   1.87379   0.00031   9.980E-01   4.000E-03  -2.344E-03
 985  8.55213252   0.702  -0.77478   3.65088   7.03508   1.87379   0.00031   9.980E-01   4.000E-03  -2.339E-03
 986  8.55279449   0.702  -0.77478   3.65088   7.03508   1.87380   0.00031   9.980E-01   4.000E-03  -2.333E-03
 987  8.55345546   0.702  -0.77477   3.65088   7.03507   1.87380   0.00030   9.980E-01   4.000E-03  -2.327E-03
 988  8.55411542   0.702  -0.77477   3.65088   7.03507   1.87380   0.00030   9.980E-01   4.000E-03  -2.322E-03
 989  8.55477438   0.702  -0.77476   3.65088   7.03506   1.87380   0.00030   9.980E-01   4.000E-03  -2.316E-03
 990  8.55543235   0.702  -0.77476   3.65088   7.03506   1.87380   0.00030   9.980E-01   4.000E-03  -2.310E-03
 991  8.55608931   0.702  -0.77475   3.65088   7.03505   1.87380   0.00029   9.980E-01   4.000E-03  -2.305E-03
 992  8.55674529   0.702  -0.77474   3.65088   7.03504   1.87381   0.00029   9.980E-01   4.000E-03  -2.299E-03
 993  8.55740028   0.702  -0.77474   3.65088   7.03504   1.87381   0.00029   9.980E-01   4.000E-03  -2.293E-03
 994  8.55805427   0.702  -0.77473   3.65088   7.03503   1.87381   0.00028   9.980E-01   4.000E-03  -2.288E-03
 995  8.55870729   0.702  -0.77473   3.65087   7.03503   1.87381   0.00028   9.980E-01   4.000E-03  -2.282E-03
 996  8.55935933   0.702  -0.77472   3.65087   7.03502   1.87381   0.00028   9.980E-01   4.000E-03  -2.277E-03
 997  8.56001038   0.702  -0.77471   3.65087   7.03502   1.87382   0.00027   9.980E-01   4.000E-03  -2.271E-03
 998  8.56066047   0.702  -0.77471   3.65087   7.03501   1.87382   0.00027   9.980E-01   4.000E-03  -2.265E-03
 999  8.56130958   0.702  -0.77470   3.65087   7.03501   1.87382   0.00027   9.980E-01   4.000E-03  -2.260E-03
1000  8.56195772   0.702  -0.77470   3.65087   7.03500   1.87382   0.00027   9.980E-01   4.000E-03  -2.254E-03
1001  8.56260490   0.702  -0.77469   3.65087   7.03499   1.87382   0.00026   9.980E-01   4.000E-03  -2.248E-03
1002  8.56325111   0.702  -0.77468   3.65087   7.03499   1.87383   0.00026   9.980E-01   4.000E-03  -2.243E-03
1003  8.56389637   0.702  -0.77468   3.65087   7.03498   1.87383   0.00026   9.980E-01   4.000E-03  -2.237E-03
1004  8.56454067   0.702  -0.77467   3.65087   7.03498   1.87383   0.00025   9.980E-01   4.000E-03  -2.231E-03
1005  8.56518401   0.702  -0.77467   3.65087   7.03497   1.87383   0.00025   9.980E-01   4.000E-03  -2.226E-03
1006  8.56582640   0.702  -0.77466   3.65086   7.03497   1.87383   0.00025   9.980E-01   4.000E-03  -2.220E-03
1007  8.56646784   0.702  -0.77465   3.65086   7.03496   1.87383   0.00025   9.980E-01   4.000E-03  -2.214E-03
1008  8.56710834   0.702  -0.77465   3.65086   7.03495   1.87384   0.00024   9.980E-01   4.000E-03  -2.209E-03
1009  8.56774789   0.702  -0.77464   3.65086   7.03495   1.87384   0.00024   9.980E-01   4.000E-03  -2.203E-03
1010  8.56838650   0.702  -0.77464   3.65086   7.03494   1.87384   0.00024   9.980E-01   4.000E-03  -2.197E-03
1011  8.56902418   0.702  -0.77463   3.65086   7.03494   1.87384   0.00023   9.980E-01   4.000E-03  -2.192E-03
1012  8.56966092   0.702  -0.77463   3.65086   7.03493   1.87384   0.00023   9.980E-01   4.000E-03  -2.186E-03
1013  8.57029673   0.702  -0.77462   3.65086   7.03493   1.87385   0.00023   9.980E-01   4.000E-03  -2.181E-03
1014  8.57093160   0.702  -0.77461   3.65086   7.03492   1.87385   0.00022   9.980E-01   4.000E-03  -2.175E-03
1015  8.57156556   0.702  -0.77461   3.65086   7.03492   1.87385   0.00022   9.980E-01   4.000E-03  -2.169E-03
1016  8.57219858   0.702  -0.77460   3.65086   7.03491   1.87385   0.00022   9.980E-01   4.000E-03  -2.164E-03
1017  8.57283069   0.701  -0.77460   3.65085   7.03490   1.87385   0.00022   9.980E-01   4.000E-03  -2.158E-03
1018  8.57346188   0.701  -0.77459   3.65085   7.03490   1.87385   0.00021   9.980E-01   4.000E-03  -2.152E-03
1019  8.57409215   0.701  -0.77458   3.65085   7.03489   1.87386   0.00021   9.980E-01   4.000E-03  -2.147E-03
1020  8.57472151   0.701  -0.77458   3.65085   7.03489   1.87386   0.00021   9.980E-01   4.000E-03  -2.141E-03
1021  8.57534995   0.701  -0.77457   3.65085   7.03488   1.87386   0.00020   9.980E-01   4.000E-03  -2.135E-03
1022  8.57597749   0.701  -0.77457   3.65085   7.03488   1.87386   0.00020   9.980E-01   4.000E-03  -2.130E-03
1023  8.57660413   0.701  -0.77456   3.65085   7.03487   1.87386   0.00020   9.980E-01   4.000E-03  -2.124E-03
1024  8.57722986   0.701  -0.77455   3.65085   7.03487   1.87387   0.00020   9.980E-01   4.000E-03  -2.118E-03
1025  8.57785469   0.701  -0.77455   3.65085   7.03486   1.87387   0.00019   9.980E-01   4.000E-03  -2.113E-03
1026  8.57847862   0.701  -0.77454   3.65085   7.03485   1.87387   0.00019   9.980E-01   4.000E-03  -2.107E-03
1027  8.57910166   0.701  -0.77454   3.65085   7.03485   1.87387   0.00019   9.980E-01   4.000E-03  -2.101E-03
1028  8.57972380   0.701  -0.77453   3.65085   7.03484   1.87387   0.00018   9.980E-01   4.000E-03  -2.096E-03
1029  8.58034506   0.701  -0.77453   3.65084   7.03484   1.87388   0.00018   9.980E-01   4.000E-03  -2.090E-03
1030  8.58096543   0.701  -0.77452   3.65084   7.03483   1.87388   0.00018   9.980E-01   4.000E-03  -2.085E-03
1031  8.58158491   0.701  -0.77451   3.65084   7.03483   1.87388   0.00018   9.980E-01   4.000E-03  -2.079E-03
1032  8.58220351   0.701  -0.77451   3.65084   7.03482   1.87388   0.00017   9.980E-01   4.000E-03  -2.073E-03
1033  8.58282123   0.701  -0.77450   3.65084   7.03481   1.87388   0.00017   9.980E-01   4.000E-03  -2.068E-03
1034  8.58343808   0.701  -0.77450   3.65084   7.03481   1.87388   0.00017   9.980E-01   4.000E-03  -2.062E-03
1035  8.58405404   0.701  -0.77449   3.65084   7.03480   1.87389   0.00016   9.980E-01   4.000E-03  -2.056E-03
1036  8.58466914   0.701  -0.77448   3.65084   7.03480   1.87389   0.00016   9.980E-01   4.000E-03  -2.051E-03
1037  8.58528337   0.701  -0.77448   3.65084   7.03479   1.87389   0.00016   9.980E-01   4.000E-03  -2.045E-03
1038  8.58589673   0.701  -0.77447   3.65084   7.03479   1.87389   0.00015   9.980E-01   4.000E-03  -2.039E-03
1039  8.58650922   0.701  -0.77447   3.65084   7.03478   1.87389   0.00015   9.980E-01   4.000E-03  -2.034E-03
1040  8.58712085   0.701  -0.77446   3.65083   7.03478   1.87390   0.00015   9.980E-01   4.000E-03  -2.028E-03
1041  8.58773162   0.701  -0.77445   3.65083   7.03477   1.87390   0.00015   9.980E-01   4.000E-03  -2.022E-03
1042  8.58834153   0.701  -0.77445   3.65083   7.03476   1.87390   0.00014   9.980E-01   4.000E-03  -2.017E-03
1043  8.58895059   0.701  -0.77444   3.65083   7.03476   1.87390   0.00014   9.980E-01   4.000E-03  -2.011E-03
1044  8.58955880   0.701  -0.77444   3.65083   7.03475   1.87390   0.00014   9.980E-01   4.000E-03  -2.005E-03
1045  8.59016615   0.701  -0.77443   3.65083   7.03475   1.87390   0.00013   9.980E-01   4.000E-03  -2.000E-03
1046  8.59077266   0.701  -0.77443   3.65083   7.03474   1.87391   0.00013   9.980E-01   4.000E-03  -1.994E-03
1047  8.59137832   0.701  -0.77442   3.65083   7.03474   1.87391   0.00013   9.980E-01   4.000E-03  -1.989E-03
1048  8.59198313   0.701  -0.77441   3.65083   7.03473   1.87391   0.00013   9.980E-01   4.000E-03  -1.983E-03
1049  8.59258711   0.701  -0.77441   3.65083   7.03473   1.87391   0.00012   9.980E-01   4.000E-03  -1.977E-03
1050  8.59319025   0.701  -0.77440   3.65083   7.03472   1.87391   0.00012   9.980E-01   4.000E-03  -1.972E-03
1051  8.59379255   0.701  -0.77440   3.65083   7.03471   1.87392   0.00012   9.980E-01   4.000E-03  -1.966E-03
1052  8.59439401   0.701  -0.77439   3.65082   7.03471   1.87392   0.00011   9.980E-01   4.000E-03  -1.960E-03
1053  8.59499465   0.701  -0.77438   3.65082   7.03470   1.87392   0.00011   9.980E-01   4.000E-03  -1.955E-03
1054  8.59559445   0.701  -0.77438   3.65082   7.03470   1.87392   0.00011   9.980E-01   4.000E-03  -1.949E-03
1055  8.59619343   0.701  -0.77437   3.65082   7.03469   1.87392   0.00011   9.980E-01   4.000E-03  -1.943E-03
1056  8.59679158   0.701  -0.77437   3.65082   7.03469   1.87393   0.00010   9.980E-01   4.000E-03  -1.938E-03
1057  8.59738891   0.701  -0.77436   3.65082   7.03468   1.87393   0.00010   9.980E-01   4.000E-03  -1.932E-03
1058  8.59798542   0.701  -0.77435   3.65082   7.03467   1.87393   0.00010   9.980E-01   4.000E-03  -1.926E-03
1059  8.59858112   0.701  -0.77435   3.65082   7.03467   1.87393   0.00009   9.980E-01   4.000E-03  -1.921E-03
1060  8.59917599   0.701  -0.77434   3.65082   7.03466   1.87393   0.00009   9.980E-01   4.000E-03  -1.915E-03
1061  8.59977005   0.701  -0.77434   3.65082   7.03466   1.87393   0.00009   9.980E-01   4.000E-03  -1.909E-03
1062  8.60036330   0.701  -0.77433   3.65082   7.03465   1.87394   0.00008   9.980E-01   4.000E-03  -1.904E-03
1063  8.60095574   0.701  -0.77432   3.65081   7.03465   1.87394   0.00008   9.980E-01   4.000E-03  -1.898E-03
1064  8.60154738   0.701  -0.77432   3.65081   7.03464   1.87394   0.00008   9.980E-01   4.000E-03  -1.892E-03
1065  8.60213821   0.701  -0.77431   3.65081   7.03464   1.87394   0.00008   9.980E-01   4.000E-03  -1.887E-03
1066  8.60272823   0.701  -0.77431   3.65081   7.03463   1.87394   0.00007   9.980E-01   4.000E-03  -1.881E-03
1067  8.60331746   0.701  -0.77430   3.65081   7.03462   1.87395   0.00007   9.980E-01   4.000E-03  -1.876E-03
1068  8.60390589   0.701  -0.77430   3.65081   7.03462   1.87395   0.00007   9.980E-01   4.000E-03  -1.870E-03
1069  8.60449352   0.701  -0.77429   3.65081   7.03461   1.87395   0.00006   9.980E-01   4.000E-03  -1.864E-03
1070  8.60508035   0.701  -0.77428   3.65081   7.03461   1.87395   0.00006   9.980E-01   4.000E-03  -1.859E-03
1071  8.60566640   0.701  -0.77428   3.65081   7.03460   1.87395   0.00006   9.980E-01   4.000E-03  -1.853E-03
1072  8.60625166   0.701  -0.77427   3.65081   7.03460   1.87395   0.00006   9.980E-01   4.000E-03  -1.847E-03
1073  8.60683612   0.701  -0.77427   3.65081   7.03459   1.87396   0.00005   9.980E-01   4.000E-03  -1.842E-03
1074  8.60741981   0.701  -0.77426   3.65080   7.03459   1.87396   0.00005   9.980E-01   4.000E-03  -1.836E-03
1075  8.60800271   0.701  -0.77425   3.65080   7.03458   1.87396   0.00005   9.980E-01   4.000E-03  -1.830E-03
1076  8.60858482   0.701  -0.77425   3.65080   7.03457   1.87396   0.00004   9.980E-01   4.000E-03  -1.825E-03
1077  8.60916616   0.701  -0.77424   3.65080   7.03457   1.87396   0.00004   9.980E-01   4.000E-03  -1.819E-03
1078  8.60974672   0.701  -0.77424   3.65080   7.03456   1.87397   0.00004   9.980E-01   4.000E-03  -1.813E-03
1079  8.61032651   0.701  -0.77423   3.65080   7.03456   1.87397   0.00004   9.980E-01   4.000E-03  -1.808E-03
1080  8.61090552   0.701  -0.77422   3.65080   7.03455   1.87397   0.00003   9.980E-01   4.000E-03  -1.802E-03
1081  8.61148377   0.701  -0.77422   3.65080   7.03455   1.87397   0.00003   9.980E-01   4.000E-03  -1.796E-03
1082  8.61206124   0.701  -0.77421   3.65080   7.03454   1.87397   0.00003   9.980E-01   4.000E-03  -1.791E-03
1083  8.61263795   0.700  -0.77421   3.65080   7.03453   1.87398   0.00002   9.980E-01   4.000E-03  -1.785E-03
1084  8.61321389   0.700  -0.77420   3.65080   7.03453   1.87398   0.00002   9.980E-01   4.000E-03  -1.780E-03
1085  8.61378907   0.700  -0.77420   3.65080   7.03452   1.87398   0.00002   9.980E-01   4.000E-03  -1.774E-03
1086  8.61436349   0.700  -0.77419   3.65079   7.03452   1.87398   0.00001   9.980E-01   4.000E-03  -1.768E-03
1087  8.61493714   0.700  -0.77418   3.65079   7.03451   1.87398   0.00001   9.980E-01   4.000E-03  -1.763E-03
1088  8.61551005   0.700  -0.77418   3.65079   7.03451   1.87398   0.00001   9.980E-01   4.000E-03  -1.757E-03
1089  8.61608220   0.700  -0.77417   3.65079   7.03450   1.87399   0.00001   9.980E-01   4.000E-03  -1.751E-03
1090  8.61665359   0.700  -0.77417   3.65079   7.03450   1.87399   0.00000   9.980E-01   4.000E-03  -1.746E-03
1091  8.61722424   0.700  -0.77416   3.65079   7.03449   1.87399   0.00000   9.980E-01   4.000E-03  -1.740E-03
1092  8.82361629   0.694  -0.77153   3.65070   7.03372   1.87596   0.00000   9.970E-01   3.548E-03  -8.428E-04
1093  8.96294783   0.687  -0.76900   3.65074   7.03365   1.87865   0.00000   9.970E-01   3.000E-03  -4.456E-04
1094  9.06827000   0.680  -0.76644   3.65089   7.03396   1.88185   0.00000   9.970E-01   3.000E-03  -2.141E-04
1095  9.15297017   0.674  -0.76382   3.65112   7.03450   1.88544   0.00000   9.970E-01   3.000E-03  -6.966E-05
1096  9.22381654   0.667  -0.76118   3.65138   7.03518   1.88924   0.00000   9.970E-01   3.000E-03   2.431E-05
1097  9.28471037   0.661  -0.75853   3.65165   7.03593   1.89320   0.00000   9.970E-01   2.051E-03   8.555E-05
1098  9.33810658   0.654  -0.75589   3.65195   7.03675   1.89722   0.00000   9.973E-01   2.000E-03   1.260E-04
1099  9.38565071   0.647  -0.75326   3.65225   7.03761   1.90132   0.00000   9.980E-01   2.000E-03   1.574E-04
1100  9.42849975   0.641  -0.75063   3.65256   7.03850   1.90545   0.00000   9.980E-01   2.000E-03   1.832E-04
1101  9.46749822   0.634  -0.74800   3.65287   7.03941   1.90961   0.00000   9.980E-01   2.000E-03   2.043E-04
1102  9.50328147   0.627  -0.74537   3.65319   7.04034   1.91380   0.00000   9.980E-01   2.000E-03   2.229E-04
1103  9.53633951   0.621  -0.74275   3.65351   7.04129   1.91802   0.00000   9.980E-01   2.000E-03   2.400E-04
1104  9.56705822   0.614  -0.74012   3.65384   7.04225   1.92225   0.00000   9.980E-01   2.000E-03   2.557E-04
1105  9.59574692   0.608  -0.73749   3.65417   7.04322   1.92650   0.00000   9.980E-01   2.000E-03   2.697E-04
1106  9.62265736   0.601  -0.73485   3.65450   7.04421   1.93077   0.00000   9.980E-01   2.000E-03   2.829E-04
1107  9.64799718   0.595  -0.73222   3.65483   7.04524   1.93571   0.00000   9.980E-01   2.000E-03   2.933E-04
1108  9.67193966   0.588  -0.72958   3.65516   7.04633   1.94079   0.00000   9.980E-01   2.000E-03   2.990E-04
1109  9.69463087   0.582  -0.72694   3.65549   7.04745   1.94587   0.00000   9.980E-01   2.000E-03   3.060E-04
1110  9.71619515   0.575  -0.72427   3.65582   7.04860   1.95098   0.00000   9.980E-01   2.000E-03   3.133E-04
1111  9.73673914   0.568  -0.72160   3.65614   7.04979   1.95607   0.00000   9.980E-01   2.000E-03   3.200E-04
1112  9.75635504   0.562  -0.71890   3.65647   7.05098   1.96120   0.00000   9.980E-01   2.000E-03   3.274E-04
1113  9.77512311   0.555  -0.71619   3.65680   7.05219   1.96633   0.00000   9.980E-01   2.000E-03   3.365E-04
1114  9.79311360   0.549  -0.71346   3.65713   7.05343   1.97150   0.00000   9.980E-01   2.000E-03   3.447E-04
1115  9.81038839   0.542  -0.71070   3.65747   7.05468   1.97667   0.00000   9.980E-01   2.000E-03   3.546E-04
1116  9.82700226   0.536  -0.70793   3.65780   7.05593   1.98185   0.00000   9.980E-01   2.000E-03   3.636E-04
1117  9.84300391   0.529  -0.70512   3.65814   7.05720   1.98708   0.00000   9.980E-01   2.000E-03   3.742E-04
1118  9.85843687   0.523  -0.70230   3.65848   7.05848   1.99232   0.00000   9.980E-01   2.000E-03   3.850E-04
1119  9.87334017   0.516  -0.69945   3.65882   7.05977   1.99759   0.00000   9.980E-01   2.000E-03   3.959E-04
1120  9.88774898   0.509  -0.69658   3.65916   7.06106   2.00289   0.00000   9.980E-01   2.000E-03   4.076E-04
1121  9.90169504   0.503  -0.69368   3.65951   7.06237   2.00823   0.00000   9.980E-01   2.000E-03   4.190E-04
1122  9.91520717   0.496  -0.69076   3.65986   7.06368   2.01359   0.00000   9.980E-01   2.000E-03   4.299E-04
1123  9.92831156   0.489  -0.68781   3.66021   7.06500   2.01900   0.00000   9.980E-01   1.000E-03   4.428E-04
1124  9.94103208   0.483  -0.68483   3.66056   7.06633   2.02443   0.00000   9.980E-01   1.000E-03   4.561E-04
1125  9.95339060   0.476  -0.68183   3.66093   7.06766   2.02990   0.00000   9.980E-01   1.000E-03   4.702E-04
1126  9.96540715   0.469  -0.67879   3.66129   7.06901   2.03542   0.00000   9.980E-01   1.000E-03   4.814E-04
1127  9.97710014   0.463  -0.67573   3.66166   7.07037   2.04097   0.00000   9.980E-01   1.000E-03   4.938E-04
1128  9.98848655   0.456  -0.67264   3.66203   7.07172   2.04655   0.00000   9.980E-01   1.000E-03   5.076E-04
1129  9.99958203   0.449  -0.66953   3.66241   7.07309   2.05217   0.00000   9.980E-01   1.000E-03   5.227E-04
1130 10.01040110   0.443  -0.66638   3.66278   7.07447   2.05783   0.00000   9.980E-01   1.000E-03   5.363E-04
1131 10.02095717   0.436  -0.66321   3.66317   7.07585   2.06353   0.00000   9.980E-01   1.000E-03   5.502E-04
1132 10.03126275   0.429  -0.66001   3.66355   7.07724   2.06926   0.00000   9.980E-01   1.000E-03   5.641E-04
1133 10.04132944   0.422  -0.65678   3.66395   7.07864   2.07505   0.00000   9.980E-01   1.000E-03   5.792E-04
1134 10.05116806   0.415  -0.65353   3.66435   7.08005   2.08087   0.00000   9.980E-01   1.000E-03   5.926E-04
1135 10.06078873   0.409  -0.65024   3.66475   7.08146   2.08672   0.00000   9.980E-01   1.000E-03   6.071E-04
1136 10.07020089   0.402  -0.64692   3.66516   7.08290   2.09264   0.00000   9.980E-01   1.000E-03   6.217E-04
1137 10.07941338   0.395  -0.64358   3.66557   7.08435   2.09946   0.00000   9.980E-01   1.000E-03   6.367E-04
1138 10.08843450   0.388  -0.64022   3.66598   7.08586   2.10665   0.00000   9.980E-01   1.000E-03   6.460E-04
1139 10.09727205   0.381  -0.63682   3.66640   7.08742   2.11389   0.00000   9.980E-01   1.000E-03   6.585E-04
1140 10.10593334   0.375  -0.63339   3.66681   7.08901   2.12119   0.00000   9.980E-01   1.000E-03   6.718E-04
1141 10.11442526   0.368  -0.62994   3.66723   7.09063   2.12852   0.00000   9.980E-01   1.000E-03   6.878E-04
1142 10.12275432   0.361  -0.62645   3.66766   7.09228   2.13586   0.00000   9.980E-01   2.000E-03   6.980E-04
1143 10.13092665   0.354  -0.62293   3.66808   7.09397   2.14328   0.00000   9.980E-01   2.000E-03   7.106E-04
1144 10.13894802   0.347  -0.61938   3.66851   7.09568   2.15073   0.00000   9.980E-01   2.000E-03   7.240E-04
1145 10.14682393   0.340  -0.61579   3.66894   7.09742   2.15819   0.00000   9.980E-01   2.000E-03   7.371E-04
1146 10.15455955   0.333  -0.61218   3.66937   7.09918   2.16570   0.00000   9.980E-01   2.000E-03   7.503E-04
1147 10.16215978   0.326  -0.60853   3.66980   7.10097   2.17324   0.00000   9.980E-01   2.000E-03   7.615E-04
1148 10.16962930   0.320  -0.60484   3.67024   7.10278   2.18077   0.00000   9.980E-01   2.000E-03   7.753E-04
1149 10.17697252   0.313  -0.60112   3.67067   7.10462   2.18837   0.00000   9.980E-01   2.000E-03   7.895E-04
1150 10.18419364   0.306  -0.59736   3.67111   7.10647   2.19599   0.00000   9.980E-01   2.000E-03   8.047E-04
1151 10.19129665   0.299  -0.59357   3.67155   7.10833   2.20362   0.00000   9.980E-01   2.000E-03   8.166E-04
1152 10.19828535   0.293  -0.58974   3.67199   7.11023   2.21132   0.00000   9.970E-01   2.000E-03   8.309E-04
1153 10.20516337   0.286  -0.58587   3.67244   7.11214   2.21903   0.00000   9.970E-01   2.000E-03   8.470E-04
1154 10.21193416   0.280  -0.58195   3.67288   7.11407   2.22679   0.00000   9.970E-01   2.000E-03   8.617E-04
1155 10.21860101   0.273  -0.57800   3.67334   7.11602   2.23455   0.00000   9.970E-01   2.000E-03   8.775E-04
1156 10.22516706   0.267  -0.57401   3.67378   7.11799   2.24234   0.00000   9.970E-01   2.000E-03   8.935E-04
1157 10.23163532   0.260  -0.56998   3.67423   7.11997   2.25016   0.00000   9.970E-01   2.000E-03   9.064E-04
1158 10.23800865   0.254  -0.56590   3.67468   7.12198   2.25805   0.00000   9.970E-01   2.000E-03   9.251E-04
1159 10.24428980   0.248  -0.56179   3.67514   7.12399   2.26598   0.00000   9.970E-01   2.000E-03   9.405E-04
1160 10.25048141   0.241  -0.55762   3.67560   7.12602   2.27397   0.00000   9.970E-01   2.000E-03   9.547E-04
1161 10.25658598   0.235  -0.55342   3.67605   7.12809   2.28203   0.00000   9.970E-01   2.000E-03   9.742E-04
1162 10.26260593   0.229  -0.54917   3.67651   7.13015   2.29010   0.00000   9.970E-01   2.000E-03   9.874E-04
1163 10.26854358   0.223  -0.54487   3.67697   7.13223   2.29820   0.00000   9.970E-01   2.000E-03   1.001E-03
1164 10.27440114   0.217  -0.54053   3.67743   7.13433   2.30635   0.00000   9.970E-01   2.000E-03   1.024E-03
1165 10.28018074   0.211  -0.53613   3.67789   7.13645   2.31459   0.00000   9.970E-01   2.000E-03   1.036E-03
1166 10.28588444   0.205  -0.53168   3.67837   7.13858   2.32292   0.00000   9.960E-01   2.850E-03   1.058E-03
1167 10.29151421   0.199  -0.52718   3.67884   7.14071   2.33157   0.00000   9.960E-01   3.000E-03   1.071E-03
1168 10.29707192   0.193  -0.52262   3.67931   7.14288   2.34174   0.00000   9.960E-01   3.000E-03   1.094E-03
1169 10.30255941   0.187  -0.51803   3.67978   7.14517   2.35198   0.00000   9.960E-01   3.000E-03   1.100E-03
1170 10.30797843   0.182  -0.51338   3.68025   7.14752   2.36236   0.00000   9.960E-01   3.000E-03   1.120E-03
1171 10.31333067   0.176  -0.50868   3.68073   7.14995   2.37286   0.00000   9.960E-01   3.000E-03   1.136E-03
1172 10.31861774   0.170  -0.50392   3.68120   7.15241   2.38350   0.00000   9.950E-01   3.000E-03   1.160E-03
1173 10.32384123   0.164  -0.49910   3.68167   7.15490   2.39425   0.00000   9.950E-01   4.000E-03   1.171E-03
1174 10.32900263   0.158  -0.49422   3.68215   7.15746   2.40518   0.00000   9.950E-01   4.000E-03   1.190E-03
1175 10.33410342   0.153  -0.48928   3.68262   7.16007   2.41624   0.00000   9.950E-01   4.000E-03   1.209E-03
1176 10.33914499   0.147  -0.48426   3.68309   7.16270   2.42746   0.00000   9.940E-01   4.436E-03   1.234E-03
1177 10.34412870   0.141  -0.47919   3.68357   7.16538   2.43883   0.00000   9.940E-01   5.000E-03   1.240E-03
1178 10.34905587   0.136  -0.47403   3.68404   7.16809   2.45041   0.00000   9.935E-01   5.000E-03   1.275E-03
1179 10.35392777   0.130  -0.46881   3.68451   7.17083   2.46218   0.00000   9.930E-01   6.000E-03   1.292E-03
1180 10.35874563   0.125  -0.46350   3.68499   7.17360   2.47414   0.00000   9.922E-01   6.000E-03   1.318E-03
1181 10.36351062   0.119  -0.45810   3.68546   7.17640   2.48632   0.00000   9.920E-01   7.000E-03   1.344E-03
1182 10.36822390   0.114  -0.45262   3.68594   7.17922   2.49870   0.00000   9.910E-01   8.000E-03   1.362E-03
1183 10.37288657   0.109  -0.44704   3.68641   7.18208   2.51128   0.00000   9.900E-01   8.000E-03   1.399E-03
1184 10.37749972   0.103  -0.44137   3.68689   7.18494   2.52410   0.00000   9.892E-01   9.000E-03   1.418E-03
1185 10.38206438   0.098  -0.43560   3.68737   7.18785   2.53719   0.00000   9.884E-01   1.000E-02   1.456E-03
1186 10.38658156   0.093  -0.42971   3.68785   7.19080   2.55055   0.00000   9.870E-01   1.155E-02   1.481E-03
1187 10.39105224   0.088  -0.42372   3.68832   7.19379   2.56413   0.00000   9.855E-01   1.300E-02   1.505E-03
1188 10.39547737   0.083  -0.41762   3.68881   7.19683   2.57800   0.00000   9.840E-01   1.456E-02   1.540E-03
1189 10.39985786   0.078  -0.41141   3.68929   7.19994   2.59215   0.00000   9.824E-01   1.600E-02   1.566E-03
1190 10.40419461   0.074  -0.40508   3.68976   7.20314   2.60656   0.00000   9.802E-01   1.800E-02   1.590E-03
1191 10.40848849   0.069  -0.39863   3.69024   7.20643   2.62121   0.00000   9.780E-01   2.000E-02   1.630E-03
1192 10.40951651   0.068  -0.39706   3.69036   7.20724   2.62478   0.00000   9.772E-01   2.078E-02   1.638E-03
1193 10.41054210   0.067  -0.39549   3.69047   7.20806   2.62836   0.00000   9.764E-01   2.156E-02   1.640E-03
1194 10.41156528   0.065  -0.39390   3.69058   7.20889   2.63195   0.00000   9.760E-01   2.235E-02   1.644E-03
1195 10.41258605   0.064  -0.39231   3.69070   7.20972   2.63556   0.00000   9.759E-01   2.314E-02   1.651E-03
1196 10.41360442   0.063  -0.39071   3.69081   7.21057   2.63918   0.00000   9.751E-01   2.393E-02   1.659E-03
1197 10.41462042   0.062  -0.38911   3.69092   7.21143   2.64282   0.00000   9.743E-01   2.473E-02   1.667E-03
1198 10.41563404   0.061  -0.38749   3.69104   7.21229   2.64646   0.00000   9.735E-01   2.554E-02   1.675E-03
1199 10.41664530   0.060  -0.38588   3.69116   7.21316   2.65011   0.00000   9.727E-01   2.634E-02   1.680E-03
1200 10.41765422   0.059  -0.38425   3.69128   7.21404   2.65376   0.00000   9.719E-01   2.715E-02   1.681E-03
1201 10.41866079   0.057  -0.38258   3.69142   7.21494   2.65742   0.00000   9.710E-01   2.796E-02   1.690E-03
1202 10.41966504   0.056  -0.38093   3.69153   7.21586   2.66111   0.00000   9.694E-01   2.879E-02   1.730E-03
1203 10.42066697   0.055  -0.37929   3.69165   7.21678   2.66478   0.00000   9.684E-01   2.962E-02   1.721E-03
1204 10.42166660   0.054  -0.37765   3.69176   7.21771   2.66846   0.00000   9.676E-01   3.044E-02   1.706E-03
1205 10.42266393   0.053  -0.37600   3.69187   7.21865   2.67215   0.00000   9.667E-01   3.126E-02   1.703E-03
1206 10.42365897   0.052  -0.37435   3.69198   7.21960   2.67586   0.00000   9.659E-01   3.216E-02   1.710E-03
1207 10.42465174   0.051  -0.37268   3.69209   7.22057   2.67957   0.00000   9.651E-01   3.382E-02   1.710E-03
1208 10.42564224   0.050  -0.37101   3.69220   7.22156   2.68329   0.00000   9.635E-01   3.474E-02   1.717E-03
1209 10.42663050   0.048  -0.36933   3.69230   7.22257   2.68702   0.00000   9.624E-01   3.557E-02   1.726E-03
1210 10.42761650   0.047  -0.36765   3.69241   7.22358   2.69074   0.00000   9.612E-01   3.683E-02   1.734E-03
1211 10.42860028   0.046  -0.36597   3.69252   7.22461   2.69447   0.00000   9.597E-01   3.825E-02   1.740E-03
1212 10.42958183   0.045  -0.36428   3.69263   7.22566   2.69818   0.00000   9.588E-01   3.919E-02   1.740E-03
1213 10.43056117   0.044  -0.36260   3.69273   7.22673   2.70188   0.00000   9.571E-01   4.087E-02   1.740E-03
1214 10.43153830   0.043  -0.36090   3.69284   7.22781   2.70561   0.00000   9.562E-01   4.256E-02   1.732E-03
1215 10.43251324   0.041  -0.35920   3.69295   7.22891   2.70932   0.00000   9.547E-01   4.426E-02   1.736E-03
1216 10.43348600   0.040  -0.35749   3.69305   7.23002   2.71303   0.00000   9.530E-01   4.548E-02   1.740E-03
1217 10.43445658   0.039  -0.35578   3.69315   7.23115   2.71675   0.00000   9.513E-01   4.666E-02   1.743E-03
1218 10.43542500   0.038  -0.35407   3.69325   7.23230   2.72047   0.00000   9.496E-01   4.837E-02   1.748E-03
1219 10.43639126   0.037  -0.35236   3.69334   7.23347   2.72417   0.00000   9.479E-01   5.008E-02   1.740E-03
1220 10.43735538   0.035  -0.35065   3.69345   7.23465   2.72789   0.00000   9.462E-01   5.179E-02   1.740E-03
1221 10.43831736   0.034  -0.34892   3.69355   7.23586   2.73160   0.00000   9.445E-01   5.426E-02   1.748E-03
1222 10.43927722   0.033  -0.34718   3.69365   7.23707   2.73533   0.00000   9.421E-01   5.624E-02   1.762E-03
1223 10.44023496   0.032  -0.34544   3.69375   7.23830   2.73904   0.00000   9.400E-01   5.797E-02   1.765E-03
1224 10.44119059   0.030  -0.34371   3.69385   7.23953   2.74275   0.00000   9.383E-01   6.007E-02   1.760E-03
1225 10.44214413   0.029  -0.34196   3.69394   7.24077   2.74647   0.00000   9.363E-01   6.245E-02   1.760E-03
1226 10.44309557   0.028  -0.34022   3.69404   7.24201   2.75022   0.00000   9.337E-01   6.428E-02   1.760E-03
1227 10.44404494   0.027  -0.33847   3.69414   7.24325   2.75397   0.00000   9.311E-01   6.689E-02   1.760E-03
1228 10.44499223   0.025  -0.33670   3.69424   7.24452   2.75773   0.00000   9.293E-01   6.962E-02   1.839E-03
1229 10.44593747   0.024  -0.33490   3.69433   7.24580   2.76154   0.00000   9.265E-01   7.167E-02   1.950E-03
1230 10.44688065   0.023  -0.33310   3.69444   7.24709   2.76538   0.00000   9.234E-01   7.457E-02   2.064E-03
1231 10.44782178   0.021  -0.33129   3.69453   7.24836   2.76928   0.00000   9.202E-01   7.688E-02   2.193E-03
1232 10.44876088   0.020  -0.32947   3.69464   7.24959   2.77325   0.00000   9.178E-01   8.018E-02   2.329E-03
1233 10.44969796   0.019  -0.32765   3.69474   7.25079   2.77731   0.00000   9.150E-01   8.264E-02   2.455E-03
1234 10.45063302   0.018  -0.32581   3.69483   7.25194   2.78147   0.00000   9.117E-01   8.525E-02   2.605E-03
1235 10.45156607   0.016  -0.32396   3.69493   7.25304   2.78572   0.00000   9.090E-01   8.900E-02   2.750E-03
1236 10.45249711   0.015  -0.32210   3.69502   7.25406   2.79011   0.00000   9.061E-01   9.094E-02   2.907E-03
1237 10.45342617   0.014  -0.32022   3.69511   7.25503   2.79462   0.00000   9.030E-01   9.402E-02   3.061E-03
1238 10.45435324   0.013  -0.31833   3.69520   7.25591   2.79929   0.00000   8.997E-01   9.728E-02   3.211E-03
1239 10.45527834   0.012  -0.31636   3.69534   7.25673   2.80409   0.00000   8.967E-01   9.970E-02   3.374E-03
1240 10.45620147   0.011  -0.31444   3.69543   7.25748   2.80905   0.00000   8.937E-01   1.031E-01   3.499E-03
1241 10.45712265   0.010  -0.31250   3.69551   7.25816   2.81415   0.00000   8.910E-01   1.060E-01   3.640E-03
1242 10.45745647   0.009  -0.31179   3.69554   7.25838   2.81605   0.00000   8.896E-01   1.067E-01   3.696E-03
1243 10.45779004   0.009  -0.31107   3.69558   7.25861   2.81796   0.00000   8.886E-01   1.078E-01   3.752E-03
1244 10.45812336   0.009  -0.31036   3.69560   7.25882   2.81989   0.00000   8.878E-01   1.091E-01   3.809E-03
1245 10.45845641   0.009  -0.30964   3.69563   7.25903   2.82184   0.00000   8.863E-01   1.098E-01   3.859E-03
1246 10.45878921   0.008  -0.30892   3.69566   7.25922   2.82381   0.00000   8.854E-01   1.106E-01   3.905E-03
1247 10.45912176   0.008  -0.30820   3.69569   7.25941   2.82578   0.00000   8.843E-01   1.117E-01   3.950E-03
1248 10.45945405   0.008  -0.30748   3.69572   7.25960   2.82777   0.00000   8.829E-01   1.131E-01   3.996E-03
1249 10.45978609   0.007  -0.30675   3.69575   7.25978   2.82978   0.00000   8.822E-01   1.138E-01   4.049E-03
1250 10.46011788   0.007  -0.30602   3.69578   7.25994   2.83180   0.00000   8.814E-01   1.146E-01   4.097E-03
1251 10.46044941   0.007  -0.30529   3.69581   7.26011   2.83384   0.00000   8.802E-01   1.158E-01   4.148E-03
1252 10.46078069   0.006  -0.30456   3.69584   7.26027   2.83589   0.00000   8.788E-01   1.172E-01   4.202E-03
1253 10.46111171   0.006  -0.30381   3.69587   7.26042   2.83797   0.00000   8.780E-01   1.180E-01   4.250E-03
1254 10.46144249   0.006  -0.30307   3.69590   7.26057   2.84006   0.00000   8.772E-01   1.188E-01   4.299E-03
1255 10.46177301   0.006  -0.30233   3.69593   7.26070   2.84216   0.00000   8.757E-01   1.196E-01   4.341E-03
1256 10.46210328   0.006  -0.30159   3.69595   7.26083   2.84428   0.00000   8.745E-01   1.209E-01   4.378E-03
1257 10.46243330   0.005  -0.30084   3.69598   7.26097   2.84642   0.00000   8.737E-01   1.223E-01   4.414E-03
1258 10.46276307   0.005  -0.30009   3.69601   7.26110   2.84858   0.00000   8.729E-01   1.231E-01   4.458E-03
1259 10.46309259   0.005  -0.29934   3.69604   7.26122   2.85074   0.00000   8.720E-01   1.240E-01   4.509E-03
1260 10.46342186   0.005  -0.29859   3.69607   7.26133   2.85293   0.00000   8.703E-01   1.248E-01   4.544E-03
1261 10.46375088   0.004  -0.29783   3.69610   7.26144   2.85512   0.00000   8.693E-01   1.257E-01   4.586E-03
1262 10.46407965   0.004  -0.29707   3.69613   7.26155   2.85733   0.00000   8.684E-01   1.266E-01   4.624E-03
1263 10.46440817   0.004  -0.29631   3.69615   7.26166   2.85955   0.00000   8.675E-01   1.280E-01   4.664E-03
1264 10.46473644   0.004  -0.29555   3.69618   7.26176   2.86178   0.00000   8.666E-01   1.294E-01   4.712E-03
1265 10.46506447   0.004  -0.29478   3.69621   7.26186   2.86403   0.00000   8.654E-01   1.303E-01   4.764E-03
1266 10.46539225   0.004  -0.29401   3.69623   7.26196   2.86629   0.00000   8.638E-01   1.312E-01   4.810E-03
1267 10.46571978   0.003  -0.29325   3.69625   7.26206   2.86856   0.00000   8.629E-01   1.321E-01   4.856E-03
1268 10.46604706   0.003  -0.29248   3.69628   7.26215   2.87086   0.00000   8.620E-01   1.330E-01   4.902E-03
1269 10.46637410   0.003  -0.29170   3.69631   7.26224   2.87317   0.00000   8.610E-01   1.340E-01   4.949E-03
1270 10.46670089   0.003  -0.29092   3.69634   7.26232   2.87547   0.00000   8.601E-01   1.349E-01   4.987E-03
1271 10.46702744   0.003  -0.29014   3.69636   7.26241   2.87779   0.00000   8.591E-01   1.359E-01   5.034E-03
1272 10.46735374   0.003  -0.28935   3.69639   7.26250   2.88012   0.00000   8.582E-01   1.368E-01   5.074E-03
1273 10.46767980   0.003  -0.28855   3.69642   7.26258   2.88246   0.00000   8.564E-01   1.378E-01   5.113E-03
1274 10.46800561   0.002  -0.28777   3.69644   7.26266   2.88482   0.00000   8.552E-01   1.388E-01   5.144E-03
1275 10.46833117   0.002  -0.28698   3.69647   7.26274   2.88720   0.00000   8.542E-01   1.406E-01   5.182E-03
1276 10.46865650   0.002  -0.28618   3.69650   7.26282   2.88957   0.00000   8.532E-01   1.418E-01   5.214E-03
1277 10.46898157   0.002  -0.28538   3.69653   7.26290   2.89197   0.00000   8.522E-01   1.428E-01   5.268E-03
1278 10.46930641   0.002  -0.28457   3.69655   7.26298   2.89438   0.00000   8.512E-01   1.438E-01   5.321E-03
1279 10.46963100   0.002  -0.28377   3.69658   7.26305   2.89681   0.00000   8.502E-01   1.448E-01   5.372E-03
1280 10.46995536   0.002  -0.28296   3.69660   7.26312   2.89924   0.00000   8.491E-01   1.459E-01   5.433E-03
1281 10.47027946   0.002  -0.28215   3.69663   7.26320   2.90169   0.00000   8.481E-01   1.469E-01   5.487E-03
1282 10.47060333   0.002  -0.28133   3.69665   7.26327   2.90416   0.00000   8.470E-01   1.480E-01   5.540E-03
1283 10.47092696   0.002  -0.28052   3.69667   7.26333   2.90665   0.00000   8.459E-01   1.491E-01   5.603E-03
1284 10.47125034   0.001  -0.27970   3.69669   7.26341   2.90914   0.00000   8.449E-01   1.501E-01   5.647E-03
1285 10.47157349   0.001  -0.27888   3.69672   7.26348   2.91165   0.00000   8.438E-01   1.512E-01   5.699E-03
1286 10.47189639   0.001  -0.27803   3.69676   7.26355   2.91417   0.00000   8.423E-01   1.523E-01   5.757E-03
1287 10.47221906   0.001  -0.27716   3.69681   7.26362   2.91670   0.00000   8.406E-01   1.534E-01   5.814E-03
1288 10.47254148   0.001  -0.27635   3.69683   7.26367   2.91929   0.00000   8.400E-01   1.546E-01   5.826E-03
1289 10.47286367   0.001  -0.27553   3.69685   7.26372   2.92188   0.00000   8.393E-01   1.557E-01   5.830E-03
1290 10.47318561   0.001  -0.27469   3.69687   7.26379   2.92444   0.00000   8.382E-01   1.560E-01   5.855E-03
1291 10.47350732   0.001  -0.27386   3.69689   7.26386   2.92702   0.00000   8.370E-01   1.570E-01   5.910E-03
1292 10.47443722   0.001  -0.27147   3.69694   7.26400   2.93464   0.00000   8.338E-01   1.602E-01   5.369E-03
1293 10.47536513   0.001  -0.26906   3.69700   7.26418   2.94231   0.00000   8.320E-01   1.640E-01   4.704E-03
1294 10.47629106   0.001  -0.26665   3.69705   7.26431   2.95021   0.00000   8.295E-01   1.669E-01   4.045E-03
1295 10.47721502   0.000  -0.26421   3.69708   7.26446   2.95818   0.00000   8.264E-01   1.702E-01   3.503E-03
1296 10.47813703   0.000  -0.26178   3.69711   7.26455   2.96641   0.00000   8.242E-01   1.728E-01   2.992E-03
1297 10.47905707   0.000  -0.25933   3.69713   7.26465   2.97467   0.00000   8.220E-01   1.760E-01   2.554E-03
1298 10.47997518   0.000  -0.25688   3.69714   7.26474   2.98309   0.00000   8.192E-01   1.788E-01   2.181E-03
1299 10.48089134   0.000  -0.25439   3.69715   7.26485   2.99158   0.00000   8.168E-01   1.812E-01   1.976E-03
1300 10.48180558   0.000  -0.25174   3.69721   7.26510   2.99998   0.00000   8.134E-01   1.846E-01   2.055E-03
1301 10.48271790   0.000  -0.24915   3.69725   7.26543   3.00838   0.00000   8.094E-01   1.886E-01   2.156E-03
1302 10.48362830   0.000  -0.24656   3.69727   7.26573   3.01718   0.00000   8.055E-01   1.925E-01   2.050E-03
1303 10.48453680   0.000  -0.24395   3.69729   7.26603   3.02620   0.00000   8.016E-01   1.964E-01   2.048E-03
1304 10.48544341   0.000  -0.24131   3.69729   7.26649   3.03604   0.00000   7.977E-01   2.003E-01   2.039E-03
1305 10.48634812   0.000  -0.23863   3.69729   7.26675   3.04545   0.00000   7.937E-01   2.043E-01   2.043E-03
1306 10.48725096   0.000  -0.23593   3.69729   7.26702   3.05508   0.00000   7.897E-01   2.083E-01   2.060E-03
1307 10.48815192   0.000  -0.23318   3.69729   7.26733   3.06482   0.00000   7.857E-01   2.123E-01   2.063E-03
1308 10.48905101   0.000  -0.23041   3.69728   7.26764   3.07471   0.00000   7.815E-01   2.165E-01   2.090E-03
1309 10.48994825   0.000  -0.22762   3.69726   7.26795   3.08487   0.00000   7.774E-01   2.206E-01   2.064E-03
1310 10.49084364   0.000  -0.22479   3.69722   7.26844   3.09567   0.00000   7.729E-01   2.251E-01   2.028E-03
1311 10.49173719   0.000  -0.22191   3.69720   7.26882   3.10637   0.00000   7.679E-01   2.301E-01   2.078E-03
1312 10.49262890   0.000  -0.21901   3.69717   7.26918   3.11735   0.00000   7.635E-01   2.345E-01   2.067E-03
1313 10.49351878   0.000  -0.21607   3.69712   7.26960   3.12860   0.00000   7.586E-01   2.394E-01   2.050E-03
1314 10.49440685   0.000  -0.21310   3.69707   7.26999   3.14003   0.00000   7.538E-01   2.442E-01   2.068E-03
1315 10.49529310   0.000  -0.21012   3.69699   7.27043   3.15183   0.00000   7.487E-01   2.493E-01   2.033E-03
1316 10.49617755   0.000  -0.20710   3.69691   7.27092   3.16381   0.00000   7.437E-01   2.543E-01   2.020E-03
1317 10.49706020   0.000  -0.20411   3.69676   7.27137   3.17624   0.00000   7.383E-01   2.597E-01   1.964E-03
1318 10.49794106   0.000  -0.20095   3.69667   7.27186   3.18894   0.00000   7.327E-01   2.653E-01   2.047E-03
1319 10.49882014   0.000  -0.19776   3.69657   7.27241   3.20177   0.00000   7.270E-01   2.710E-01   2.110E-03
1320 10.49969744   0.000  -0.19458   3.69645   7.27302   3.21512   0.00000   7.209E-01   2.771E-01   2.022E-03
1321 10.50057297   0.000  -0.19132   3.69632   7.27358   3.22882   0.00000   7.145E-01   2.835E-01   2.026E-03
1322 10.50144674   0.000  -0.18815   3.69608   7.27420   3.24281   0.00000   7.091E-01   2.889E-01   1.918E-03
1323 10.50231876   0.000  -0.18489   3.69589   7.27483   3.25731   0.00000   7.027E-01   2.953E-01   1.920E-03
1324 10.50318903   0.000  -0.18161   3.69568   7.27555   3.27222   0.00000   6.954E-01   3.026E-01   1.884E-03
1325 10.50405756   0.000  -0.17823   3.69546   7.27627   3.28763   0.00000   6.885E-01   3.095E-01   1.880E-03
1326 10.50492435   0.000  -0.17472   3.69525   7.27703   3.30354   0.00000   6.816E-01   3.164E-01   1.923E-03
1327 10.50578942   0.000  -0.17121   3.69498   7.27782   3.32006   0.00000   6.736E-01   3.244E-01   1.908E-03
1328 10.50665277   0.000  -0.16773   3.69467   7.27870   3.33716   0.00000   6.656E-01   3.324E-01   1.758E-03
1329 10.50751441   0.000  -0.16413   3.69435   7.27957   3.35496   0.00000   6.572E-01   3.408E-01   1.784E-03
1330 10.50837434   0.000  -0.16049   3.69400   7.28050   3.37337   0.00000   6.491E-01   3.499E-01   1.750E-03
1331 10.50923257   0.000  -0.15678   3.69362   7.28149   3.39240   0.00000   6.399E-01   3.590E-01   1.750E-03
1332 10.51008911   0.000  -0.15296   3.69322   7.28255   3.41215   0.00000   6.296E-01   3.684E-01   1.748E-03
1333 10.51094396   0.000  -0.14909   3.69278   7.28366   3.43283   0.00000   6.200E-01   3.780E-01   1.642E-03
1334 10.51179713   0.000  -0.14524   3.69227   7.28487   3.45431   0.00000   6.094E-01   3.894E-01   1.513E-03
1335 10.51264863   0.000  -0.14128   3.69173   7.28618   3.47669   0.00000   5.978E-01   4.002E-01   1.589E-03
1336 10.51349847   0.000  -0.13719   3.69113   7.28756   3.50020   0.00000   5.859E-01   4.121E-01   1.435E-03
1337 10.51434664   0.000  -0.13314   3.69047   7.28905   3.52493   0.00000   5.736E-01   4.254E-01   1.291E-03
1338 10.51519316   0.000  -0.12883   3.68981   7.29063   3.55060   0.00000   5.592E-01   4.388E-01   1.425E-03
1339 10.51603804   0.000  -0.12455   3.68900   7.29237   3.57770   0.00000   5.455E-01   4.535E-01   1.055E-03
1340 10.51688127   0.000  -0.11930   3.68791   7.29557   3.61676   0.00000   5.340E-01   4.650E-01   1.043E-03
1341 10.51772287   0.974  -0.11387   3.68665   7.29788   3.65887   0.00000   5.190E-01   4.800E-01   5.420E-04
