 # M = 0.60 Mo, Y = 0.2700, Z = 2.00000E-02, alpha = 1.68, X_D = 2.0E-05
 # Solar Mixture: Asplund et al. (2005)         
 # ------------------------------------------------------------------------------------------------------------
 # NMD   LOG AGE    Xc      LOG L     LOG TE    LOG Tc   LOG RHOc    M-CC       L-PP       L-CNO       L-GRA
 #        (yr)              (Lo)        (K)       (K)   (gr/cm^3)    (Mo)        (L)         (L)         (L)
 # ------------------------------------------------------------------------------------------------------------
   1  4.94380544   0.710   0.54916   3.60256   6.08949  -1.02744   0.00000   8.790E-01   0.000E+00   1.210E-01
   2  5.06147552   0.710   0.54123   3.60258   6.09336  -1.01579   0.00000   8.815E-01   0.000E+00   1.185E-01
   3  5.15396522   0.710   0.53379   3.60260   6.09700  -1.00487   0.00000   8.854E-01   0.000E+00   1.146E-01
   4  5.23017440   0.710   0.52700   3.60263   6.10032  -0.99490   0.00000   8.909E-01   0.000E+00   1.091E-01
   5  5.29498576   0.710   0.52026   3.60265   6.10361  -0.98501   0.00000   8.961E-01   0.000E+00   1.039E-01
   6  5.35136922   0.710   0.51409   3.60265   6.10659  -0.97604   0.00000   8.978E-01   0.000E+00   1.021E-01
   7  5.40126656   0.710   0.50793   3.60266   6.10958  -0.96707   0.00000   8.995E-01   0.000E+00   1.003E-01
   8  5.44601729   0.710   0.50178   3.60266   6.11256  -0.95812   0.00000   9.008E-01   0.000E+00   9.896E-02
   9  5.48658452   0.710   0.49570   3.60266   6.11550  -0.94928   0.00000   8.996E-01   0.000E+00   1.003E-01
  10  5.52368400   0.710   0.48962   3.60267   6.11845  -0.94045   0.00000   8.984E-01   0.000E+00   1.015E-01
  11  5.55786219   0.710   0.48354   3.60267   6.12139  -0.93161   0.00000   8.972E-01   0.000E+00   1.028E-01
  12  5.58954574   0.710   0.47712   3.60266   6.12447  -0.92234   0.00000   8.935E-01   0.000E+00   1.065E-01
  13  5.61907418   0.710   0.47065   3.60265   6.12758  -0.91301   0.00000   8.896E-01   0.000E+00   1.104E-01
  14  5.64672212   0.710   0.46418   3.60264   6.13069  -0.90369   0.00000   8.856E-01   0.000E+00   1.144E-01
  15  5.67271479   0.710   0.45727   3.60263   6.13401  -0.89371   0.00000   8.794E-01   0.000E+00   1.206E-01
  16  5.69723925   0.710   0.45003   3.60261   6.13748  -0.88328   0.00000   8.717E-01   0.000E+00   1.283E-01
  17  5.72045253   0.710   0.44280   3.60260   6.14095  -0.87284   0.00000   8.639E-01   0.000E+00   1.361E-01
  18  5.74248775   0.710   0.43496   3.60257   6.14469  -0.86160   0.00000   8.539E-01   0.000E+00   1.461E-01
  19  5.76345873   0.710   0.42650   3.60254   6.14870  -0.84953   0.00000   8.416E-01   0.000E+00   1.584E-01
  20  5.78346355   0.710   0.41805   3.60250   6.15272  -0.83746   0.00000   8.293E-01   0.000E+00   1.707E-01
  21  5.80258732   0.710   0.40840   3.60244   6.15728  -0.82376   0.00000   8.109E-01   0.000E+00   1.891E-01
  22  5.82090440   0.710   0.39832   3.60238   6.16204  -0.80947   0.00000   7.901E-01   0.000E+00   2.099E-01
  23  5.83848008   0.710   0.38755   3.60231   6.16713  -0.79419   0.00000   7.650E-01   0.000E+00   2.350E-01
  24  5.85537207   0.710   0.37555   3.60222   6.17279  -0.77720   0.00000   7.323E-01   0.000E+00   2.677E-01
  25  5.87163156   0.710   0.36270   3.60212   6.17881  -0.75909   0.00000   6.939E-01   0.000E+00   3.061E-01
  26  5.88730422   0.710   0.34844   3.60197   6.18544  -0.73916   0.00000   6.466E-01   0.000E+00   3.534E-01
  27  5.90243094   0.710   0.33263   3.60180   6.19277  -0.71713   0.00000   5.872E-01   0.000E+00   4.128E-01
  28  5.91704846   0.710   0.31558   3.60159   6.20066  -0.69342   0.00000   5.188E-01   0.000E+00   4.812E-01
  29  5.93118997   0.710   0.29697   3.60134   6.20922  -0.66769   0.00000   4.400E-01   0.000E+00   5.600E-01
  30  5.94488549   0.710   0.27689   3.60105   6.21842  -0.64008   0.00000   3.542E-01   0.000E+00   6.458E-01
  31  5.95816229   0.710   0.25559   3.60068   6.22808  -0.61107   0.00000   2.690E-01   0.000E+00   7.310E-01
  32  5.97104521   0.710   0.23373   3.60030   6.23802  -0.58131   0.00000   1.923E-01   0.000E+00   8.077E-01
  33  5.98355696   0.710   0.21171   3.59986   6.24794  -0.55161   0.00000   1.300E-01   0.000E+00   8.700E-01
  34  5.99571833   0.710   0.19003   3.59939   6.25760  -0.52258   0.00000   8.295E-02   0.000E+00   9.171E-01
  35  6.00754840   0.710   0.16903   3.59891   6.26689  -0.49465   0.00000   5.082E-02   0.000E+00   9.492E-01
  36  6.01906475   0.710   0.14889   3.59843   6.27576  -0.46801   0.00000   2.995E-02   0.000E+00   9.701E-01
  37  6.03028359   0.710   0.12966   3.59793   6.28417  -0.44275   0.00000   1.813E-02   0.000E+00   9.819E-01
  38  6.04121990   0.710   0.11141   3.59744   6.29211  -0.41888   0.00000   1.214E-02   0.000E+00   9.879E-01
  39  6.05188757   0.710   0.09408   3.59697   6.29963  -0.39627   0.00000   7.846E-03   0.000E+00   9.922E-01
  40  6.06229948   0.710   0.07749   3.59648   6.30678  -0.37480   0.00000   4.679E-03   0.000E+00   9.953E-01
  41  6.07246759   0.710   0.06172   3.59603   6.31357  -0.35435   0.00000   3.000E-03   0.000E+00   9.970E-01
  42  6.11135290   0.710   0.00480   3.59424   6.33786  -0.28132   0.00000   0.000E+00   0.000E+00   1.000E+00
  43  6.14704087   0.710  -0.04331   3.59265   6.35824  -0.22005   0.00000   0.000E+00   0.000E+00   1.000E+00
  44  6.18001758   0.710  -0.08507   3.59124   6.37590  -0.16694   0.00000   0.000E+00   0.000E+00   1.000E+00
  45  6.21066606   0.710  -0.12178   3.58998   6.39139  -0.12035   0.00000   0.000E+00   0.000E+00   1.000E+00
  46  6.23929350   0.710  -0.15454   3.58885   6.40522  -0.07877   0.00000   0.000E+00   0.000E+00   1.000E+00
  47  6.26615003   0.710  -0.18429   3.58782   6.41775  -0.04107   0.00000   0.000E+00   0.000E+00   1.000E+00
  48  6.29144205   0.710  -0.21114   3.58690   6.42909  -0.00698   0.00000   0.000E+00   0.000E+00   1.000E+00
  49  6.31534184   0.710  -0.23594   3.58605   6.43957   0.02454   0.00000   0.000E+00   0.000E+00   1.000E+00
  50  6.33799472   0.710  -0.25888   3.58527   6.44926   0.05373   0.00000   0.000E+00   0.000E+00   1.000E+00
  51  6.35952437   0.710  -0.28004   3.58456   6.45823   0.08072   0.00000   0.000E+00   0.000E+00   1.000E+00
  52  6.38003693   0.710  -0.29985   3.58389   6.46663   0.10599   0.00000   0.000E+00   0.000E+00   1.000E+00
  53  6.39962418   0.710  -0.31844   3.58327   6.47452   0.12975   0.00000   0.000E+00   0.000E+00   1.000E+00
  54  6.41836601   0.710  -0.33596   3.58269   6.48197   0.15218   0.00000   0.000E+00   0.000E+00   1.000E+00
  55  6.43633240   0.710  -0.35251   3.58215   6.48904   0.17345   0.00000   0.000E+00   0.000E+00   1.000E+00
  56  6.45358496   0.710  -0.36805   3.58165   6.49569   0.19347   0.00000   0.000E+00   0.000E+00   1.000E+00
  57  6.47017827   0.710  -0.38283   3.58119   6.50201   0.21252   0.00000   0.000E+00   0.000E+00   1.000E+00
  58  6.48616084   0.710  -0.39694   3.58075   6.50806   0.23075   0.00000   0.000E+00   0.000E+00   1.000E+00
  59  6.50157606   0.710  -0.41047   3.58033   6.51388   0.24827   0.00000   0.000E+00   0.000E+00   1.000E+00
  60  6.51646282   0.710  -0.42330   3.57994   6.51940   0.26490   0.00000   0.000E+00   0.000E+00   1.000E+00
  61  6.53085616   0.710  -0.43555   3.57957   6.52470   0.28084   0.00000   0.000E+00   0.000E+00   1.000E+00
  62  6.54478774   0.710  -0.44744   3.57921   6.52985   0.29635   0.00000   0.000E+00   0.000E+00   1.000E+00
  63  6.55828627   0.710  -0.45873   3.57888   6.53473   0.31105   0.00000   0.000E+00   0.000E+00   1.000E+00
  64  6.57137785   0.710  -0.46966   3.57857   6.53947   0.32533   0.00000   0.000E+00   0.000E+00   1.000E+00
  65  6.58408633   0.710  -0.48020   3.57827   6.54406   0.33915   0.00000   0.000E+00   0.000E+00   1.000E+00
  66  6.59643347   0.710  -0.49030   3.57798   6.54846   0.35239   0.00000   0.000E+00   0.000E+00   1.000E+00
  67  6.60843925   0.710  -0.50021   3.57771   6.55277   0.36538   0.00000   0.000E+00   0.000E+00   1.000E+00
  68  6.62012206   0.710  -0.50960   3.57745   6.55687   0.37776   0.00000   0.000E+00   0.000E+00   1.000E+00
  69  6.63149881   0.710  -0.51887   3.57719   6.56092   0.38997   0.00000   0.000E+00   0.000E+00   1.000E+00
  70  6.64258512   0.710  -0.52770   3.57695   6.56479   0.40161   0.00000   0.000E+00   0.000E+00   1.000E+00
  71  6.65339546   0.710  -0.53640   3.57672   6.56859   0.41310   0.00000   0.000E+00   0.000E+00   1.000E+00
  72  6.66394323   0.710  -0.54476   3.57650   6.57226   0.42415   0.00000   0.000E+00   0.000E+00   1.000E+00
  73  6.67424090   0.710  -0.55291   3.57628   6.57584   0.43493   0.00000   0.000E+00   0.000E+00   1.000E+00
  74  6.68430003   0.710  -0.56090   3.57607   6.57935   0.44550   0.00000   0.000E+00   0.000E+00   1.000E+00
  75  6.69413145   0.710  -0.56855   3.57587   6.58271   0.45563   0.00000   0.000E+00   0.000E+00   1.000E+00
  76  6.70374521   0.710  -0.57620   3.57567   6.58607   0.46576   0.00000   0.000E+00   0.000E+00   1.000E+00
  77  6.71315077   0.710  -0.58345   3.57549   6.58925   0.47536   0.00000   0.000E+00   0.000E+00   1.000E+00
  78  6.72235694   0.710  -0.59063   3.57530   6.59241   0.48488   0.00000   0.000E+00   0.000E+00   1.000E+00
  79  6.73137200   0.710  -0.59770   3.57512   6.59552   0.49425   0.00000   0.000E+00   0.000E+00   1.000E+00
  80  6.74020372   0.710  -0.60444   3.57494   6.59849   0.50320   0.00000   0.000E+00   0.000E+00   1.000E+00
  81  6.74885942   0.710  -0.61117   3.57477   6.60146   0.51215   0.00000   0.000E+00   0.000E+00   1.000E+00
  82  6.75734597   0.710  -0.61772   3.57460   6.60434   0.52084   0.00000   0.000E+00   0.000E+00   1.000E+00
  83  6.76566986   0.710  -0.62405   3.57444   6.60713   0.52925   0.00000   0.000E+00   0.000E+00   1.000E+00
  84  6.77383721   0.710  -0.63038   3.57427   6.60992   0.53765   0.00000   0.000E+00   0.000E+00   1.000E+00
  85  6.78185379   0.710  -0.63651   3.57411   6.61262   0.54580   0.00000   0.000E+00   0.000E+00   1.000E+00
  86  6.78972507   0.710  -0.64244   3.57396   6.61524   0.55370   0.00000   0.000E+00   0.000E+00   1.000E+00
  87  6.79745623   0.710  -0.64838   3.57381   6.61786   0.56161   0.00000   0.000E+00   0.000E+00   1.000E+00
  88  6.80505216   0.710  -0.65418   3.57366   6.62040   0.56936   0.00000   0.000E+00   0.000E+00   1.000E+00
  89  6.81251752   0.710  -0.65975   3.57352   6.62280   0.57685   0.00000   0.000E+00   0.000E+00   1.000E+00
  90  6.81985672   0.710  -0.66532   3.57338   6.62520   0.58433   0.00000   0.000E+00   0.000E+00   1.000E+00
  91  6.82707395   0.710  -0.67090   3.57324   6.62760   0.59182   0.00000   0.000E+00   0.000E+00   1.000E+00
  92  6.83417320   0.710  -0.67613   3.57311   6.62980   0.59893   0.00000   0.000E+00   0.000E+00   1.000E+00
  93  6.84115827   0.710  -0.68135   3.57298   6.63200   0.60603   0.00000   0.000E+00   0.000E+00   1.000E+00
  94  6.84803276   0.710  -0.68658   3.57285   6.63420   0.61314   0.00000   0.000E+00   0.000E+00   1.000E+00
  95  6.85480013   0.710  -0.69168   3.57272   6.63632   0.62010   0.00000   0.000E+00   0.000E+00   1.000E+00
  96  6.86146367   0.710  -0.69658   3.57260   6.63834   0.62685   0.00000   0.000E+00   0.000E+00   1.000E+00
  97  6.86802651   0.710  -0.70149   3.57248   6.64035   0.63359   0.00000   0.000E+00   0.000E+00   1.000E+00
  98  6.87449165   0.710  -0.70639   3.57236   6.64237   0.64034   0.00000   0.000E+00   0.000E+00   1.000E+00
  99  6.88086195   0.710  -0.71112   3.57225   6.64429   0.64689   0.00000   0.000E+00   0.000E+00   1.000E+00
 100  6.88714016   0.710  -0.71572   3.57213   6.64614   0.65330   0.00000   0.000E+00   0.000E+00   1.000E+00
 101  6.89332891   0.710  -0.72032   3.57202   6.64799   0.65970   0.00000   0.000E+00   0.000E+00   1.000E+00
 102  6.89943070   0.710  -0.72491   3.57191   6.64983   0.66611   0.00000   0.000E+00   0.000E+00   1.000E+00
 103  6.90544795   0.710  -0.72937   3.57180   6.65161   0.67236   0.00000   0.000E+00   0.000E+00   1.000E+00
 104  6.91138297   0.710  -0.73368   3.57169   6.65331   0.67845   0.00000   0.000E+00   0.000E+00   1.000E+00
 105  6.91723798   0.710  -0.73798   3.57159   6.65501   0.68454   0.00000   0.000E+00   0.000E+00   1.000E+00
 106  6.92301509   0.710  -0.74229   3.57148   6.65671   0.69062   0.00000   0.000E+00   0.000E+00   1.000E+00
 107  6.92871637   0.710  -0.74656   3.57138   6.65839   0.69667   0.00000   0.000E+00   0.000E+00   1.000E+00
 108  6.93434377   0.710  -0.75059   3.57128   6.65995   0.70246   0.00000   0.000E+00   0.000E+00   1.000E+00
 109  6.93989918   0.710  -0.75462   3.57119   6.66151   0.70824   0.00000   0.000E+00   0.000E+00   1.000E+00
 110  6.94538443   0.710  -0.75865   3.57109   6.66307   0.71403   0.00000   0.000E+00   0.000E+00   1.000E+00
 111  6.95080126   0.710  -0.76268   3.57100   6.66463   0.71981   0.00000   0.000E+00   0.000E+00   1.000E+00
 112  6.95615136   0.710  -0.76658   3.57091   6.66613   0.72546   0.00000   0.000E+00   0.000E+00   1.000E+00
 113  6.96143635   0.710  -0.77035   3.57082   6.66757   0.73096   0.00000   0.000E+00   0.000E+00   1.000E+00
 114  6.96665780   0.710  -0.77412   3.57072   6.66900   0.73646   0.00000   0.000E+00   0.000E+00   1.000E+00
 115  6.97181722   0.710  -0.77789   3.57063   6.67044   0.74197   0.00000   0.000E+00   0.000E+00   1.000E+00
 116  6.97691607   0.710  -0.78166   3.57054   6.67188   0.74747   0.00000   0.000E+00   0.000E+00   1.000E+00
 117  6.98195574   0.710  -0.78530   3.57046   6.67326   0.75283   0.00000   9.903E-05   0.000E+00   9.999E-01
 118  6.98693760   0.710  -0.78882   3.57038   6.67458   0.75806   0.00000   2.875E-04   0.000E+00   9.997E-01
 119  6.99186297   0.710  -0.79234   3.57030   6.67590   0.76329   0.00000   4.760E-04   0.000E+00   9.995E-01
 120  6.99673310   0.710  -0.79586   3.57022   6.67723   0.76851   0.00000   6.646E-04   0.000E+00   9.993E-01
 121  7.00154922   0.710  -0.79938   3.57014   6.67855   0.77374   0.00000   8.531E-04   0.000E+00   9.991E-01
 122  7.00631252   0.710  -0.80284   3.57006   6.67985   0.77892   0.00000   1.000E-03   0.000E+00   9.990E-01
 123  7.01102414   0.710  -0.80613   3.56999   6.68107   0.78389   0.00000   1.000E-03   0.000E+00   9.990E-01
 124  7.01568520   0.710  -0.80942   3.56992   6.68230   0.78887   0.00000   1.000E-03   0.000E+00   9.990E-01
 125  7.02029676   0.710  -0.81271   3.56984   6.68352   0.79384   0.00000   1.000E-03   0.000E+00   9.990E-01
 126  7.02485986   0.710  -0.81599   3.56977   6.68474   0.79882   0.00000   1.000E-03   0.000E+00   9.990E-01
 127  7.02937552   0.710  -0.81928   3.56969   6.68596   0.80379   0.00000   1.000E-03   0.000E+00   9.990E-01
 128  7.03384471   0.710  -0.82245   3.56962   6.68714   0.80864   0.00000   1.000E-03   0.000E+00   9.990E-01
 129  7.03826838   0.710  -0.82551   3.56956   6.68827   0.81337   0.00000   1.000E-03   0.000E+00   9.990E-01
 130  7.04264744   0.710  -0.82857   3.56949   6.68940   0.81810   0.00000   1.000E-03   0.000E+00   9.990E-01
 131  7.04698279   0.710  -0.83163   3.56943   6.69052   0.82283   0.00000   1.000E-03   0.000E+00   9.990E-01
 132  7.05127529   0.710  -0.83469   3.56936   6.69165   0.82756   0.00000   1.000E-03   0.000E+00   9.990E-01
 133  7.05552577   0.710  -0.83775   3.56930   6.69278   0.83229   0.00000   1.000E-03   0.000E+00   9.990E-01
 134  7.05973506   0.710  -0.84072   3.56923   6.69387   0.83691   0.00000   1.000E-03   0.000E+00   9.990E-01
 135  7.06390395   0.710  -0.84357   3.56918   6.69492   0.84141   0.00000   1.000E-03   0.000E+00   9.990E-01
 136  7.06803319   0.710  -0.84641   3.56912   6.69597   0.84591   0.00000   1.000E-03   0.000E+00   9.990E-01
 137  7.07212355   0.710  -0.84926   3.56906   6.69702   0.85041   0.00000   1.000E-03   0.000E+00   9.990E-01
 138  7.07617573   0.710  -0.85211   3.56900   6.69807   0.85491   0.00000   1.000E-03   0.000E+00   9.990E-01
 139  7.08019046   0.710  -0.85496   3.56894   6.69912   0.85940   0.00000   1.000E-03   0.000E+00   9.990E-01
 140  7.08416842   0.710  -0.85781   3.56888   6.70017   0.86390   0.00000   1.000E-03   0.000E+00   9.990E-01
 141  7.08811027   0.710  -0.86047   3.56883   6.70115   0.86819   0.00000   1.000E-03   0.000E+00   9.990E-01
 142  7.09201666   0.710  -0.86311   3.56878   6.70213   0.87247   0.00000   1.000E-03   0.000E+00   9.990E-01
 143  7.09588823   0.710  -0.86576   3.56873   6.70310   0.87674   0.00000   1.000E-03   0.000E+00   9.990E-01
 144  7.09972559   0.710  -0.86840   3.56868   6.70408   0.88102   0.00000   1.000E-03   0.000E+00   9.990E-01
 145  7.10352934   0.710  -0.87105   3.56863   6.70505   0.88529   0.00000   1.000E-03   0.000E+00   9.990E-01
 146  7.10730007   0.710  -0.87369   3.56858   6.70603   0.88956   0.00000   1.000E-03   0.000E+00   9.990E-01
 147  7.11103833   0.710  -0.87634   3.56853   6.70700   0.89384   0.00000   1.000E-03   0.000E+00   9.990E-01
 148  7.11474470   0.710  -0.87881   3.56848   6.70791   0.89792   0.00000   1.119E-03   0.000E+00   9.989E-01
 149  7.11841970   0.710  -0.88126   3.56843   6.70882   0.90199   0.00000   1.251E-03   0.000E+00   9.987E-01
 150  7.12206386   0.710  -0.88371   3.56839   6.70972   0.90605   0.00000   1.383E-03   0.000E+00   9.986E-01
 151  7.12567770   0.710  -0.88616   3.56834   6.71063   0.91011   0.00000   1.515E-03   0.000E+00   9.985E-01
 152  7.12926172   0.710  -0.88861   3.56830   6.71154   0.91418   0.00000   1.647E-03   0.000E+00   9.984E-01
 153  7.13281640   0.710  -0.89106   3.56825   6.71244   0.91824   0.00000   1.780E-03   0.000E+00   9.982E-01
 154  7.13634222   0.710  -0.89351   3.56821   6.71335   0.92230   0.00000   1.912E-03   0.000E+00   9.981E-01
 155  7.13983965   0.710  -0.89590   3.56817   6.71423   0.92630   0.00000   2.000E-03   0.000E+00   9.980E-01
 156  7.14330914   0.710  -0.89817   3.56813   6.71507   0.93016   0.00000   2.000E-03   0.000E+00   9.980E-01
 157  7.14675113   0.710  -0.90043   3.56809   6.71592   0.93402   0.00000   2.000E-03   0.000E+00   9.980E-01
 158  7.15016605   0.710  -0.90270   3.56805   6.71676   0.93788   0.00000   2.000E-03   0.000E+00   9.980E-01
 159  7.15355433   0.710  -0.90497   3.56802   6.71760   0.94175   0.00000   2.000E-03   0.000E+00   9.980E-01
 160  7.15691639   0.710  -0.90724   3.56798   6.71845   0.94561   0.00000   2.000E-03   0.000E+00   9.980E-01
 161  7.16025261   0.710  -0.90951   3.56794   6.71929   0.94947   0.00000   2.000E-03   0.000E+00   9.980E-01
 162  7.16356340   0.710  -0.91178   3.56790   6.72013   0.95333   0.00000   2.000E-03   0.000E+00   9.980E-01
 163  7.16684915   0.710  -0.91401   3.56786   6.72097   0.95716   0.00000   2.000E-03   0.000E+00   9.980E-01
 164  7.17011022   0.710  -0.91611   3.56783   6.72175   0.96083   0.00000   2.000E-03   0.000E+00   9.980E-01
 165  7.17334698   0.710  -0.91820   3.56780   6.72253   0.96450   0.00000   2.000E-03   0.000E+00   9.980E-01
 166  7.17655980   0.710  -0.92029   3.56777   6.72332   0.96817   0.00000   2.000E-03   0.000E+00   9.980E-01
 167  7.17974903   0.710  -0.92238   3.56774   6.72410   0.97184   0.00000   2.000E-03   0.000E+00   9.980E-01
 168  7.18291501   0.710  -0.92448   3.56771   6.72488   0.97551   0.00000   2.000E-03   0.000E+00   9.980E-01
 169  7.18605807   0.710  -0.92657   3.56768   6.72566   0.97918   0.00000   2.000E-03   0.000E+00   9.980E-01
 170  7.18917855   0.710  -0.92866   3.56765   6.72645   0.98285   0.00000   2.000E-03   0.000E+00   9.980E-01
 171  7.19227678   0.710  -0.93075   3.56762   6.72723   0.98652   0.00000   2.000E-03   0.000E+00   9.980E-01
 172  7.19535305   0.710  -0.93278   3.56759   6.72799   0.99012   0.00000   2.039E-03   0.000E+00   9.980E-01
 173  7.19840769   0.710  -0.93471   3.56757   6.72872   0.99360   0.00000   2.146E-03   0.000E+00   9.979E-01
 174  7.20144099   0.710  -0.93663   3.56754   6.72945   0.99709   0.00000   2.254E-03   0.000E+00   9.977E-01
 175  7.20445325   0.710  -0.93855   3.56752   6.73018   1.00057   0.00000   2.362E-03   0.000E+00   9.976E-01
 176  7.20744477   0.710  -0.94048   3.56749   6.73092   1.00405   0.00000   2.469E-03   0.000E+00   9.975E-01
 177  7.21041581   0.710  -0.94240   3.56747   6.73165   1.00754   0.00000   2.577E-03   0.000E+00   9.974E-01
 178  7.21336668   0.710  -0.94432   3.56744   6.73238   1.01102   0.00000   2.684E-03   0.000E+00   9.973E-01
 179  7.21629762   0.710  -0.94625   3.56742   6.73311   1.01451   0.00000   2.792E-03   0.000E+00   9.972E-01
 180  7.21920892   0.710  -0.94817   3.56739   6.73384   1.01799   0.00000   2.899E-03   0.000E+00   9.971E-01
 181  7.22210083   0.710  -0.95008   3.56737   6.73456   1.02146   0.00000   3.007E-03   0.000E+00   9.970E-01
 182  7.22497362   0.710  -0.95185   3.56735   6.73525   1.02478   0.00000   3.108E-03   0.000E+00   9.969E-01
 183  7.22782752   0.710  -0.95362   3.56733   6.73593   1.02809   0.00000   3.210E-03   0.000E+00   9.968E-01
 184  7.23066280   0.710  -0.95539   3.56731   6.73661   1.03140   0.00000   3.312E-03   0.000E+00   9.967E-01
 185  7.23347968   0.710  -0.95717   3.56729   6.73730   1.03471   0.00000   3.414E-03   0.000E+00   9.966E-01
 186  7.23627841   0.710  -0.95894   3.56727   6.73798   1.03802   0.00000   3.516E-03   0.000E+00   9.965E-01
 187  7.23905922   0.710  -0.96071   3.56725   6.73866   1.04133   0.00000   3.617E-03   0.000E+00   9.964E-01
 188  7.24182234   0.710  -0.96248   3.56723   6.73935   1.04464   0.00000   3.719E-03   0.000E+00   9.963E-01
 189  7.24456799   0.710  -0.96425   3.56721   6.74003   1.04796   0.00000   3.821E-03   0.000E+00   9.962E-01
 190  7.24729639   0.710  -0.96602   3.56719   6.74071   1.05127   0.00000   3.923E-03   0.000E+00   9.961E-01
 191  7.25000775   0.710  -0.96775   3.56717   6.74138   1.05454   0.00000   4.023E-03   0.000E+00   9.960E-01
 192  7.25270230   0.710  -0.96937   3.56715   6.74203   1.05769   0.00000   4.120E-03   0.000E+00   9.959E-01
 193  7.25538022   0.710  -0.97099   3.56714   6.74267   1.06084   0.00000   4.216E-03   0.000E+00   9.958E-01
 194  7.25804174   0.710  -0.97261   3.56713   6.74331   1.06399   0.00000   4.313E-03   0.000E+00   9.957E-01
 195  7.26068705   0.710  -0.97423   3.56712   6.74395   1.06714   0.00000   4.409E-03   0.000E+00   9.956E-01
 196  7.26331634   0.710  -0.97585   3.56710   6.74459   1.07030   0.00000   4.506E-03   0.000E+00   9.955E-01
 197  7.26592980   0.710  -0.97747   3.56709   6.74523   1.07345   0.00000   4.602E-03   0.000E+00   9.954E-01
 198  7.26852764   0.710  -0.97909   3.56708   6.74587   1.07660   0.00000   4.699E-03   0.000E+00   9.953E-01
 199  7.27111003   0.710  -0.98071   3.56707   6.74651   1.07975   0.00000   4.795E-03   0.000E+00   9.952E-01
 200  7.27367715   0.710  -0.98233   3.56705   6.74715   1.08290   0.00000   4.892E-03   0.000E+00   9.951E-01
 201  7.27622919   0.710  -0.98396   3.56704   6.74779   1.08605   0.00000   4.988E-03   0.000E+00   9.950E-01
 202  7.27876632   0.710  -0.98546   3.56703   6.74840   1.08907   0.00000   5.081E-03   0.000E+00   9.949E-01
 203  7.28128871   0.710  -0.98694   3.56702   6.74901   1.09207   0.00000   5.172E-03   0.000E+00   9.948E-01
 204  7.28379654   0.710  -0.98843   3.56702   6.74961   1.09507   0.00000   5.264E-03   0.000E+00   9.947E-01
 205  7.28628997   0.710  -0.98991   3.56701   6.75021   1.09807   0.00000   5.356E-03   0.000E+00   9.946E-01
 206  7.28876916   0.710  -0.99140   3.56700   6.75082   1.10107   0.00000   5.447E-03   0.000E+00   9.946E-01
 207  7.29123428   0.710  -0.99288   3.56699   6.75142   1.10407   0.00000   5.539E-03   0.000E+00   9.945E-01
 208  7.29368549   0.710  -0.99437   3.56698   6.75202   1.10707   0.00000   5.630E-03   0.000E+00   9.944E-01
 209  7.29612295   0.710  -0.99586   3.56698   6.75263   1.11007   0.00000   5.722E-03   0.000E+00   9.943E-01
 210  7.29854679   0.710  -0.99734   3.56697   6.75323   1.11306   0.00000   5.814E-03   0.000E+00   9.942E-01
 211  7.30095719   0.710  -0.99883   3.56696   6.75384   1.11606   0.00000   5.905E-03   0.000E+00   9.941E-01
 212  7.30335428   0.710  -1.00031   3.56695   6.75444   1.11906   0.00000   5.997E-03   0.000E+00   9.940E-01
 213  7.30573821   0.710  -1.00167   3.56695   6.75501   1.12193   0.00000   6.084E-03   0.000E+00   9.939E-01
 214  7.30810913   0.710  -1.00303   3.56694   6.75558   1.12478   0.00000   6.171E-03   0.000E+00   9.938E-01
 215  7.31046718   0.710  -1.00439   3.56694   6.75616   1.12764   0.00000   6.259E-03   0.000E+00   9.937E-01
 216  7.31281249   0.710  -1.00575   3.56694   6.75673   1.13050   0.00000   6.346E-03   0.000E+00   9.937E-01
 217  7.31514520   0.710  -1.00711   3.56694   6.75730   1.13335   0.00000   6.433E-03   0.000E+00   9.936E-01
 218  7.31746546   0.710  -1.00847   3.56693   6.75787   1.13621   0.00000   6.520E-03   0.000E+00   9.935E-01
 219  7.31977338   0.710  -1.00982   3.56693   6.75844   1.13907   0.00000   6.607E-03   0.000E+00   9.934E-01
 220  7.32206910   0.710  -1.01118   3.56693   6.75901   1.14192   0.00000   6.694E-03   0.000E+00   9.933E-01
 221  7.32435275   0.710  -1.01254   3.56693   6.75959   1.14478   0.00000   6.781E-03   0.000E+00   9.932E-01
 222  7.32662445   0.710  -1.01390   3.56692   6.76016   1.14764   0.00000   6.868E-03   0.000E+00   9.931E-01
 223  7.32888434   0.710  -1.01526   3.56692   6.76073   1.15049   0.00000   6.956E-03   0.000E+00   9.930E-01
 224  7.33113252   0.710  -1.01656   3.56692   6.76129   1.15329   0.00000   7.081E-03   0.000E+00   9.929E-01
 225  7.33336913   0.710  -1.01780   3.56692   6.76183   1.15601   0.00000   7.247E-03   0.000E+00   9.928E-01
 226  7.33559427   0.710  -1.01904   3.56693   6.76237   1.15874   0.00000   7.413E-03   0.000E+00   9.926E-01
 227  7.33780808   0.710  -1.02028   3.56693   6.76291   1.16146   0.00000   7.579E-03   0.000E+00   9.924E-01
 228  7.34001066   0.710  -1.02152   3.56693   6.76346   1.16419   0.00000   7.745E-03   0.000E+00   9.923E-01
 229  7.34220212   0.710  -1.02276   3.56693   6.76400   1.16692   0.00000   7.911E-03   0.000E+00   9.921E-01
 230  7.34438258   0.710  -1.02400   3.56694   6.76454   1.16964   0.00000   8.077E-03   0.000E+00   9.919E-01
 231  7.34655214   0.710  -1.02524   3.56694   6.76508   1.17237   0.00000   8.243E-03   0.000E+00   9.918E-01
 232  7.34871093   0.710  -1.02648   3.56694   6.76563   1.17509   0.00000   8.409E-03   0.000E+00   9.916E-01
 233  7.35085903   0.710  -1.02772   3.56694   6.76617   1.17782   0.00000   8.574E-03   0.000E+00   9.914E-01
 234  7.35299656   0.710  -1.02896   3.56695   6.76671   1.18054   0.00000   8.740E-03   0.000E+00   9.913E-01
 235  7.35512363   0.710  -1.03020   3.56695   6.76725   1.18327   0.00000   8.906E-03   0.000E+00   9.911E-01
 236  7.35724032   0.710  -1.03139   3.56695   6.76778   1.18594   0.00000   9.069E-03   0.000E+00   9.909E-01
 237  7.35934675   0.710  -1.03252   3.56696   6.76830   1.18854   0.00000   9.227E-03   0.000E+00   9.908E-01
 238  7.36144301   0.710  -1.03365   3.56697   6.76882   1.19114   0.00000   9.385E-03   0.000E+00   9.906E-01
 239  7.36352921   0.710  -1.03478   3.56697   6.76933   1.19374   0.00000   9.543E-03   0.000E+00   9.905E-01
 240  7.36560543   0.710  -1.03591   3.56698   6.76985   1.19634   0.00000   9.701E-03   0.000E+00   9.903E-01
 241  7.36767177   0.710  -1.03704   3.56699   6.77037   1.19894   0.00000   9.859E-03   0.000E+00   9.901E-01
 242  7.36972832   0.710  -1.03817   3.56700   6.77088   1.20154   0.00000   1.002E-02   0.000E+00   9.900E-01
 243  7.37177518   0.710  -1.03930   3.56700   6.77140   1.20414   0.00000   1.018E-02   0.000E+00   9.898E-01
 244  7.37381245   0.710  -1.04043   3.56701   6.77191   1.20674   0.00000   1.033E-02   0.000E+00   9.897E-01
 245  7.37584019   0.710  -1.04156   3.56702   6.77243   1.20934   0.00000   1.049E-02   0.000E+00   9.895E-01
 246  7.37785852   0.710  -1.04269   3.56702   6.77295   1.21194   0.00000   1.065E-02   0.000E+00   9.894E-01
 247  7.37986751   0.710  -1.04382   3.56703   6.77346   1.21454   0.00000   1.081E-02   0.000E+00   9.892E-01
 248  7.38186725   0.710  -1.04495   3.56704   6.77398   1.21714   0.00000   1.097E-02   0.000E+00   9.890E-01
 249  7.38385782   0.710  -1.04600   3.56705   6.77448   1.21965   0.00000   1.112E-02   0.000E+00   9.889E-01
 250  7.38583931   0.710  -1.04702   3.56706   6.77497   1.22214   0.00000   1.127E-02   0.000E+00   9.887E-01
 251  7.38781180   0.710  -1.04805   3.56707   6.77546   1.22462   0.00000   1.142E-02   0.000E+00   9.886E-01
 252  7.38977537   0.710  -1.04907   3.56708   6.77596   1.22711   0.00000   1.157E-02   0.000E+00   9.884E-01
 253  7.39173011   0.710  -1.05010   3.56709   6.77645   1.22959   0.00000   1.172E-02   0.000E+00   9.883E-01
 254  7.39367608   0.710  -1.05112   3.56711   6.77694   1.23208   0.00000   1.187E-02   0.000E+00   9.881E-01
 255  7.39561338   0.710  -1.05215   3.56712   6.77743   1.23456   0.00000   1.202E-02   0.000E+00   9.880E-01
 256  7.39754207   0.710  -1.05317   3.56713   6.77793   1.23705   0.00000   1.217E-02   0.000E+00   9.878E-01
 257  7.39946223   0.710  -1.05420   3.56714   6.77842   1.23953   0.00000   1.233E-02   0.000E+00   9.877E-01
 258  7.40137395   0.710  -1.05522   3.56715   6.77891   1.24202   0.00000   1.248E-02   0.000E+00   9.875E-01
 259  7.40327728   0.710  -1.05625   3.56716   6.77940   1.24450   0.00000   1.263E-02   0.000E+00   9.874E-01
 260  7.40517231   0.710  -1.05727   3.56717   6.77990   1.24699   0.00000   1.278E-02   0.000E+00   9.872E-01
 261  7.40705910   0.710  -1.05830   3.56718   6.78039   1.24948   0.00000   1.293E-02   0.000E+00   9.871E-01
 262  7.40893774   0.710  -1.05927   3.56720   6.78087   1.25190   0.00000   1.311E-02   0.000E+00   9.869E-01
 263  7.41080828   0.710  -1.06020   3.56721   6.78134   1.25428   0.00000   1.333E-02   0.000E+00   9.867E-01
 264  7.41267080   0.710  -1.06113   3.56723   6.78181   1.25665   0.00000   1.355E-02   0.000E+00   9.865E-01
 265  7.41452537   0.710  -1.06206   3.56724   6.78228   1.25903   0.00000   1.376E-02   0.000E+00   9.862E-01
 266  7.41637205   0.710  -1.06299   3.56726   6.78276   1.26140   0.00000   1.398E-02   0.000E+00   9.860E-01
 267  7.41821091   0.710  -1.06392   3.56727   6.78323   1.26378   0.00000   1.420E-02   0.000E+00   9.858E-01
 268  7.42004202   0.710  -1.06484   3.56729   6.78370   1.26615   0.00000   1.441E-02   0.000E+00   9.856E-01
 269  7.42186544   0.710  -1.06577   3.56730   6.78417   1.26853   0.00000   1.463E-02   0.000E+00   9.854E-01
 270  7.42368124   0.710  -1.06670   3.56732   6.78464   1.27090   0.00000   1.484E-02   0.000E+00   9.852E-01
 271  7.42548947   0.710  -1.06763   3.56733   6.78511   1.27328   0.00000   1.506E-02   0.000E+00   9.849E-01
 272  7.42729021   0.710  -1.06856   3.56735   6.78558   1.27565   0.00000   1.528E-02   0.000E+00   9.847E-01
 273  7.42908351   0.710  -1.06949   3.56736   6.78606   1.27803   0.00000   1.549E-02   0.000E+00   9.845E-01
 274  7.43086944   0.710  -1.07041   3.56738   6.78653   1.28040   0.00000   1.571E-02   0.000E+00   9.843E-01
 275  7.43264806   0.710  -1.07134   3.56739   6.78700   1.28278   0.00000   1.593E-02   0.000E+00   9.841E-01
 276  7.43441942   0.710  -1.07221   3.56741   6.78746   1.28508   0.00000   1.614E-02   0.000E+00   9.839E-01
 277  7.43618358   0.710  -1.07305   3.56743   6.78791   1.28735   0.00000   1.634E-02   0.000E+00   9.837E-01
 278  7.43794061   0.710  -1.07388   3.56745   6.78836   1.28962   0.00000   1.655E-02   0.000E+00   9.835E-01
 279  7.43969056   0.710  -1.07472   3.56747   6.78882   1.29189   0.00000   1.676E-02   0.000E+00   9.832E-01
 280  7.44143348   0.710  -1.07556   3.56749   6.78927   1.29416   0.00000   1.696E-02   0.000E+00   9.830E-01
 281  7.44316944   0.710  -1.07639   3.56751   6.78972   1.29643   0.00000   1.717E-02   0.000E+00   9.828E-01
 282  7.44489849   0.710  -1.07723   3.56753   6.79018   1.29870   0.00000   1.738E-02   0.000E+00   9.826E-01
 283  7.44662068   0.710  -1.07807   3.56755   6.79063   1.30097   0.00000   1.758E-02   0.000E+00   9.824E-01
 284  7.44833606   0.710  -1.07891   3.56757   6.79108   1.30324   0.00000   1.779E-02   0.000E+00   9.822E-01
 285  7.45004470   0.710  -1.07974   3.56759   6.79153   1.30551   0.00000   1.800E-02   0.000E+00   9.820E-01
 286  7.45174664   0.710  -1.08058   3.56761   6.79199   1.30778   0.00000   1.820E-02   0.000E+00   9.818E-01
 287  7.45344194   0.710  -1.08142   3.56763   6.79244   1.31005   0.00000   1.841E-02   0.000E+00   9.816E-01
 288  7.45513065   0.710  -1.08225   3.56765   6.79289   1.31232   0.00000   1.862E-02   0.000E+00   9.814E-01
 289  7.45681282   0.710  -1.08309   3.56767   6.79335   1.31459   0.00000   1.882E-02   0.000E+00   9.812E-01
 290  7.45848849   0.710  -1.08391   3.56769   6.79380   1.31685   0.00000   1.904E-02   0.000E+00   9.810E-01
 291  7.46015773   0.710  -1.08466   3.56772   6.79423   1.31902   0.00000   1.930E-02   0.000E+00   9.807E-01
 292  7.46182057   0.710  -1.08541   3.56774   6.79467   1.32120   0.00000   1.957E-02   0.000E+00   9.804E-01
 293  7.46347707   0.710  -1.08616   3.56776   6.79510   1.32337   0.00000   1.983E-02   0.000E+00   9.802E-01
 294  7.46512728   0.710  -1.08691   3.56779   6.79554   1.32554   0.00000   2.010E-02   0.000E+00   9.799E-01
 295  7.46677124   0.710  -1.08766   3.56781   6.79597   1.32771   0.00000   2.036E-02   0.000E+00   9.796E-01
 296  7.46840900   0.710  -1.08841   3.56784   6.79641   1.32989   0.00000   2.062E-02   0.000E+00   9.794E-01
 297  7.47004061   0.710  -1.08916   3.56786   6.79685   1.33206   0.00000   2.089E-02   0.000E+00   9.791E-01
 298  7.47166611   0.710  -1.08991   3.56788   6.79728   1.33423   0.00000   2.115E-02   0.000E+00   9.788E-01
 299  7.47328555   0.710  -1.09066   3.56791   6.79772   1.33641   0.00000   2.142E-02   0.000E+00   9.786E-01
 300  7.47489897   0.710  -1.09141   3.56793   6.79815   1.33858   0.00000   2.168E-02   0.000E+00   9.783E-01
 301  7.47650642   0.710  -1.09216   3.56795   6.79859   1.34075   0.00000   2.194E-02   0.000E+00   9.781E-01
 302  7.47810795   0.710  -1.09291   3.56798   6.79902   1.34292   0.00000   2.221E-02   0.000E+00   9.778E-01
 303  7.47970359   0.710  -1.09366   3.56800   6.79946   1.34510   0.00000   2.247E-02   0.000E+00   9.775E-01
 304  7.48129339   0.710  -1.09441   3.56803   6.79989   1.34727   0.00000   2.274E-02   0.000E+00   9.773E-01
 305  7.48287739   0.710  -1.09516   3.56805   6.80033   1.34944   0.00000   2.300E-02   0.000E+00   9.770E-01
 306  7.48445563   0.710  -1.09583   3.56808   6.80075   1.35152   0.00000   2.325E-02   0.000E+00   9.767E-01
 307  7.48602816   0.710  -1.09650   3.56811   6.80117   1.35360   0.00000   2.351E-02   0.000E+00   9.765E-01
 308  7.48759502   0.710  -1.09716   3.56813   6.80159   1.35568   0.00000   2.376E-02   0.000E+00   9.762E-01
 309  7.48915624   0.710  -1.09783   3.56816   6.80202   1.35776   0.00000   2.401E-02   0.000E+00   9.760E-01
 310  7.49071187   0.710  -1.09850   3.56819   6.80244   1.35984   0.00000   2.427E-02   0.000E+00   9.757E-01
 311  7.49226195   0.710  -1.09916   3.56822   6.80286   1.36192   0.00000   2.452E-02   0.000E+00   9.755E-01
 312  7.49380652   0.710  -1.09983   3.56824   6.80328   1.36400   0.00000   2.477E-02   0.000E+00   9.752E-01
 313  7.49534561   0.710  -1.10050   3.56827   6.80370   1.36608   0.00000   2.502E-02   0.000E+00   9.750E-01
 314  7.49687927   0.710  -1.10117   3.56830   6.80412   1.36816   0.00000   2.528E-02   0.000E+00   9.747E-01
 315  7.49840753   0.710  -1.10183   3.56833   6.80454   1.37024   0.00000   2.553E-02   0.000E+00   9.745E-01
 316  7.49993043   0.710  -1.10250   3.56836   6.80496   1.37232   0.00000   2.578E-02   0.000E+00   9.742E-01
 317  7.50144801   0.710  -1.10317   3.56838   6.80539   1.37441   0.00000   2.604E-02   0.000E+00   9.740E-01
 318  7.50296030   0.710  -1.10384   3.56841   6.80581   1.37649   0.00000   2.629E-02   0.000E+00   9.737E-01
 319  7.50446735   0.710  -1.10450   3.56844   6.80623   1.37857   0.00000   2.654E-02   0.000E+00   9.735E-01
 320  7.50596918   0.710  -1.10517   3.56847   6.80665   1.38065   0.00000   2.680E-02   0.000E+00   9.732E-01
 321  7.50746584   0.710  -1.10582   3.56850   6.80707   1.38271   0.00000   2.707E-02   0.000E+00   9.729E-01
 322  7.50895736   0.710  -1.10641   3.56853   6.80748   1.38470   0.00000   2.743E-02   0.000E+00   9.726E-01
 323  7.51044378   0.710  -1.10700   3.56856   6.80788   1.38669   0.00000   2.780E-02   0.000E+00   9.722E-01
 324  7.51192512   0.710  -1.10759   3.56859   6.80829   1.38868   0.00000   2.816E-02   0.000E+00   9.718E-01
 325  7.51340143   0.710  -1.10817   3.56862   6.80870   1.39068   0.00000   2.853E-02   0.000E+00   9.715E-01
 326  7.51487274   0.710  -1.10876   3.56866   6.80911   1.39267   0.00000   2.889E-02   0.000E+00   9.711E-01
 327  7.51633908   0.710  -1.10935   3.56869   6.80951   1.39466   0.00000   2.925E-02   0.000E+00   9.707E-01
 328  7.51780049   0.710  -1.10994   3.56872   6.80992   1.39665   0.00000   2.962E-02   0.000E+00   9.704E-01
 329  7.51925699   0.710  -1.11052   3.56875   6.81033   1.39864   0.00000   2.998E-02   0.000E+00   9.700E-01
 330  7.52070863   0.710  -1.11111   3.56879   6.81074   1.40063   0.00000   3.034E-02   0.000E+00   9.697E-01
 331  7.52215543   0.710  -1.11170   3.56882   6.81114   1.40262   0.00000   3.071E-02   0.000E+00   9.693E-01
 332  7.52359743   0.710  -1.11229   3.56885   6.81155   1.40462   0.00000   3.107E-02   0.000E+00   9.689E-01
 333  7.52503465   0.710  -1.11288   3.56888   6.81196   1.40661   0.00000   3.144E-02   0.000E+00   9.686E-01
 334  7.52646713   0.710  -1.11346   3.56891   6.81237   1.40860   0.00000   3.180E-02   0.000E+00   9.682E-01
 335  7.52789491   0.710  -1.11405   3.56895   6.81277   1.41059   0.00000   3.216E-02   0.000E+00   9.678E-01
 336  7.52931801   0.710  -1.11464   3.56898   6.81318   1.41258   0.00000   3.253E-02   0.000E+00   9.675E-01
 337  7.53073645   0.710  -1.11523   3.56901   6.81359   1.41457   0.00000   3.289E-02   0.000E+00   9.671E-01
 338  7.53215028   0.710  -1.11576   3.56905   6.81399   1.41650   0.00000   3.325E-02   0.000E+00   9.668E-01
 339  7.53355953   0.710  -1.11628   3.56908   6.81438   1.41841   0.00000   3.360E-02   0.000E+00   9.664E-01
 340  7.53496421   0.710  -1.11679   3.56912   6.81478   1.42032   0.00000   3.394E-02   0.000E+00   9.661E-01
 341  7.53636437   0.710  -1.11730   3.56915   6.81518   1.42222   0.00000   3.429E-02   0.000E+00   9.657E-01
 342  7.53776002   0.710  -1.11782   3.56919   6.81557   1.42413   0.00000   3.464E-02   0.000E+00   9.654E-01
 343  7.53915121   0.710  -1.11833   3.56923   6.81597   1.42604   0.00000   3.499E-02   0.000E+00   9.650E-01
 344  7.54053795   0.710  -1.11885   3.56926   6.81636   1.42794   0.00000   3.534E-02   0.000E+00   9.647E-01
 345  7.54192028   0.710  -1.11936   3.56930   6.81676   1.42985   0.00000   3.569E-02   0.000E+00   9.643E-01
 346  7.54329823   0.710  -1.11987   3.56933   6.81716   1.43176   0.00000   3.604E-02   0.000E+00   9.640E-01
 347  7.54467181   0.710  -1.12039   3.56937   6.81755   1.43366   0.00000   3.639E-02   0.000E+00   9.636E-01
 348  7.54604107   0.710  -1.12090   3.56941   6.81795   1.43557   0.00000   3.674E-02   0.000E+00   9.633E-01
 349  7.54740602   0.710  -1.12142   3.56944   6.81834   1.43748   0.00000   3.709E-02   0.000E+00   9.629E-01
 350  7.54876669   0.710  -1.12193   3.56948   6.81874   1.43938   0.00000   3.744E-02   0.000E+00   9.626E-01
 351  7.55012312   0.710  -1.12244   3.56951   6.81914   1.44129   0.00000   3.779E-02   0.000E+00   9.622E-01
 352  7.55147532   0.710  -1.12296   3.56955   6.81953   1.44319   0.00000   3.814E-02   0.000E+00   9.619E-01
 353  7.55282332   0.710  -1.12347   3.56959   6.81993   1.44510   0.00000   3.849E-02   0.000E+00   9.615E-01
 354  7.55416716   0.710  -1.12399   3.56962   6.82032   1.44701   0.00000   3.883E-02   0.000E+00   9.612E-01
 355  7.55550685   0.710  -1.12446   3.56966   6.82071   1.44887   0.00000   3.924E-02   0.000E+00   9.608E-01
 356  7.55684241   0.710  -1.12490   3.56970   6.82110   1.45070   0.00000   3.968E-02   0.000E+00   9.603E-01
 357  7.55817389   0.710  -1.12535   3.56974   6.82148   1.45252   0.00000   4.013E-02   0.000E+00   9.599E-01
 358  7.55950129   0.710  -1.12579   3.56978   6.82187   1.45435   0.00000   4.058E-02   0.000E+00   9.594E-01
 359  7.56082465   0.710  -1.12623   3.56982   6.82225   1.45617   0.00000   4.102E-02   0.000E+00   9.590E-01
 360  7.56214399   0.710  -1.12667   3.56986   6.82264   1.45800   0.00000   4.147E-02   0.000E+00   9.585E-01
 361  7.56345933   0.710  -1.12711   3.56990   6.82302   1.45983   0.00000   4.192E-02   0.000E+00   9.581E-01
 362  7.56477070   0.710  -1.12755   3.56994   6.82341   1.46165   0.00000   4.236E-02   0.000E+00   9.576E-01
 363  7.56607813   0.710  -1.12799   3.56998   6.82379   1.46348   0.00000   4.281E-02   0.000E+00   9.572E-01
 364  7.56738163   0.710  -1.12844   3.57002   6.82418   1.46530   0.00000   4.326E-02   0.000E+00   9.567E-01
 365  7.56868123   0.710  -1.12888   3.57006   6.82456   1.46713   0.00000   4.371E-02   0.000E+00   9.563E-01
 366  7.56997695   0.710  -1.12932   3.57010   6.82495   1.46895   0.00000   4.415E-02   0.000E+00   9.558E-01
 367  7.57126881   0.710  -1.12976   3.57014   6.82533   1.47078   0.00000   4.460E-02   0.000E+00   9.554E-01
 368  7.57255685   0.710  -1.13020   3.57018   6.82572   1.47261   0.00000   4.505E-02   0.000E+00   9.550E-01
 369  7.57384108   0.710  -1.13064   3.57022   6.82610   1.47443   0.00000   4.549E-02   0.000E+00   9.545E-01
 370  7.57512152   0.710  -1.13108   3.57026   6.82649   1.47626   0.00000   4.594E-02   0.000E+00   9.541E-01
 371  7.57639819   0.710  -1.13153   3.57030   6.82687   1.47808   0.00000   4.639E-02   0.000E+00   9.536E-01
 372  7.57767113   0.710  -1.13197   3.57035   6.82726   1.47991   0.00000   4.684E-02   0.000E+00   9.532E-01
 373  7.57894034   0.710  -1.13237   3.57039   6.82764   1.48168   0.00000   4.731E-02   0.000E+00   9.527E-01
 374  7.58020586   0.710  -1.13274   3.57043   6.82801   1.48343   0.00000   4.779E-02   0.000E+00   9.522E-01
 375  7.58146770   0.710  -1.13311   3.57048   6.82839   1.48518   0.00000   4.827E-02   0.000E+00   9.517E-01
 376  7.58272588   0.710  -1.13348   3.57052   6.82876   1.48693   0.00000   4.875E-02   0.000E+00   9.512E-01
 377  7.58398043   0.710  -1.13386   3.57056   6.82914   1.48867   0.00000   4.924E-02   0.000E+00   9.508E-01
 378  7.58523137   0.710  -1.13423   3.57061   6.82952   1.49042   0.00000   4.972E-02   0.000E+00   9.503E-01
 379  7.58647871   0.710  -1.13460   3.57065   6.82989   1.49217   0.00000   5.020E-02   0.000E+00   9.498E-01
 380  7.58772248   0.710  -1.13498   3.57070   6.83027   1.49392   0.00000   5.069E-02   0.000E+00   9.493E-01
 381  7.58896270   0.710  -1.13535   3.57074   6.83064   1.49566   0.00000   5.117E-02   0.000E+00   9.488E-01
 382  7.59019938   0.710  -1.13572   3.57078   6.83102   1.49741   0.00000   5.165E-02   0.000E+00   9.483E-01
 383  7.59143256   0.710  -1.13610   3.57083   6.83139   1.49916   0.00000   5.214E-02   0.000E+00   9.479E-01
 384  7.59266224   0.710  -1.13647   3.57087   6.83177   1.50091   0.00000   5.262E-02   0.000E+00   9.474E-01
 385  7.59388845   0.710  -1.13684   3.57092   6.83215   1.50265   0.00000   5.310E-02   0.000E+00   9.469E-01
 386  7.59511121   0.710  -1.13721   3.57096   6.83252   1.50440   0.00000   5.358E-02   0.000E+00   9.464E-01
 387  7.59633054   0.710  -1.13759   3.57100   6.83290   1.50615   0.00000   5.407E-02   0.000E+00   9.459E-01
 388  7.59754645   0.710  -1.13796   3.57105   6.83327   1.50790   0.00000   5.455E-02   0.000E+00   9.454E-01
 389  7.59875897   0.710  -1.13833   3.57109   6.83365   1.50964   0.00000   5.503E-02   0.000E+00   9.450E-01
 390  7.59996811   0.710  -1.13871   3.57114   6.83402   1.51139   0.00000   5.552E-02   0.000E+00   9.445E-01
 391  7.60117390   0.710  -1.13908   3.57118   6.83440   1.51314   0.00000   5.600E-02   0.000E+00   9.440E-01
 392  7.61166123   0.710  -1.14178   3.57161   6.83764   1.52788   0.00000   6.054E-02   0.000E+00   9.395E-01
 393  7.62190127   0.710  -1.14448   3.57203   6.84087   1.54262   0.00000   6.509E-02   0.000E+00   9.349E-01
 394  7.63190542   0.710  -1.14673   3.57249   6.84406   1.55681   0.00000   7.054E-02   0.000E+00   9.295E-01
 395  7.64168430   0.710  -1.14887   3.57296   6.84724   1.57087   0.00000   7.621E-02   0.000E+00   9.238E-01
 396  7.65124783   0.710  -1.15074   3.57344   6.85038   1.58459   0.00000   8.198E-02   0.000E+00   9.180E-01
 397  7.66060529   0.710  -1.15235   3.57394   6.85350   1.59796   0.00000   8.784E-02   0.000E+00   9.122E-01
 398  7.66976538   0.710  -1.15390   3.57444   6.85661   1.61125   0.00000   9.382E-02   0.000E+00   9.062E-01
 399  7.67873625   0.710  -1.15497   3.57498   6.85967   1.62396   0.00000   1.006E-01   0.000E+00   8.994E-01
 400  7.68752556   0.710  -1.15604   3.57552   6.86272   1.63666   0.00000   1.075E-01   0.000E+00   8.925E-01
 401  7.69614051   0.710  -1.15681   3.57608   6.86575   1.64895   0.00000   1.146E-01   0.000E+00   8.854E-01
 402  7.70458789   0.710  -1.15740   3.57665   6.86875   1.66098   0.00000   1.220E-01   0.000E+00   8.780E-01
 403  7.71287409   0.710  -1.15796   3.57723   6.87175   1.67298   0.00000   1.294E-01   0.000E+00   8.706E-01
 404  7.72100515   0.710  -1.15807   3.57784   6.87470   1.68432   0.00000   1.373E-01   0.000E+00   8.627E-01
 405  7.72898677   0.710  -1.15818   3.57845   6.87765   1.69566   0.00000   1.452E-01   0.000E+00   8.548E-01
 406  7.73682434   0.710  -1.15813   3.57907   6.88058   1.70674   0.00000   1.536E-01   0.000E+00   8.464E-01
 407  7.74452297   0.710  -1.15783   3.57971   6.88348   1.71739   0.00000   1.628E-01   0.000E+00   8.372E-01
 408  7.75208751   0.710  -1.15754   3.58035   6.88637   1.72804   0.00000   1.720E-01   0.000E+00   8.280E-01
 409  7.75952254   0.710  -1.15697   3.58101   6.88923   1.73820   0.00000   1.816E-01   0.000E+00   8.184E-01
 410  7.76683242   0.710  -1.15629   3.58168   6.89208   1.74815   0.00000   1.913E-01   0.000E+00   8.087E-01
 411  7.77402130   0.710  -1.15560   3.58236   6.89492   1.75809   0.00000   2.010E-01   0.000E+00   7.990E-01
 412  7.78109312   0.710  -1.15465   3.58304   6.89772   1.76739   0.00000   2.116E-01   0.000E+00   7.884E-01
 413  7.78805163   0.710  -1.15367   3.58373   6.90051   1.77662   0.00000   2.223E-01   0.000E+00   7.777E-01
 414  7.79490040   0.710  -1.15268   3.58441   6.90331   1.78584   0.00000   2.331E-01   0.000E+00   7.669E-01
 415  7.80164284   0.710  -1.15142   3.58511   6.90601   1.79431   0.00000   2.439E-01   0.000E+00   7.561E-01
 416  7.80828220   0.710  -1.15016   3.58581   6.90871   1.80277   0.00000   2.547E-01   0.000E+00   7.453E-01
 417  7.81482159   0.710  -1.14877   3.58651   6.91134   1.81073   0.00000   2.660E-01   0.000E+00   7.340E-01
 418  7.82126396   0.710  -1.14734   3.58721   6.91396   1.81854   0.00000   2.776E-01   0.000E+00   7.224E-01
 419  7.82761217   0.710  -1.14588   3.58790   6.91657   1.82613   0.00000   2.895E-01   0.000E+00   7.105E-01
 420  7.83386892   0.710  -1.14437   3.58859   6.91915   1.83339   0.00000   3.012E-01   0.000E+00   6.988E-01
 421  7.84003681   0.710  -1.14286   3.58927   6.92172   1.84044   0.00000   3.131E-01   0.000E+00   6.869E-01
 422  7.84611833   0.710  -1.14135   3.58995   6.92427   1.84727   0.00000   3.254E-01   0.000E+00   6.746E-01
 423  7.85211586   0.710  -1.13983   3.59062   6.92680   1.85384   0.00000   3.382E-01   0.000E+00   6.618E-01
 424  7.85803169   0.710  -1.13832   3.59128   6.92930   1.86011   0.00000   3.511E-01   0.000E+00   6.489E-01
 425  7.86386802   0.710  -1.13683   3.59193   6.93179   1.86616   0.00000   3.645E-01   0.000E+00   6.355E-01
 426  7.86962696   0.710  -1.13536   3.59257   6.93426   1.87198   0.00000   3.780E-01   0.000E+00   6.220E-01
 427  7.87531053   0.710  -1.13392   3.59320   6.93673   1.87757   0.00000   3.913E-01   0.000E+00   6.087E-01
 428  7.88092068   0.710  -1.13253   3.59381   6.93917   1.88280   0.00000   4.049E-01   0.000E+00   5.951E-01
 429  7.88645928   0.710  -1.13119   3.59441   6.94160   1.88780   0.00000   4.191E-01   0.000E+00   5.809E-01
 430  7.89192814   0.710  -1.12989   3.59499   6.94402   1.89258   0.00000   4.337E-01   0.000E+00   5.663E-01
 431  7.89732898   0.710  -1.12865   3.59556   6.94644   1.89700   0.00000   4.480E-01   0.000E+00   5.520E-01
 432  7.90266349   0.710  -1.12748   3.59612   6.94885   1.90116   0.00000   4.631E-01   0.000E+00   5.369E-01
 433  7.90793326   0.710  -1.12635   3.59666   6.95126   1.90513   0.00000   4.785E-01   0.000E+00   5.215E-01
 434  7.91313986   0.710  -1.12534   3.59718   6.95366   1.90857   0.00000   4.937E-01   0.000E+00   5.058E-01
 435  7.91828477   0.710  -1.12436   3.59768   6.95607   1.91188   0.00000   5.092E-01   0.000E+00   4.899E-01
 436  7.92336945   0.710  -1.12351   3.59816   6.95849   1.91467   0.00000   5.259E-01   0.000E+00   4.737E-01
 437  7.92839529   0.710  -1.12271   3.59863   6.96092   1.91730   0.00004   5.427E-01   0.000E+00   4.573E-01
 438  7.93336362   0.710  -1.12210   3.59906   6.96335   1.91931   0.00025   5.597E-01   0.000E+00   4.403E-01
 439  7.93827577   0.710  -1.12148   3.59948   6.96578   1.92132   0.00045   5.767E-01   0.000E+00   4.233E-01
 440  7.94313297   0.709  -1.12122   3.59983   6.96800   1.92262   0.00189   5.948E-01   2.640E-04   4.052E-01
 441  7.94793645   0.709  -1.12101   3.60017   6.97020   1.92381   0.00352   6.132E-01   5.698E-04   3.868E-01
 442  7.95268739   0.709  -1.12080   3.60050   6.97239   1.92500   0.00516   6.315E-01   8.756E-04   3.685E-01
 443  7.95738691   0.709  -1.12094   3.60076   6.97429   1.92556   0.00710   6.504E-01   1.000E-03   3.495E-01
 444  7.96203612   0.709  -1.12134   3.60096   6.97599   1.92570   0.00927   6.695E-01   1.000E-03   3.301E-01
 445  7.96663609   0.709  -1.12173   3.60116   6.97768   1.92584   0.01143   6.887E-01   1.000E-03   3.108E-01
 446  7.97118785   0.709  -1.12212   3.60136   6.97938   1.92599   0.01359   7.079E-01   1.000E-03   2.914E-01
 447  7.97569240   0.709  -1.12252   3.60156   6.98108   1.92613   0.01576   7.270E-01   1.000E-03   2.720E-01
 448  7.98015070   0.709  -1.12334   3.60165   6.98240   1.92569   0.01814   7.458E-01   1.000E-03   2.532E-01
 449  7.98456370   0.709  -1.12437   3.60170   6.98354   1.92499   0.02063   7.643E-01   1.000E-03   2.347E-01
 450  7.98893231   0.709  -1.12539   3.60175   6.98468   1.92430   0.02312   7.829E-01   1.000E-03   2.161E-01
 451  7.99325741   0.709  -1.12641   3.60179   6.98582   1.92360   0.02561   8.014E-01   1.000E-03   1.976E-01
 452  7.99753986   0.709  -1.12743   3.60184   6.98696   1.92290   0.02810   8.200E-01   1.000E-03   1.790E-01
 453  8.00178050   0.709  -1.12861   3.60183   6.98810   1.92092   0.03278   8.629E-01   1.000E-03   1.361E-01
 454  8.00598013   0.709  -1.12987   3.60178   6.98924   1.91814   0.03881   9.206E-01   1.000E-03   7.815E-02
 455  8.01013954   0.709  -1.13136   3.60167   6.99017   1.91485   0.04352   9.694E-01   1.000E-03   2.916E-02
 456  8.01425949   0.709  -1.13299   3.60153   6.99098   1.91130   0.04756   1.012E+00   1.000E-03  -1.353E-02
 457  8.01834072   0.709  -1.13488   3.60134   6.99156   1.90774   0.05166   1.035E+00   1.000E-03  -3.669E-02
 458  8.02238396   0.709  -1.13696   3.60110   6.99202   1.90423   0.05434   1.056E+00   1.000E-03  -5.706E-02
 459  8.02638990   0.709  -1.13922   3.60084   6.99236   1.90083   0.05488   1.069E+00   1.000E-03  -7.045E-02
 460  8.03035923   0.709  -1.14166   3.60054   6.99258   1.89761   0.05733   1.076E+00   1.000E-03  -7.671E-02
 461  8.03429261   0.709  -1.14427   3.60021   6.99272   1.89455   0.05743   1.083E+00   1.000E-03  -8.410E-02
 462  8.03819068   0.709  -1.14701   3.59985   6.99277   1.89170   0.05743   1.086E+00   1.000E-03  -8.703E-02
 463  8.04205407   0.709  -1.14985   3.59948   6.99276   1.88903   0.05743   1.088E+00   1.000E-03  -8.907E-02
 464  8.04588341   0.709  -1.15277   3.59909   6.99269   1.88655   0.05743   1.089E+00   1.000E-03  -9.013E-02
 465  8.04967927   0.709  -1.15572   3.59868   6.99258   1.88425   0.05743   1.089E+00   1.000E-03  -9.056E-02
 466  8.05344224   0.709  -1.15869   3.59828   6.99242   1.88213   0.05743   1.089E+00   1.000E-03  -9.051E-02
 467  8.05717289   0.709  -1.16164   3.59787   6.99224   1.88017   0.05548   1.089E+00   1.000E-03  -8.999E-02
 468  8.06087176   0.709  -1.16458   3.59746   6.99203   1.87838   0.05488   1.088E+00   1.000E-03  -8.901E-02
 469  8.06453939   0.709  -1.16747   3.59705   6.99180   1.87675   0.05488   1.086E+00   1.000E-03  -8.770E-02
 470  8.06817632   0.709  -1.17029   3.59664   6.99155   1.87525   0.05233   1.085E+00   1.000E-03  -8.612E-02
 471  8.07178303   0.709  -1.17302   3.59625   6.99129   1.87390   0.05233   1.083E+00   1.000E-03  -8.425E-02
 472  8.07536004   0.709  -1.17567   3.59586   6.99102   1.87266   0.05233   1.081E+00   1.000E-03  -8.226E-02
 473  8.07890783   0.709  -1.17817   3.59549   6.99075   1.87157   0.04977   1.079E+00   1.000E-03  -8.010E-02
 474  8.08242688   0.709  -1.18050   3.59515   6.99047   1.87060   0.04977   1.076E+00   1.000E-03  -7.760E-02
 475  8.08591763   0.709  -1.18270   3.59481   6.99019   1.86973   0.04827   1.074E+00   1.000E-03  -7.511E-02
 476  8.08938056   0.709  -1.18476   3.59449   6.98991   1.86895   0.04722   1.071E+00   1.000E-03  -7.237E-02
 477  8.09281609   0.709  -1.18667   3.59420   6.98964   1.86828   0.04722   1.069E+00   1.000E-03  -6.960E-02
 478  8.09622465   0.709  -1.18842   3.59393   6.98938   1.86770   0.04575   1.066E+00   1.000E-03  -6.689E-02
 479  8.09960667   0.709  -1.19002   3.59367   6.98912   1.86719   0.04499   1.063E+00   1.000E-03  -6.406E-02
 480  8.10296256   0.709  -1.19148   3.59344   6.98886   1.86675   0.04430   1.060E+00   1.000E-03  -6.125E-02
 481  8.10629271   0.709  -1.19281   3.59322   6.98861   1.86637   0.04307   1.058E+00   1.000E-03  -5.851E-02
 482  8.10959753   0.709  -1.19393   3.59303   6.98838   1.86606   0.04307   1.055E+00   1.000E-03  -5.551E-02
 483  8.11287738   0.709  -1.19488   3.59286   6.98816   1.86581   0.04307   1.052E+00   1.000E-03  -5.269E-02
 484  8.11613265   0.709  -1.19575   3.59270   6.98794   1.86559   0.04307   1.049E+00   1.000E-03  -4.994E-02
 485  8.11936370   0.709  -1.19640   3.59258   6.98774   1.86544   0.04218   1.047E+00   1.000E-03  -4.739E-02
 486  8.12257089   0.709  -1.19703   3.59246   6.98755   1.86530   0.04120   1.044E+00   1.000E-03  -4.485E-02
 487  8.12575457   0.709  -1.19748   3.59237   6.98738   1.86521   0.04084   1.041E+00   1.000E-03  -4.238E-02
 488  8.12891508   0.709  -1.19784   3.59229   6.98721   1.86515   0.04084   1.039E+00   1.000E-03  -3.997E-02
 489  8.13205276   0.709  -1.19820   3.59221   6.98705   1.86509   0.04084   1.036E+00   1.000E-03  -3.755E-02
 490  8.13516793   0.709  -1.19844   3.59215   6.98691   1.86506   0.04063   1.034E+00   1.000E-03  -3.539E-02
 491  8.13826091   0.709  -1.19853   3.59212   6.98679   1.86506   0.04017   1.033E+00   1.000E-03  -3.357E-02
 492  8.14133203   0.709  -1.19861   3.59208   6.98667   1.86506   0.03970   1.031E+00   1.000E-03  -3.175E-02
 493  8.14438157   0.709  -1.19870   3.59204   6.98655   1.86506   0.03923   1.029E+00   1.000E-03  -2.993E-02
 494  8.14740986   0.709  -1.19879   3.59200   6.98643   1.86506   0.03877   1.028E+00   1.000E-03  -2.811E-02
 495  8.15041717   0.709  -1.19875   3.59199   6.98634   1.86508   0.03843   1.026E+00   1.000E-03  -2.668E-02
 496  8.15340380   0.709  -1.19865   3.59198   6.98626   1.86510   0.03816   1.025E+00   1.000E-03  -2.543E-02
 497  8.15637003   0.709  -1.19855   3.59198   6.98618   1.86512   0.03790   1.024E+00   1.000E-03  -2.419E-02
 498  8.15931615   0.709  -1.19844   3.59197   6.98610   1.86515   0.03763   1.022E+00   1.000E-03  -2.295E-02
 499  8.16224241   0.709  -1.19834   3.59197   6.98603   1.86517   0.03736   1.021E+00   1.000E-03  -2.171E-02
 500  8.16514908   0.709  -1.19824   3.59197   6.98595   1.86519   0.03709   1.020E+00   1.000E-03  -2.047E-02
 501  8.16803643   0.709  -1.19813   3.59196   6.98587   1.86522   0.03683   1.019E+00   1.000E-03  -1.923E-02
 502  8.17090471   0.709  -1.19800   3.59197   6.98581   1.86524   0.03662   1.018E+00   1.000E-03  -1.829E-02
 503  8.17375417   0.709  -1.19785   3.59198   6.98577   1.86525   0.03647   1.017E+00   1.000E-03  -1.765E-02
 504  8.17658506   0.709  -1.19769   3.59199   6.98573   1.86526   0.03632   1.016E+00   1.000E-03  -1.702E-02
 505  8.17939762   0.709  -1.19754   3.59200   6.98568   1.86527   0.03617   1.016E+00   1.000E-03  -1.639E-02
 506  8.18219207   0.709  -1.19739   3.59201   6.98564   1.86528   0.03603   1.015E+00   1.000E-03  -1.576E-02
 507  8.18496866   0.709  -1.19723   3.59202   6.98560   1.86529   0.03588   1.014E+00   1.000E-03  -1.512E-02
 508  8.18772762   0.709  -1.19708   3.59203   6.98556   1.86530   0.03573   1.014E+00   1.000E-03  -1.449E-02
 509  8.19046915   0.709  -1.19692   3.59204   6.98552   1.86531   0.03558   1.013E+00   1.000E-03  -1.386E-02
 510  8.19319349   0.709  -1.19677   3.59205   6.98547   1.86532   0.03543   1.012E+00   1.000E-03  -1.323E-02
 511  8.19590085   0.709  -1.19661   3.59206   6.98543   1.86534   0.03529   1.012E+00   1.000E-03  -1.259E-02
 512  8.19859143   0.709  -1.19646   3.59207   6.98539   1.86535   0.03514   1.011E+00   1.000E-03  -1.196E-02
 513  8.20126544   0.709  -1.19634   3.59208   6.98536   1.86534   0.03503   1.011E+00   1.000E-03  -1.164E-02
 514  8.20392310   0.709  -1.19622   3.59208   6.98533   1.86531   0.03493   1.011E+00   1.000E-03  -1.143E-02
 515  8.20656458   0.709  -1.19611   3.59209   6.98531   1.86529   0.03483   1.010E+00   1.000E-03  -1.121E-02
 516  8.20919010   0.709  -1.19599   3.59210   6.98528   1.86527   0.03473   1.010E+00   1.000E-03  -1.100E-02
 517  8.21179984   0.709  -1.19588   3.59211   6.98525   1.86525   0.03463   1.010E+00   1.000E-03  -1.078E-02
 518  8.21439399   0.709  -1.19576   3.59211   6.98523   1.86523   0.03453   1.010E+00   1.000E-03  -1.057E-02
 519  8.21697274   0.709  -1.19565   3.59212   6.98520   1.86521   0.03443   1.009E+00   1.000E-03  -1.035E-02
 520  8.21953627   0.709  -1.19554   3.59213   6.98518   1.86519   0.03433   1.009E+00   1.000E-03  -1.014E-02
 521  8.22208475   0.709  -1.19542   3.59214   6.98515   1.86517   0.03423   1.009E+00   1.000E-03  -9.920E-03
 522  8.22461837   0.709  -1.19531   3.59215   6.98512   1.86515   0.03413   1.009E+00   1.000E-03  -9.705E-03
 523  8.22713729   0.709  -1.19519   3.59215   6.98510   1.86513   0.03403   1.008E+00   1.000E-03  -9.490E-03
 524  8.22964169   0.709  -1.19508   3.59216   6.98507   1.86511   0.03393   1.008E+00   1.000E-03  -9.275E-03
 525  8.23213172   0.709  -1.19497   3.59217   6.98504   1.86509   0.03383   1.008E+00   1.000E-03  -9.060E-03
 526  8.23460757   0.709  -1.19491   3.59217   6.98502   1.86506   0.03370   1.008E+00   1.000E-03  -8.986E-03
 527  8.23706937   0.709  -1.19485   3.59217   6.98500   1.86501   0.03355   1.008E+00   1.000E-03  -8.935E-03
 528  8.23951730   0.709  -1.19480   3.59217   6.98497   1.86497   0.03341   1.008E+00   1.000E-03  -8.884E-03
 529  8.24195151   0.709  -1.19475   3.59217   6.98495   1.86493   0.03326   1.008E+00   1.000E-03  -8.833E-03
 530  8.24437216   0.709  -1.19470   3.59218   6.98493   1.86489   0.03312   1.008E+00   1.000E-03  -8.781E-03
 531  8.24677938   0.709  -1.19465   3.59218   6.98491   1.86485   0.03297   1.008E+00   1.000E-03  -8.730E-03
 532  8.24917334   0.709  -1.19460   3.59218   6.98488   1.86481   0.03283   1.008E+00   1.000E-03  -8.679E-03
 533  8.25155417   0.709  -1.19455   3.59218   6.98486   1.86477   0.03268   1.008E+00   1.000E-03  -8.628E-03
 534  8.25392202   0.709  -1.19450   3.59218   6.98484   1.86473   0.03254   1.007E+00   1.000E-03  -8.577E-03
 535  8.25627703   0.709  -1.19445   3.59218   6.98482   1.86469   0.03239   1.007E+00   1.000E-03  -8.526E-03
 536  8.25861934   0.709  -1.19439   3.59218   6.98479   1.86465   0.03225   1.007E+00   1.000E-03  -8.474E-03
 537  8.26094909   0.709  -1.19434   3.59218   6.98477   1.86461   0.03210   1.007E+00   1.000E-03  -8.423E-03
 538  8.26326640   0.709  -1.19429   3.59218   6.98475   1.86457   0.03196   1.007E+00   1.000E-03  -8.372E-03
 539  8.26557141   0.708  -1.19424   3.59219   6.98472   1.86453   0.03181   1.007E+00   1.000E-03  -8.321E-03
 540  8.26786426   0.708  -1.19419   3.59219   6.98470   1.86449   0.03167   1.007E+00   1.000E-03  -8.270E-03
 541  8.27014506   0.708  -1.19414   3.59219   6.98468   1.86445   0.03152   1.007E+00   1.000E-03  -8.219E-03
 542  8.27241395   0.708  -1.19409   3.59219   6.98466   1.86441   0.03138   1.007E+00   1.000E-03  -8.167E-03
 543  8.27467105   0.708  -1.19405   3.59219   6.98463   1.86437   0.03124   1.007E+00   1.000E-03  -8.116E-03
 544  8.27691647   0.708  -1.19403   3.59219   6.98461   1.86434   0.03112   1.007E+00   1.000E-03  -8.064E-03
 545  8.27915035   0.708  -1.19401   3.59219   6.98459   1.86432   0.03101   1.007E+00   1.000E-03  -8.012E-03
 546  8.28137279   0.708  -1.19399   3.59218   6.98456   1.86429   0.03089   1.007E+00   1.000E-03  -7.960E-03
 547  8.28358392   0.708  -1.19398   3.59218   6.98454   1.86426   0.03078   1.007E+00   1.000E-03  -7.908E-03
 548  8.28578385   0.708  -1.19396   3.59218   6.98452   1.86423   0.03066   1.007E+00   1.000E-03  -7.856E-03
 549  8.28797270   0.708  -1.19394   3.59218   6.98449   1.86420   0.03055   1.007E+00   1.000E-03  -7.804E-03
 550  8.29015056   0.708  -1.19392   3.59218   6.98447   1.86418   0.03044   1.007E+00   1.000E-03  -7.752E-03
 551  8.29231756   0.708  -1.19391   3.59217   6.98445   1.86415   0.03032   1.007E+00   1.000E-03  -7.701E-03
 552  8.29447380   0.708  -1.19389   3.59217   6.98442   1.86412   0.03021   1.007E+00   1.000E-03  -7.649E-03
 553  8.29661938   0.708  -1.19387   3.59217   6.98440   1.86409   0.03009   1.007E+00   1.000E-03  -7.597E-03
 554  8.29875442   0.708  -1.19385   3.59217   6.98438   1.86406   0.02998   1.007E+00   1.000E-03  -7.545E-03
 555  8.30087902   0.708  -1.19384   3.59217   6.98435   1.86404   0.02986   1.007E+00   1.000E-03  -7.493E-03
 556  8.30299327   0.708  -1.19382   3.59216   6.98433   1.86401   0.02975   1.006E+00   1.000E-03  -7.441E-03
 557  8.30509727   0.708  -1.19380   3.59216   6.98430   1.86398   0.02963   1.006E+00   1.000E-03  -7.389E-03
 558  8.30719114   0.708  -1.19378   3.59216   6.98428   1.86395   0.02952   1.006E+00   1.000E-03  -7.337E-03
 559  8.30927496   0.708  -1.19377   3.59216   6.98426   1.86392   0.02940   1.006E+00   1.000E-03  -7.285E-03
 560  8.31134882   0.708  -1.19375   3.59216   6.98423   1.86390   0.02929   1.006E+00   1.000E-03  -7.233E-03
 561  8.31341283   0.708  -1.19373   3.59216   6.98421   1.86387   0.02917   1.006E+00   1.000E-03  -7.181E-03
 562  8.31546708   0.708  -1.19371   3.59215   6.98419   1.86384   0.02906   1.006E+00   1.000E-03  -7.129E-03
 563  8.31751166   0.708  -1.19370   3.59215   6.98416   1.86381   0.02894   1.006E+00   1.000E-03  -7.077E-03
 564  8.31954665   0.708  -1.19368   3.59215   6.98414   1.86378   0.02883   1.006E+00   1.000E-03  -7.025E-03
 565  8.32157216   0.708  -1.19366   3.59215   6.98412   1.86376   0.02871   1.006E+00   1.000E-03  -6.974E-03
 566  8.32358826   0.708  -1.19364   3.59215   6.98409   1.86373   0.02860   1.006E+00   1.000E-03  -6.922E-03
 567  8.32559504   0.708  -1.19363   3.59214   6.98407   1.86370   0.02848   1.006E+00   1.000E-03  -6.870E-03
 568  8.32759260   0.708  -1.19361   3.59214   6.98405   1.86367   0.02837   1.006E+00   1.000E-03  -6.818E-03
 569  8.32958101   0.708  -1.19359   3.59214   6.98402   1.86364   0.02825   1.006E+00   1.000E-03  -6.766E-03
 570  8.33156036   0.708  -1.19359   3.59214   6.98400   1.86361   0.02813   1.006E+00   1.000E-03  -6.769E-03
 571  8.33353072   0.708  -1.19358   3.59213   6.98397   1.86358   0.02801   1.006E+00   1.000E-03  -6.779E-03
 572  8.33549219   0.708  -1.19358   3.59213   6.98395   1.86354   0.02789   1.006E+00   1.000E-03  -6.789E-03
 573  8.33744484   0.708  -1.19357   3.59212   6.98392   1.86351   0.02777   1.006E+00   1.000E-03  -6.799E-03
 574  8.33938875   0.708  -1.19357   3.59212   6.98390   1.86348   0.02765   1.006E+00   1.000E-03  -6.809E-03
 575  8.34132399   0.708  -1.19356   3.59211   6.98387   1.86345   0.02753   1.006E+00   1.000E-03  -6.820E-03
 576  8.34325066   0.708  -1.19356   3.59211   6.98385   1.86341   0.02741   1.006E+00   1.000E-03  -6.830E-03
 577  8.34516881   0.708  -1.19355   3.59211   6.98382   1.86338   0.02729   1.006E+00   1.000E-03  -6.840E-03
 578  8.34707853   0.708  -1.19355   3.59210   6.98380   1.86335   0.02716   1.006E+00   1.000E-03  -6.850E-03
 579  8.34897988   0.708  -1.19355   3.59210   6.98377   1.86331   0.02704   1.006E+00   1.000E-03  -6.860E-03
 580  8.35087295   0.708  -1.19354   3.59209   6.98374   1.86328   0.02692   1.006E+00   1.000E-03  -6.870E-03
 581  8.35275780   0.708  -1.19354   3.59209   6.98372   1.86325   0.02680   1.006E+00   1.000E-03  -6.880E-03
 582  8.35463451   0.708  -1.19353   3.59208   6.98369   1.86321   0.02668   1.006E+00   1.000E-03  -6.890E-03
 583  8.35650314   0.708  -1.19353   3.59208   6.98367   1.86318   0.02656   1.006E+00   1.000E-03  -6.900E-03
 584  8.35836377   0.708  -1.19352   3.59208   6.98364   1.86315   0.02644   1.006E+00   1.000E-03  -6.910E-03
 585  8.36021646   0.708  -1.19352   3.59207   6.98362   1.86311   0.02632   1.006E+00   1.000E-03  -6.921E-03
 586  8.36206128   0.708  -1.19351   3.59207   6.98359   1.86308   0.02620   1.006E+00   1.000E-03  -6.931E-03
 587  8.36389829   0.708  -1.19351   3.59206   6.98357   1.86305   0.02607   1.006E+00   1.000E-03  -6.941E-03
 588  8.36572757   0.708  -1.19350   3.59206   6.98354   1.86301   0.02595   1.006E+00   1.000E-03  -6.951E-03
 589  8.36754918   0.708  -1.19350   3.59205   6.98352   1.86298   0.02583   1.006E+00   1.000E-03  -6.961E-03
 590  8.36936317   0.708  -1.19349   3.59205   6.98349   1.86295   0.02571   1.006E+00   1.000E-03  -6.971E-03
 591  8.37116963   0.708  -1.19349   3.59205   6.98347   1.86292   0.02559   1.006E+00   1.000E-03  -6.981E-03
 592  8.37296859   0.708  -1.19349   3.59204   6.98344   1.86288   0.02547   1.006E+00   1.000E-03  -6.991E-03
 593  8.37476014   0.708  -1.19348   3.59204   6.98342   1.86285   0.02535   1.006E+00   1.000E-03  -7.001E-03
 594  8.37654433   0.708  -1.19348   3.59203   6.98339   1.86282   0.02523   1.006E+00   1.000E-03  -7.012E-03
 595  8.37832122   0.708  -1.19347   3.59203   6.98337   1.86278   0.02511   1.006E+00   1.000E-03  -7.022E-03
 596  8.38009086   0.708  -1.19347   3.59202   6.98334   1.86275   0.02499   1.006E+00   1.000E-03  -7.032E-03
 597  8.38185333   0.708  -1.19346   3.59202   6.98332   1.86272   0.02486   1.006E+00   1.000E-03  -7.042E-03
 598  8.38360867   0.708  -1.19346   3.59202   6.98329   1.86268   0.02474   1.006E+00   1.000E-03  -7.052E-03
 599  8.38535695   0.708  -1.19345   3.59201   6.98326   1.86265   0.02462   1.006E+00   1.000E-03  -7.062E-03
 600  8.38709821   0.708  -1.19345   3.59201   6.98324   1.86262   0.02450   1.006E+00   1.000E-03  -7.072E-03
 601  8.38883253   0.708  -1.19344   3.59200   6.98321   1.86258   0.02438   1.006E+00   1.000E-03  -7.082E-03
 602  8.39055994   0.708  -1.19344   3.59200   6.98319   1.86255   0.02426   1.006E+00   1.000E-03  -7.092E-03
 603  8.39228051   0.708  -1.19344   3.59199   6.98316   1.86252   0.02414   1.006E+00   1.000E-03  -7.103E-03
 604  8.39399429   0.708  -1.19343   3.59199   6.98314   1.86249   0.02402   1.006E+00   1.000E-03  -7.113E-03
 605  8.39570134   0.708  -1.19343   3.59199   6.98311   1.86245   0.02390   1.006E+00   1.000E-03  -7.123E-03
 606  8.39740170   0.708  -1.19342   3.59198   6.98309   1.86242   0.02378   1.006E+00   1.000E-03  -7.133E-03
 607  8.39909543   0.708  -1.19342   3.59198   6.98306   1.86239   0.02365   1.006E+00   1.000E-03  -7.143E-03
 608  8.40078258   0.708  -1.19341   3.59197   6.98304   1.86235   0.02353   1.006E+00   1.000E-03  -7.153E-03
 609  8.40246320   0.708  -1.19341   3.59197   6.98301   1.86232   0.02342   1.006E+00   1.000E-03  -7.159E-03
 610  8.40413734   0.708  -1.19341   3.59196   6.98299   1.86229   0.02332   1.006E+00   1.000E-03  -7.155E-03
 611  8.40580506   0.708  -1.19340   3.59196   6.98296   1.86226   0.02323   1.006E+00   1.000E-03  -7.151E-03
 612  8.40746639   0.708  -1.19340   3.59196   6.98293   1.86224   0.02313   1.006E+00   1.000E-03  -7.147E-03
 613  8.40912140   0.708  -1.19340   3.59195   6.98291   1.86221   0.02303   1.006E+00   1.000E-03  -7.143E-03
 614  8.41077012   0.708  -1.19339   3.59195   6.98288   1.86218   0.02294   1.006E+00   1.000E-03  -7.139E-03
 615  8.41241260   0.708  -1.19339   3.59194   6.98285   1.86215   0.02284   1.006E+00   1.000E-03  -7.134E-03
 616  8.41404890   0.708  -1.19339   3.59194   6.98283   1.86212   0.02274   1.006E+00   1.000E-03  -7.130E-03
 617  8.41567905   0.708  -1.19338   3.59194   6.98280   1.86209   0.02265   1.006E+00   1.000E-03  -7.126E-03
 618  8.41730311   0.708  -1.19338   3.59193   6.98277   1.86206   0.02255   1.006E+00   1.000E-03  -7.122E-03
 619  8.41892112   0.708  -1.19338   3.59193   6.98275   1.86204   0.02245   1.006E+00   1.000E-03  -7.118E-03
 620  8.42053312   0.708  -1.19338   3.59192   6.98272   1.86201   0.02236   1.006E+00   1.000E-03  -7.114E-03
 621  8.42213916   0.708  -1.19337   3.59192   6.98269   1.86198   0.02226   1.006E+00   1.000E-03  -7.110E-03
 622  8.42373929   0.708  -1.19337   3.59192   6.98267   1.86195   0.02216   1.006E+00   1.000E-03  -7.106E-03
 623  8.42533354   0.707  -1.19337   3.59191   6.98264   1.86192   0.02207   1.006E+00   1.000E-03  -7.102E-03
 624  8.42692196   0.707  -1.19336   3.59191   6.98262   1.86189   0.02197   1.006E+00   1.000E-03  -7.098E-03
 625  8.42850459   0.707  -1.19336   3.59190   6.98259   1.86187   0.02187   1.006E+00   1.000E-03  -7.094E-03
 626  8.43008147   0.707  -1.19336   3.59190   6.98256   1.86184   0.02178   1.006E+00   1.000E-03  -7.090E-03
 627  8.43165265   0.707  -1.19335   3.59190   6.98254   1.86181   0.02168   1.006E+00   1.000E-03  -7.086E-03
 628  8.43321817   0.707  -1.19335   3.59189   6.98251   1.86178   0.02158   1.006E+00   1.000E-03  -7.082E-03
 629  8.43477806   0.707  -1.19335   3.59189   6.98248   1.86175   0.02149   1.006E+00   1.000E-03  -7.078E-03
 630  8.43633237   0.707  -1.19335   3.59188   6.98246   1.86172   0.02139   1.006E+00   1.000E-03  -7.074E-03
 631  8.43788114   0.707  -1.19334   3.59188   6.98243   1.86169   0.02129   1.006E+00   1.000E-03  -7.070E-03
 632  8.43942440   0.707  -1.19334   3.59188   6.98240   1.86167   0.02120   1.006E+00   1.000E-03  -7.066E-03
 633  8.44096220   0.707  -1.19334   3.59187   6.98238   1.86164   0.02110   1.006E+00   1.000E-03  -7.062E-03
 634  8.44249457   0.707  -1.19333   3.59187   6.98235   1.86161   0.02100   1.006E+00   1.000E-03  -7.058E-03
 635  8.44402156   0.707  -1.19333   3.59186   6.98232   1.86158   0.02091   1.006E+00   1.000E-03  -7.054E-03
 636  8.44554319   0.707  -1.19333   3.59186   6.98230   1.86155   0.02081   1.006E+00   1.000E-03  -7.050E-03
 637  8.44705951   0.707  -1.19332   3.59186   6.98227   1.86152   0.02071   1.006E+00   1.000E-03  -7.046E-03
 638  8.44857056   0.707  -1.19332   3.59185   6.98224   1.86150   0.02062   1.006E+00   1.000E-03  -7.041E-03
 639  8.45007637   0.707  -1.19332   3.59185   6.98222   1.86147   0.02052   1.006E+00   1.000E-03  -7.037E-03
 640  8.45157697   0.707  -1.19332   3.59184   6.98219   1.86144   0.02042   1.006E+00   1.000E-03  -7.033E-03
 641  8.45307241   0.707  -1.19331   3.59184   6.98217   1.86141   0.02033   1.006E+00   1.000E-03  -7.029E-03
 642  8.45456271   0.707  -1.19331   3.59184   6.98214   1.86138   0.02023   1.006E+00   1.000E-03  -7.025E-03
 643  8.45604792   0.707  -1.19331   3.59183   6.98211   1.86135   0.02013   1.006E+00   1.000E-03  -7.021E-03
 644  8.45752807   0.707  -1.19330   3.59183   6.98209   1.86132   0.02004   1.006E+00   1.000E-03  -7.017E-03
 645  8.45900319   0.707  -1.19330   3.59182   6.98206   1.86130   0.01994   1.006E+00   1.000E-03  -7.013E-03
 646  8.46047331   0.707  -1.19330   3.59182   6.98203   1.86127   0.01984   1.006E+00   1.000E-03  -7.009E-03
 647  8.46193848   0.707  -1.19329   3.59182   6.98201   1.86124   0.01975   1.006E+00   1.000E-03  -7.005E-03
 648  8.46339872   0.707  -1.19329   3.59181   6.98198   1.86121   0.01965   1.006E+00   1.000E-03  -7.001E-03
 649  8.46485407   0.707  -1.19329   3.59181   6.98195   1.86118   0.01955   1.006E+00   1.000E-03  -6.997E-03
 650  8.46630455   0.707  -1.19328   3.59180   6.98193   1.86115   0.01946   1.006E+00   1.000E-03  -6.993E-03
 651  8.46775021   0.707  -1.19328   3.59180   6.98190   1.86113   0.01936   1.006E+00   1.000E-03  -6.989E-03
 652  8.46919107   0.707  -1.19328   3.59179   6.98187   1.86110   0.01926   1.006E+00   1.000E-03  -6.985E-03
 653  8.47062717   0.707  -1.19328   3.59179   6.98185   1.86107   0.01917   1.006E+00   1.000E-03  -6.981E-03
 654  8.47205853   0.707  -1.19327   3.59179   6.98182   1.86104   0.01907   1.006E+00   1.000E-03  -6.977E-03
 655  8.47348519   0.707  -1.19327   3.59178   6.98180   1.86101   0.01897   1.006E+00   1.000E-03  -6.973E-03
 656  8.47490718   0.707  -1.19327   3.59178   6.98177   1.86098   0.01888   1.006E+00   1.000E-03  -6.969E-03
 657  8.47632453   0.707  -1.19326   3.59177   6.98174   1.86095   0.01878   1.006E+00   1.000E-03  -6.965E-03
 658  8.47773727   0.707  -1.19326   3.59177   6.98172   1.86093   0.01868   1.006E+00   1.000E-03  -6.961E-03
 659  8.47914543   0.707  -1.19326   3.59177   6.98169   1.86090   0.01858   1.006E+00   1.000E-03  -6.957E-03
 660  8.48054904   0.707  -1.19325   3.59176   6.98166   1.86087   0.01849   1.006E+00   1.000E-03  -6.953E-03
 661  8.48194812   0.707  -1.19325   3.59176   6.98164   1.86084   0.01839   1.006E+00   1.000E-03  -6.948E-03
 662  8.48334272   0.707  -1.19325   3.59175   6.98161   1.86081   0.01829   1.006E+00   1.000E-03  -6.944E-03
 663  8.48473285   0.707  -1.19325   3.59175   6.98158   1.86078   0.01820   1.006E+00   1.000E-03  -6.940E-03
 664  8.48611854   0.707  -1.19324   3.59175   6.98156   1.86076   0.01810   1.006E+00   1.000E-03  -6.936E-03
 665  8.48749983   0.707  -1.19324   3.59174   6.98153   1.86073   0.01800   1.006E+00   1.000E-03  -6.932E-03
 666  8.48887673   0.707  -1.19324   3.59174   6.98150   1.86070   0.01791   1.006E+00   1.000E-03  -6.928E-03
 667  8.49024929   0.707  -1.19323   3.59173   6.98148   1.86067   0.01781   1.006E+00   1.000E-03  -6.924E-03
 668  8.49161752   0.707  -1.19323   3.59173   6.98145   1.86064   0.01771   1.006E+00   1.000E-03  -6.920E-03
 669  8.49298145   0.707  -1.19323   3.59173   6.98143   1.86062   0.01764   1.006E+00   1.000E-03  -6.911E-03
 670  8.49434112   0.707  -1.19322   3.59172   6.98140   1.86059   0.01757   1.006E+00   1.000E-03  -6.902E-03
 671  8.49569654   0.707  -1.19322   3.59172   6.98138   1.86057   0.01749   1.006E+00   1.000E-03  -6.893E-03
 672  8.49704774   0.707  -1.19322   3.59172   6.98136   1.86054   0.01742   1.006E+00   1.000E-03  -6.884E-03
 673  8.49839475   0.707  -1.19321   3.59171   6.98133   1.86052   0.01735   1.006E+00   1.000E-03  -6.876E-03
 674  8.49973760   0.707  -1.19321   3.59171   6.98131   1.86050   0.01727   1.006E+00   1.000E-03  -6.867E-03
 675  8.50107631   0.707  -1.19321   3.59170   6.98129   1.86047   0.01720   1.006E+00   1.000E-03  -6.858E-03
 676  8.50241090   0.707  -1.19321   3.59170   6.98126   1.86045   0.01713   1.006E+00   1.000E-03  -6.849E-03
 677  8.50374141   0.707  -1.19320   3.59170   6.98124   1.86042   0.01705   1.006E+00   1.000E-03  -6.840E-03
 678  8.50506785   0.707  -1.19320   3.59169   6.98122   1.86040   0.01698   1.006E+00   1.000E-03  -6.831E-03
 679  8.50639025   0.707  -1.19320   3.59169   6.98119   1.86038   0.01691   1.006E+00   1.000E-03  -6.822E-03
 680  8.50770864   0.707  -1.19319   3.59169   6.98117   1.86035   0.01683   1.006E+00   1.000E-03  -6.813E-03
 681  8.50902304   0.707  -1.19319   3.59168   6.98114   1.86033   0.01676   1.006E+00   1.000E-03  -6.804E-03
 682  8.51033347   0.707  -1.19319   3.59168   6.98112   1.86030   0.01669   1.006E+00   1.000E-03  -6.795E-03
 683  8.51163996   0.707  -1.19318   3.59167   6.98110   1.86028   0.01661   1.006E+00   1.000E-03  -6.786E-03
 684  8.51294254   0.707  -1.19318   3.59167   6.98107   1.86025   0.01654   1.006E+00   1.000E-03  -6.777E-03
 685  8.51424121   0.707  -1.19318   3.59167   6.98105   1.86023   0.01646   1.006E+00   1.000E-03  -6.768E-03
 686  8.51553602   0.707  -1.19318   3.59166   6.98103   1.86021   0.01639   1.006E+00   1.000E-03  -6.759E-03
 687  8.51682697   0.707  -1.19317   3.59166   6.98100   1.86018   0.01632   1.006E+00   1.000E-03  -6.750E-03
 688  8.51811410   0.707  -1.19317   3.59166   6.98098   1.86016   0.01624   1.006E+00   1.000E-03  -6.741E-03
 689  8.51939743   0.707  -1.19317   3.59165   6.98096   1.86013   0.01617   1.006E+00   1.000E-03  -6.732E-03
 690  8.52067698   0.707  -1.19316   3.59165   6.98093   1.86011   0.01610   1.006E+00   1.000E-03  -6.723E-03
 691  8.52195276   0.707  -1.19316   3.59164   6.98091   1.86009   0.01602   1.006E+00   1.000E-03  -6.714E-03
 692  8.52322481   0.707  -1.19316   3.59164   6.98089   1.86006   0.01595   1.006E+00   1.000E-03  -6.705E-03
 693  8.52449315   0.707  -1.19315   3.59164   6.98086   1.86004   0.01588   1.006E+00   1.000E-03  -6.696E-03
 694  8.52575779   0.707  -1.19315   3.59163   6.98084   1.86001   0.01580   1.006E+00   1.000E-03  -6.687E-03
 695  8.52701876   0.707  -1.19315   3.59163   6.98081   1.85999   0.01573   1.006E+00   1.000E-03  -6.678E-03
 696  8.52827608   0.707  -1.19315   3.59163   6.98079   1.85997   0.01566   1.006E+00   1.000E-03  -6.669E-03
 697  8.52952977   0.707  -1.19314   3.59162   6.98077   1.85994   0.01558   1.006E+00   1.000E-03  -6.660E-03
 698  8.53077985   0.707  -1.19314   3.59162   6.98074   1.85992   0.01551   1.006E+00   1.000E-03  -6.651E-03
 699  8.53202634   0.707  -1.19314   3.59162   6.98072   1.85989   0.01544   1.006E+00   1.000E-03  -6.642E-03
 700  8.53326927   0.707  -1.19313   3.59161   6.98070   1.85987   0.01536   1.006E+00   1.000E-03  -6.633E-03
 701  8.53450864   0.707  -1.19313   3.59161   6.98067   1.85984   0.01529   1.006E+00   1.000E-03  -6.624E-03
 702  8.53574450   0.707  -1.19313   3.59160   6.98065   1.85982   0.01522   1.006E+00   1.000E-03  -6.615E-03
 703  8.53697684   0.707  -1.19312   3.59160   6.98063   1.85980   0.01514   1.006E+00   1.000E-03  -6.606E-03
 704  8.53820570   0.707  -1.19312   3.59160   6.98060   1.85977   0.01507   1.006E+00   1.000E-03  -6.597E-03
 705  8.53943109   0.706  -1.19312   3.59159   6.98058   1.85975   0.01500   1.006E+00   1.000E-03  -6.588E-03
 706  8.54065303   0.706  -1.19311   3.59159   6.98055   1.85972   0.01492   1.006E+00   1.000E-03  -6.579E-03
 707  8.54187155   0.706  -1.19311   3.59159   6.98053   1.85970   0.01485   1.006E+00   1.000E-03  -6.570E-03
 708  8.54308665   0.706  -1.19311   3.59158   6.98051   1.85968   0.01478   1.006E+00   1.000E-03  -6.561E-03
 709  8.54429837   0.706  -1.19311   3.59158   6.98048   1.85965   0.01470   1.006E+00   1.000E-03  -6.552E-03
 710  8.54550671   0.706  -1.19310   3.59157   6.98046   1.85963   0.01463   1.006E+00   1.000E-03  -6.543E-03
 711  8.54671170   0.706  -1.19310   3.59157   6.98044   1.85960   0.01456   1.006E+00   1.000E-03  -6.534E-03
 712  8.54791336   0.706  -1.19310   3.59157   6.98041   1.85958   0.01448   1.006E+00   1.000E-03  -6.525E-03
 713  8.54911170   0.706  -1.19309   3.59156   6.98039   1.85955   0.01441   1.005E+00   1.000E-03  -6.516E-03
 714  8.55030674   0.706  -1.19309   3.59156   6.98037   1.85953   0.01433   1.005E+00   1.000E-03  -6.507E-03
 715  8.55149850   0.706  -1.19309   3.59156   6.98034   1.85951   0.01426   1.005E+00   1.000E-03  -6.498E-03
 716  8.55268701   0.706  -1.19308   3.59155   6.98032   1.85948   0.01419   1.005E+00   1.000E-03  -6.489E-03
 717  8.55387227   0.706  -1.19308   3.59155   6.98030   1.85946   0.01411   1.005E+00   1.000E-03  -6.480E-03
 718  8.55505430   0.706  -1.19308   3.59154   6.98027   1.85943   0.01404   1.005E+00   1.000E-03  -6.471E-03
 719  8.55623312   0.706  -1.19308   3.59154   6.98025   1.85941   0.01397   1.005E+00   1.000E-03  -6.462E-03
 720  8.55740876   0.706  -1.19307   3.59154   6.98022   1.85939   0.01389   1.005E+00   1.000E-03  -6.453E-03
 721  8.55858122   0.706  -1.19307   3.59153   6.98020   1.85936   0.01382   1.005E+00   1.000E-03  -6.444E-03
 722  8.55975052   0.706  -1.19307   3.59153   6.98018   1.85934   0.01375   1.005E+00   1.000E-03  -6.435E-03
 723  8.56091668   0.706  -1.19306   3.59153   6.98015   1.85931   0.01367   1.005E+00   1.000E-03  -6.426E-03
 724  8.56207972   0.706  -1.19306   3.59152   6.98013   1.85929   0.01360   1.005E+00   1.000E-03  -6.417E-03
 725  8.56323966   0.706  -1.19306   3.59152   6.98011   1.85926   0.01353   1.005E+00   1.000E-03  -6.408E-03
 726  8.56439650   0.706  -1.19305   3.59152   6.98008   1.85924   0.01345   1.005E+00   1.000E-03  -6.399E-03
 727  8.56555027   0.706  -1.19305   3.59151   6.98006   1.85922   0.01338   1.005E+00   1.000E-03  -6.390E-03
 728  8.56670099   0.706  -1.19305   3.59151   6.98004   1.85919   0.01331   1.005E+00   1.000E-03  -6.381E-03
 729  8.56784866   0.706  -1.19305   3.59150   6.98001   1.85917   0.01323   1.005E+00   1.000E-03  -6.372E-03
 730  8.56899331   0.706  -1.19304   3.59150   6.97999   1.85914   0.01316   1.005E+00   1.000E-03  -6.363E-03
 731  8.57013495   0.706  -1.19304   3.59150   6.97997   1.85912   0.01309   1.005E+00   1.000E-03  -6.354E-03
 732  8.57127359   0.706  -1.19304   3.59149   6.97994   1.85910   0.01301   1.005E+00   1.000E-03  -6.345E-03
 733  8.57240926   0.706  -1.19303   3.59149   6.97992   1.85907   0.01294   1.005E+00   1.000E-03  -6.336E-03
 734  8.57354197   0.706  -1.19303   3.59149   6.97989   1.85905   0.01287   1.005E+00   1.000E-03  -6.327E-03
 735  8.57467173   0.706  -1.19303   3.59148   6.97987   1.85902   0.01279   1.005E+00   1.000E-03  -6.318E-03
 736  8.57579855   0.706  -1.19302   3.59148   6.97985   1.85900   0.01272   1.005E+00   1.000E-03  -6.309E-03
 737  8.57692247   0.706  -1.19302   3.59147   6.97982   1.85898   0.01265   1.005E+00   1.000E-03  -6.301E-03
 738  8.57804348   0.706  -1.19302   3.59147   6.97980   1.85895   0.01257   1.005E+00   1.000E-03  -6.292E-03
 739  8.57916160   0.706  -1.19301   3.59147   6.97978   1.85893   0.01250   1.005E+00   1.000E-03  -6.283E-03
 740  8.58027686   0.706  -1.19301   3.59146   6.97975   1.85890   0.01243   1.005E+00   1.000E-03  -6.274E-03
 741  8.58138925   0.706  -1.19301   3.59146   6.97973   1.85888   0.01235   1.005E+00   1.000E-03  -6.265E-03
 742  8.58249881   0.706  -1.19301   3.59146   6.97971   1.85885   0.01228   1.005E+00   1.000E-03  -6.256E-03
 743  8.58360554   0.706  -1.19300   3.59145   6.97968   1.85883   0.01220   1.005E+00   1.000E-03  -6.247E-03
 744  8.58470945   0.706  -1.19300   3.59145   6.97966   1.85881   0.01213   1.005E+00   1.000E-03  -6.238E-03
 745  8.58581057   0.706  -1.19300   3.59144   6.97964   1.85878   0.01206   1.005E+00   1.000E-03  -6.229E-03
 746  8.58690890   0.706  -1.19299   3.59144   6.97961   1.85876   0.01198   1.005E+00   1.000E-03  -6.220E-03
 747  8.58800446   0.706  -1.19299   3.59144   6.97959   1.85873   0.01191   1.005E+00   1.000E-03  -6.211E-03
 748  8.58909726   0.706  -1.19299   3.59143   6.97956   1.85871   0.01184   1.005E+00   1.000E-03  -6.202E-03
 749  8.59018732   0.706  -1.19298   3.59143   6.97954   1.85869   0.01176   1.005E+00   1.000E-03  -6.193E-03
 750  8.59127465   0.706  -1.19298   3.59143   6.97952   1.85866   0.01169   1.005E+00   1.000E-03  -6.184E-03
 751  8.59235927   0.706  -1.19298   3.59142   6.97949   1.85864   0.01162   1.005E+00   1.000E-03  -6.175E-03
 752  8.59344118   0.706  -1.19298   3.59142   6.97947   1.85861   0.01154   1.005E+00   1.000E-03  -6.166E-03
 753  8.59452041   0.706  -1.19297   3.59142   6.97945   1.85859   0.01147   1.005E+00   1.000E-03  -6.157E-03
 754  8.59559696   0.706  -1.19297   3.59141   6.97942   1.85856   0.01140   1.005E+00   1.000E-03  -6.148E-03
 755  8.59667085   0.706  -1.19297   3.59141   6.97940   1.85854   0.01132   1.005E+00   1.000E-03  -6.139E-03
 756  8.59774209   0.706  -1.19296   3.59140   6.97938   1.85852   0.01125   1.005E+00   1.000E-03  -6.130E-03
 757  8.59881069   0.706  -1.19296   3.59140   6.97935   1.85849   0.01118   1.005E+00   1.000E-03  -6.121E-03
 758  8.59987667   0.706  -1.19295   3.59140   6.97934   1.85849   0.01114   1.005E+00   1.000E-03  -6.104E-03
 759  8.60094004   0.706  -1.19295   3.59140   6.97932   1.85848   0.01110   1.005E+00   1.000E-03  -6.085E-03
 760  8.60200081   0.706  -1.19294   3.59140   6.97930   1.85847   0.01106   1.005E+00   1.000E-03  -6.067E-03
 761  8.60305900   0.706  -1.19293   3.59139   6.97929   1.85847   0.01102   1.005E+00   1.000E-03  -6.049E-03
 762  8.60411462   0.706  -1.19293   3.59139   6.97927   1.85846   0.01098   1.005E+00   1.000E-03  -6.031E-03
 763  8.60516768   0.706  -1.19292   3.59139   6.97925   1.85846   0.01095   1.005E+00   1.000E-03  -6.013E-03
 764  8.60621818   0.706  -1.19291   3.59139   6.97924   1.85845   0.01091   1.005E+00   1.000E-03  -5.995E-03
 765  8.60726616   0.706  -1.19290   3.59139   6.97922   1.85845   0.01087   1.005E+00   1.000E-03  -5.977E-03
 766  8.60831161   0.706  -1.19290   3.59139   6.97921   1.85844   0.01083   1.005E+00   1.000E-03  -5.959E-03
 767  8.60935455   0.706  -1.19289   3.59138   6.97919   1.85844   0.01079   1.005E+00   1.000E-03  -5.940E-03
 768  8.61039500   0.706  -1.19288   3.59138   6.97917   1.85843   0.01076   1.005E+00   1.000E-03  -5.922E-03
 769  8.61143295   0.706  -1.19288   3.59138   6.97916   1.85843   0.01072   1.005E+00   1.000E-03  -5.904E-03
 770  8.61246843   0.706  -1.19287   3.59138   6.97914   1.85842   0.01068   1.005E+00   1.000E-03  -5.886E-03
 771  8.61350145   0.706  -1.19286   3.59138   6.97913   1.85842   0.01064   1.005E+00   1.000E-03  -5.868E-03
 772  8.61453202   0.706  -1.19285   3.59138   6.97911   1.85841   0.01060   1.005E+00   1.000E-03  -5.850E-03
 773  8.61556015   0.706  -1.19285   3.59137   6.97909   1.85841   0.01057   1.005E+00   1.000E-03  -5.832E-03
 774  8.61658584   0.706  -1.19284   3.59137   6.97908   1.85840   0.01053   1.005E+00   1.000E-03  -5.814E-03
 775  8.61760913   0.706  -1.19283   3.59137   6.97906   1.85840   0.01049   1.005E+00   1.000E-03  -5.796E-03
 776  8.61863000   0.706  -1.19283   3.59137   6.97905   1.85839   0.01045   1.005E+00   1.000E-03  -5.777E-03
 777  8.61964849   0.706  -1.19282   3.59137   6.97903   1.85839   0.01041   1.005E+00   1.000E-03  -5.759E-03
 778  8.62066459   0.706  -1.19281   3.59137   6.97901   1.85838   0.01038   1.005E+00   1.000E-03  -5.741E-03
 779  8.62167831   0.706  -1.19280   3.59136   6.97900   1.85838   0.01034   1.005E+00   1.000E-03  -5.723E-03
 780  8.62268968   0.706  -1.19280   3.59136   6.97898   1.85837   0.01030   1.005E+00   1.000E-03  -5.705E-03
 781  8.62369870   0.706  -1.19279   3.59136   6.97897   1.85836   0.01026   1.005E+00   1.000E-03  -5.687E-03
 782  8.62470538   0.706  -1.19278   3.59136   6.97895   1.85836   0.01022   1.005E+00   1.000E-03  -5.669E-03
 783  8.62570973   0.706  -1.19278   3.59136   6.97893   1.85835   0.01019   1.005E+00   1.000E-03  -5.651E-03
 784  8.62671176   0.706  -1.19277   3.59136   6.97892   1.85835   0.01015   1.005E+00   1.000E-03  -5.632E-03
 785  8.62771149   0.705  -1.19276   3.59135   6.97890   1.85834   0.01011   1.005E+00   1.000E-03  -5.614E-03
 786  8.62870892   0.705  -1.19275   3.59135   6.97888   1.85834   0.01007   1.005E+00   1.000E-03  -5.596E-03
 787  8.62970407   0.705  -1.19275   3.59135   6.97887   1.85833   0.01003   1.005E+00   1.000E-03  -5.578E-03
 788  8.63069694   0.705  -1.19274   3.59135   6.97885   1.85833   0.01000   1.005E+00   1.000E-03  -5.560E-03
 789  8.63168754   0.705  -1.19273   3.59135   6.97884   1.85832   0.00996   1.005E+00   1.000E-03  -5.542E-03
 790  8.63267589   0.705  -1.19273   3.59135   6.97882   1.85832   0.00992   1.005E+00   1.000E-03  -5.524E-03
 791  8.63366200   0.705  -1.19272   3.59134   6.97880   1.85831   0.00988   1.004E+00   1.000E-03  -5.506E-03
 792  8.63464587   0.705  -1.19271   3.59134   6.97879   1.85831   0.00984   1.004E+00   1.000E-03  -5.487E-03
 793  8.63562752   0.705  -1.19270   3.59134   6.97877   1.85830   0.00981   1.004E+00   1.000E-03  -5.469E-03
 794  8.63660696   0.705  -1.19270   3.59134   6.97876   1.85830   0.00977   1.004E+00   1.000E-03  -5.451E-03
 795  8.63758419   0.705  -1.19269   3.59134   6.97874   1.85829   0.00973   1.004E+00   1.000E-03  -5.433E-03
 796  8.63855922   0.705  -1.19268   3.59134   6.97872   1.85829   0.00969   1.004E+00   1.000E-03  -5.415E-03
 797  8.63953208   0.705  -1.19268   3.59133   6.97871   1.85828   0.00966   1.004E+00   1.000E-03  -5.397E-03
 798  8.64050276   0.705  -1.19267   3.59133   6.97869   1.85828   0.00962   1.004E+00   1.000E-03  -5.379E-03
 799  8.64147127   0.705  -1.19266   3.59133   6.97868   1.85827   0.00958   1.004E+00   1.000E-03  -5.361E-03
 800  8.64243763   0.705  -1.19265   3.59133   6.97866   1.85827   0.00954   1.004E+00   1.000E-03  -5.343E-03
 801  8.64340184   0.705  -1.19265   3.59133   6.97864   1.85826   0.00950   1.004E+00   1.000E-03  -5.324E-03
 802  8.64436392   0.705  -1.19264   3.59133   6.97863   1.85825   0.00947   1.004E+00   1.000E-03  -5.306E-03
 803  8.64532387   0.705  -1.19263   3.59132   6.97861   1.85825   0.00943   1.004E+00   1.000E-03  -5.288E-03
 804  8.64628171   0.705  -1.19263   3.59132   6.97859   1.85824   0.00939   1.004E+00   1.000E-03  -5.270E-03
 805  8.64723743   0.705  -1.19262   3.59132   6.97858   1.85824   0.00935   1.004E+00   1.000E-03  -5.252E-03
 806  8.64819106   0.705  -1.19261   3.59132   6.97856   1.85823   0.00931   1.004E+00   1.000E-03  -5.234E-03
 807  8.64914260   0.705  -1.19261   3.59132   6.97855   1.85823   0.00928   1.004E+00   1.000E-03  -5.216E-03
 808  8.65009205   0.705  -1.19260   3.59132   6.97853   1.85822   0.00924   1.004E+00   1.000E-03  -5.198E-03
 809  8.65103944   0.705  -1.19259   3.59131   6.97851   1.85822   0.00920   1.004E+00   1.000E-03  -5.179E-03
 810  8.65198477   0.705  -1.19258   3.59131   6.97850   1.85821   0.00916   1.004E+00   1.000E-03  -5.161E-03
 811  8.65292804   0.705  -1.19258   3.59131   6.97848   1.85821   0.00912   1.004E+00   1.000E-03  -5.143E-03
 812  8.65386926   0.705  -1.19257   3.59131   6.97847   1.85820   0.00909   1.004E+00   1.000E-03  -5.125E-03
 813  8.65480846   0.705  -1.19256   3.59131   6.97845   1.85820   0.00905   1.004E+00   1.000E-03  -5.107E-03
 814  8.65574562   0.705  -1.19256   3.59131   6.97843   1.85819   0.00901   1.004E+00   1.000E-03  -5.089E-03
 815  8.65668077   0.705  -1.19255   3.59130   6.97842   1.85819   0.00897   1.004E+00   1.000E-03  -5.071E-03
 816  8.65761390   0.705  -1.19254   3.59130   6.97840   1.85818   0.00893   1.004E+00   1.000E-03  -5.053E-03
 817  8.65854504   0.705  -1.19253   3.59130   6.97839   1.85818   0.00890   1.004E+00   1.000E-03  -5.035E-03
 818  8.65947419   0.705  -1.19253   3.59130   6.97837   1.85817   0.00886   1.004E+00   1.000E-03  -5.016E-03
 819  8.66040135   0.705  -1.19252   3.59130   6.97835   1.85817   0.00882   1.004E+00   1.000E-03  -4.998E-03
 820  8.66132653   0.705  -1.19251   3.59130   6.97834   1.85816   0.00878   1.004E+00   1.000E-03  -4.980E-03
 821  8.66224975   0.705  -1.19251   3.59129   6.97832   1.85816   0.00874   1.004E+00   1.000E-03  -4.962E-03
 822  8.66317101   0.705  -1.19250   3.59129   6.97831   1.85815   0.00871   1.004E+00   1.000E-03  -4.944E-03
 823  8.66409032   0.705  -1.19249   3.59129   6.97829   1.85814   0.00867   1.004E+00   1.000E-03  -4.926E-03
 824  8.66500769   0.705  -1.19248   3.59129   6.97827   1.85814   0.00863   1.004E+00   1.000E-03  -4.908E-03
 825  8.66592313   0.705  -1.19248   3.59129   6.97826   1.85813   0.00859   1.004E+00   1.000E-03  -4.890E-03
 826  8.66683664   0.705  -1.19247   3.59129   6.97824   1.85813   0.00855   1.004E+00   1.000E-03  -4.871E-03
 827  8.66774823   0.705  -1.19246   3.59128   6.97822   1.85812   0.00852   1.004E+00   1.000E-03  -4.853E-03
 828  8.66865791   0.705  -1.19246   3.59128   6.97821   1.85812   0.00848   1.004E+00   1.000E-03  -4.835E-03
 829  8.66956569   0.705  -1.19245   3.59128   6.97819   1.85811   0.00844   1.004E+00   1.000E-03  -4.817E-03
 830  8.67047158   0.705  -1.19244   3.59128   6.97818   1.85811   0.00840   1.004E+00   1.000E-03  -4.799E-03
 831  8.67137558   0.705  -1.19243   3.59128   6.97816   1.85810   0.00836   1.004E+00   1.000E-03  -4.781E-03
 832  8.67227771   0.705  -1.19243   3.59128   6.97814   1.85810   0.00833   1.004E+00   1.000E-03  -4.763E-03
 833  8.67317796   0.705  -1.19242   3.59127   6.97813   1.85809   0.00829   1.004E+00   1.000E-03  -4.745E-03
 834  8.67407635   0.705  -1.19241   3.59127   6.97811   1.85809   0.00825   1.004E+00   1.000E-03  -4.727E-03
 835  8.67497289   0.705  -1.19241   3.59127   6.97810   1.85808   0.00821   1.004E+00   1.000E-03  -4.708E-03
 836  8.67586758   0.705  -1.19240   3.59127   6.97808   1.85808   0.00817   1.004E+00   1.000E-03  -4.690E-03
 837  8.67676043   0.705  -1.19239   3.59127   6.97806   1.85807   0.00814   1.004E+00   1.000E-03  -4.672E-03
 838  8.67765145   0.705  -1.19238   3.59127   6.97805   1.85807   0.00810   1.004E+00   1.000E-03  -4.654E-03
 839  8.67854064   0.705  -1.19238   3.59127   6.97803   1.85806   0.00806   1.004E+00   1.000E-03  -4.636E-03
 840  8.67942802   0.705  -1.19237   3.59126   6.97802   1.85806   0.00802   1.004E+00   1.000E-03  -4.618E-03
 841  8.68031359   0.705  -1.19236   3.59126   6.97800   1.85805   0.00798   1.004E+00   1.000E-03  -4.600E-03
 842  8.68119736   0.705  -1.19236   3.59126   6.97798   1.85804   0.00795   1.004E+00   1.000E-03  -4.582E-03
 843  8.68207933   0.705  -1.19235   3.59126   6.97797   1.85804   0.00791   1.004E+00   1.000E-03  -4.563E-03
 844  8.68295951   0.705  -1.19234   3.59126   6.97795   1.85803   0.00787   1.004E+00   1.000E-03  -4.545E-03
 845  8.68383792   0.705  -1.19233   3.59126   6.97793   1.85803   0.00783   1.004E+00   1.000E-03  -4.527E-03
 846  8.68471455   0.705  -1.19233   3.59125   6.97792   1.85802   0.00780   1.004E+00   1.000E-03  -4.509E-03
 847  8.68558941   0.705  -1.19232   3.59125   6.97790   1.85802   0.00776   1.004E+00   1.000E-03  -4.491E-03
 848  8.68646252   0.705  -1.19231   3.59125   6.97789   1.85801   0.00772   1.004E+00   1.000E-03  -4.473E-03
 849  8.68733387   0.705  -1.19231   3.59125   6.97787   1.85801   0.00768   1.004E+00   1.000E-03  -4.455E-03
 850  8.68820348   0.705  -1.19230   3.59125   6.97785   1.85800   0.00764   1.004E+00   1.000E-03  -4.437E-03
 851  8.68907136   0.705  -1.19229   3.59125   6.97784   1.85800   0.00761   1.004E+00   1.000E-03  -4.418E-03
 852  8.68993750   0.705  -1.19228   3.59124   6.97782   1.85799   0.00757   1.004E+00   1.000E-03  -4.400E-03
 853  8.69080191   0.705  -1.19228   3.59124   6.97781   1.85799   0.00753   1.004E+00   1.000E-03  -4.382E-03
 854  8.69166461   0.705  -1.19227   3.59124   6.97779   1.85798   0.00749   1.004E+00   1.000E-03  -4.364E-03
 855  8.69252560   0.705  -1.19226   3.59124   6.97777   1.85798   0.00745   1.004E+00   1.000E-03  -4.346E-03
 856  8.69338489   0.705  -1.19226   3.59124   6.97776   1.85797   0.00742   1.004E+00   1.000E-03  -4.328E-03
 857  8.69424248   0.705  -1.19225   3.59124   6.97774   1.85797   0.00738   1.004E+00   1.000E-03  -4.310E-03
 858  8.69509838   0.705  -1.19224   3.59123   6.97773   1.85796   0.00734   1.003E+00   1.000E-03  -4.292E-03
 859  8.69595259   0.705  -1.19224   3.59123   6.97771   1.85796   0.00730   1.003E+00   1.000E-03  -4.274E-03
 860  8.69680513   0.705  -1.19223   3.59123   6.97769   1.85795   0.00726   1.003E+00   1.000E-03  -4.255E-03
 861  8.69765600   0.705  -1.19222   3.59123   6.97768   1.85795   0.00723   1.003E+00   1.000E-03  -4.237E-03
 862  8.69850520   0.705  -1.19221   3.59123   6.97766   1.85794   0.00719   1.003E+00   1.000E-03  -4.219E-03
 863  8.69935275   0.705  -1.19221   3.59123   6.97765   1.85793   0.00715   1.003E+00   1.000E-03  -4.201E-03
 864  8.70019865   0.704  -1.19220   3.59122   6.97763   1.85793   0.00711   1.003E+00   1.000E-03  -4.183E-03
 865  8.70104290   0.704  -1.19219   3.59122   6.97761   1.85792   0.00707   1.003E+00   1.000E-03  -4.165E-03
 866  8.70188551   0.704  -1.19219   3.59122   6.97760   1.85792   0.00704   1.003E+00   1.000E-03  -4.147E-03
 867  8.70272650   0.704  -1.19218   3.59122   6.97758   1.85791   0.00700   1.003E+00   1.000E-03  -4.129E-03
 868  8.70356585   0.704  -1.19217   3.59122   6.97756   1.85791   0.00696   1.003E+00   1.000E-03  -4.110E-03
 869  8.70440359   0.704  -1.19216   3.59122   6.97755   1.85790   0.00692   1.003E+00   1.000E-03  -4.092E-03
 870  8.70523972   0.704  -1.19216   3.59121   6.97753   1.85790   0.00688   1.003E+00   1.000E-03  -4.074E-03
 871  8.70607424   0.704  -1.19215   3.59121   6.97752   1.85789   0.00685   1.003E+00   1.000E-03  -4.056E-03
 872  8.70690715   0.704  -1.19214   3.59121   6.97750   1.85789   0.00681   1.003E+00   1.000E-03  -4.038E-03
 873  8.70773848   0.704  -1.19214   3.59121   6.97748   1.85788   0.00677   1.003E+00   1.000E-03  -4.020E-03
 874  8.70856821   0.704  -1.19213   3.59121   6.97747   1.85788   0.00673   1.003E+00   1.000E-03  -4.002E-03
 875  8.70939637   0.704  -1.19212   3.59121   6.97745   1.85787   0.00669   1.003E+00   1.000E-03  -3.984E-03
 876  8.71022294   0.704  -1.19211   3.59120   6.97744   1.85787   0.00666   1.003E+00   1.000E-03  -3.966E-03
 877  8.71104795   0.704  -1.19211   3.59120   6.97742   1.85786   0.00662   1.003E+00   1.000E-03  -3.947E-03
 878  8.71187139   0.704  -1.19210   3.59120   6.97740   1.85786   0.00658   1.003E+00   1.000E-03  -3.929E-03
 879  8.71269328   0.704  -1.19209   3.59120   6.97739   1.85785   0.00654   1.003E+00   1.000E-03  -3.911E-03
 880  8.71351361   0.704  -1.19209   3.59120   6.97737   1.85785   0.00650   1.003E+00   1.000E-03  -3.893E-03
 881  8.71433239   0.704  -1.19208   3.59120   6.97736   1.85784   0.00647   1.003E+00   1.000E-03  -3.875E-03
 882  8.71514964   0.704  -1.19207   3.59119   6.97734   1.85784   0.00643   1.003E+00   1.000E-03  -3.857E-03
 883  8.71596535   0.704  -1.19206   3.59119   6.97732   1.85783   0.00639   1.003E+00   1.000E-03  -3.839E-03
 884  8.71677953   0.704  -1.19206   3.59119   6.97731   1.85782   0.00635   1.003E+00   1.000E-03  -3.821E-03
 885  8.71759218   0.704  -1.19205   3.59119   6.97729   1.85782   0.00631   1.003E+00   1.000E-03  -3.802E-03
 886  8.71840332   0.704  -1.19204   3.59119   6.97727   1.85781   0.00628   1.003E+00   1.000E-03  -3.784E-03
 887  8.71921295   0.704  -1.19204   3.59119   6.97726   1.85781   0.00624   1.003E+00   1.000E-03  -3.766E-03
 888  8.72002107   0.704  -1.19203   3.59118   6.97724   1.85780   0.00620   1.003E+00   1.000E-03  -3.748E-03
 889  8.72082769   0.704  -1.19202   3.59118   6.97723   1.85780   0.00616   1.003E+00   1.000E-03  -3.730E-03
 890  8.72163281   0.704  -1.19201   3.59118   6.97721   1.85779   0.00612   1.003E+00   1.000E-03  -3.712E-03
 891  8.72243645   0.704  -1.19201   3.59118   6.97720   1.85779   0.00609   1.003E+00   1.000E-03  -3.698E-03
 892  8.72323860   0.704  -1.19200   3.59118   6.97719   1.85779   0.00608   1.003E+00   1.000E-03  -3.692E-03
 893  8.72403927   0.704  -1.19200   3.59118   6.97718   1.85779   0.00606   1.003E+00   1.000E-03  -3.685E-03
 894  8.72483847   0.704  -1.19199   3.59118   6.97717   1.85778   0.00604   1.003E+00   1.000E-03  -3.679E-03
 895  8.72563620   0.704  -1.19198   3.59118   6.97716   1.85778   0.00602   1.003E+00   1.000E-03  -3.673E-03
 896  8.72643246   0.704  -1.19198   3.59117   6.97715   1.85778   0.00600   1.003E+00   1.000E-03  -3.667E-03
 897  8.72722727   0.704  -1.19197   3.59117   6.97714   1.85778   0.00598   1.003E+00   1.000E-03  -3.660E-03
 898  8.72802063   0.704  -1.19196   3.59117   6.97713   1.85778   0.00596   1.003E+00   1.000E-03  -3.654E-03
 899  8.72881254   0.704  -1.19196   3.59117   6.97712   1.85778   0.00595   1.003E+00   1.000E-03  -3.648E-03
 900  8.72960301   0.704  -1.19195   3.59117   6.97711   1.85778   0.00593   1.003E+00   1.000E-03  -3.642E-03
 901  8.73039204   0.704  -1.19194   3.59117   6.97710   1.85777   0.00591   1.003E+00   1.000E-03  -3.635E-03
 902  8.73117965   0.704  -1.19194   3.59117   6.97709   1.85777   0.00589   1.003E+00   1.000E-03  -3.629E-03
 903  8.73196582   0.704  -1.19193   3.59117   6.97708   1.85777   0.00587   1.003E+00   1.000E-03  -3.623E-03
 904  8.73275058   0.704  -1.19192   3.59117   6.97707   1.85777   0.00585   1.003E+00   1.000E-03  -3.617E-03
 905  8.73353392   0.704  -1.19192   3.59117   6.97706   1.85777   0.00583   1.003E+00   1.000E-03  -3.610E-03
 906  8.73431585   0.704  -1.19191   3.59117   6.97705   1.85777   0.00582   1.003E+00   1.000E-03  -3.604E-03
 907  8.73509638   0.704  -1.19191   3.59116   6.97704   1.85776   0.00580   1.003E+00   1.000E-03  -3.598E-03
 908  8.73587550   0.704  -1.19190   3.59116   6.97703   1.85776   0.00578   1.003E+00   1.000E-03  -3.592E-03
 909  8.73665323   0.704  -1.19189   3.59116   6.97702   1.85776   0.00576   1.003E+00   1.000E-03  -3.586E-03
 910  8.73742957   0.704  -1.19189   3.59116   6.97701   1.85776   0.00574   1.003E+00   1.000E-03  -3.579E-03
 911  8.73820452   0.704  -1.19188   3.59116   6.97700   1.85776   0.00572   1.003E+00   1.000E-03  -3.573E-03
 912  8.73897810   0.704  -1.19187   3.59116   6.97699   1.85776   0.00570   1.003E+00   1.000E-03  -3.567E-03
 913  8.73975030   0.704  -1.19187   3.59116   6.97698   1.85775   0.00569   1.003E+00   1.000E-03  -3.561E-03
 914  8.74052112   0.704  -1.19186   3.59116   6.97697   1.85775   0.00567   1.003E+00   1.000E-03  -3.554E-03
 915  8.74129059   0.704  -1.19185   3.59116   6.97696   1.85775   0.00565   1.003E+00   1.000E-03  -3.548E-03
 916  8.74205869   0.704  -1.19185   3.59116   6.97695   1.85775   0.00563   1.003E+00   1.000E-03  -3.542E-03
 917  8.74282543   0.704  -1.19184   3.59116   6.97694   1.85775   0.00561   1.003E+00   1.000E-03  -3.536E-03
 918  8.74359083   0.704  -1.19184   3.59115   6.97693   1.85775   0.00559   1.003E+00   1.000E-03  -3.529E-03
 919  8.74435487   0.704  -1.19183   3.59115   6.97692   1.85774   0.00558   1.003E+00   1.000E-03  -3.523E-03
 920  8.74511758   0.704  -1.19182   3.59115   6.97691   1.85774   0.00556   1.003E+00   1.000E-03  -3.517E-03
 921  8.74587895   0.704  -1.19182   3.59115   6.97690   1.85774   0.00554   1.003E+00   1.000E-03  -3.511E-03
 922  8.74663898   0.704  -1.19181   3.59115   6.97689   1.85774   0.00552   1.003E+00   1.000E-03  -3.504E-03
 923  8.74739769   0.704  -1.19180   3.59115   6.97688   1.85774   0.00550   1.003E+00   1.000E-03  -3.498E-03
 924  8.74815507   0.704  -1.19180   3.59115   6.97687   1.85774   0.00548   1.003E+00   1.000E-03  -3.492E-03
 925  8.74891114   0.704  -1.19179   3.59115   6.97686   1.85774   0.00546   1.003E+00   1.000E-03  -3.486E-03
 926  8.74966589   0.704  -1.19178   3.59115   6.97685   1.85773   0.00545   1.003E+00   1.000E-03  -3.479E-03
 927  8.75041934   0.704  -1.19178   3.59115   6.97684   1.85773   0.00543   1.003E+00   1.000E-03  -3.473E-03
 928  8.75117147   0.704  -1.19177   3.59114   6.97683   1.85773   0.00541   1.003E+00   1.000E-03  -3.467E-03
 929  8.75192231   0.704  -1.19177   3.59114   6.97682   1.85773   0.00539   1.003E+00   1.000E-03  -3.461E-03
 930  8.75267185   0.704  -1.19176   3.59114   6.97681   1.85773   0.00537   1.003E+00   1.000E-03  -3.455E-03
 931  8.75342010   0.704  -1.19175   3.59114   6.97680   1.85773   0.00535   1.003E+00   1.000E-03  -3.448E-03
 932  8.75416707   0.704  -1.19175   3.59114   6.97679   1.85772   0.00533   1.003E+00   1.000E-03  -3.442E-03
 933  8.75491275   0.704  -1.19174   3.59114   6.97678   1.85772   0.00532   1.003E+00   1.000E-03  -3.436E-03
 934  8.75565715   0.704  -1.19173   3.59114   6.97677   1.85772   0.00530   1.003E+00   1.000E-03  -3.430E-03
 935  8.75640028   0.704  -1.19173   3.59114   6.97676   1.85772   0.00528   1.003E+00   1.000E-03  -3.423E-03
 936  8.75714214   0.704  -1.19172   3.59114   6.97675   1.85772   0.00526   1.003E+00   1.000E-03  -3.417E-03
 937  8.75788274   0.704  -1.19171   3.59114   6.97674   1.85772   0.00524   1.003E+00   1.000E-03  -3.411E-03
 938  8.75862207   0.704  -1.19171   3.59114   6.97672   1.85771   0.00522   1.003E+00   1.000E-03  -3.405E-03
 939  8.75936015   0.703  -1.19170   3.59113   6.97671   1.85771   0.00520   1.003E+00   1.000E-03  -3.398E-03
 940  8.76009697   0.703  -1.19169   3.59113   6.97670   1.85771   0.00519   1.003E+00   1.000E-03  -3.392E-03
 941  8.76083255   0.703  -1.19169   3.59113   6.97669   1.85771   0.00517   1.003E+00   1.000E-03  -3.386E-03
 942  8.76156688   0.703  -1.19168   3.59113   6.97668   1.85771   0.00515   1.003E+00   1.000E-03  -3.380E-03
 943  8.76229998   0.703  -1.19168   3.59113   6.97667   1.85771   0.00513   1.003E+00   1.000E-03  -3.373E-03
 944  8.76303183   0.703  -1.19167   3.59113   6.97666   1.85770   0.00511   1.003E+00   1.000E-03  -3.367E-03
 945  8.76376246   0.703  -1.19166   3.59113   6.97665   1.85770   0.00509   1.003E+00   1.000E-03  -3.361E-03
 946  8.76449186   0.703  -1.19166   3.59113   6.97664   1.85770   0.00508   1.003E+00   1.000E-03  -3.355E-03
 947  8.76522004   0.703  -1.19165   3.59113   6.97663   1.85770   0.00506   1.003E+00   1.000E-03  -3.348E-03
 948  8.76594700   0.703  -1.19164   3.59113   6.97662   1.85770   0.00504   1.003E+00   1.000E-03  -3.342E-03
 949  8.76667274   0.703  -1.19164   3.59112   6.97661   1.85770   0.00502   1.003E+00   1.000E-03  -3.336E-03
 950  8.76739727   0.703  -1.19163   3.59112   6.97660   1.85770   0.00500   1.003E+00   1.000E-03  -3.330E-03
 951  8.76812060   0.703  -1.19162   3.59112   6.97659   1.85769   0.00498   1.003E+00   1.000E-03  -3.323E-03
 952  8.76884272   0.703  -1.19162   3.59112   6.97658   1.85769   0.00496   1.003E+00   1.000E-03  -3.317E-03
 953  8.76956365   0.703  -1.19161   3.59112   6.97657   1.85769   0.00495   1.003E+00   1.000E-03  -3.311E-03
 954  8.77028338   0.703  -1.19161   3.59112   6.97656   1.85769   0.00493   1.003E+00   1.000E-03  -3.305E-03
 955  8.77100192   0.703  -1.19160   3.59112   6.97655   1.85769   0.00491   1.003E+00   1.000E-03  -3.299E-03
 956  8.77171927   0.703  -1.19159   3.59112   6.97654   1.85769   0.00489   1.003E+00   1.000E-03  -3.292E-03
 957  8.77243544   0.703  -1.19159   3.59112   6.97653   1.85768   0.00487   1.003E+00   1.000E-03  -3.286E-03
 958  8.77315043   0.703  -1.19158   3.59112   6.97652   1.85768   0.00485   1.003E+00   1.000E-03  -3.280E-03
 959  8.77386424   0.703  -1.19157   3.59112   6.97651   1.85768   0.00483   1.003E+00   1.000E-03  -3.274E-03
 960  8.77457689   0.703  -1.19157   3.59111   6.97650   1.85768   0.00482   1.003E+00   1.000E-03  -3.267E-03
 961  8.77528836   0.703  -1.19156   3.59111   6.97649   1.85768   0.00480   1.003E+00   1.000E-03  -3.261E-03
 962  8.77599868   0.703  -1.19155   3.59111   6.97648   1.85768   0.00478   1.003E+00   1.000E-03  -3.255E-03
 963  8.77670783   0.703  -1.19155   3.59111   6.97647   1.85767   0.00476   1.003E+00   1.000E-03  -3.249E-03
 964  8.77741582   0.703  -1.19154   3.59111   6.97646   1.85767   0.00474   1.003E+00   1.000E-03  -3.242E-03
 965  8.77812267   0.703  -1.19154   3.59111   6.97645   1.85767   0.00472   1.003E+00   1.000E-03  -3.236E-03
 966  8.77882836   0.703  -1.19153   3.59111   6.97644   1.85767   0.00470   1.003E+00   1.000E-03  -3.230E-03
 967  8.77953292   0.703  -1.19152   3.59111   6.97643   1.85767   0.00469   1.003E+00   1.000E-03  -3.224E-03
 968  8.78023633   0.703  -1.19152   3.59111   6.97642   1.85767   0.00467   1.003E+00   1.000E-03  -3.217E-03
 969  8.78093860   0.703  -1.19151   3.59111   6.97641   1.85766   0.00465   1.003E+00   1.000E-03  -3.211E-03
 970  8.78163974   0.703  -1.19150   3.59110   6.97640   1.85766   0.00463   1.003E+00   1.000E-03  -3.205E-03
 971  8.78233974   0.703  -1.19150   3.59110   6.97639   1.85766   0.00461   1.003E+00   1.000E-03  -3.199E-03
 972  8.78303863   0.703  -1.19149   3.59110   6.97638   1.85766   0.00459   1.003E+00   1.000E-03  -3.192E-03
 973  8.78373639   0.703  -1.19148   3.59110   6.97637   1.85766   0.00458   1.003E+00   1.000E-03  -3.186E-03
 974  8.78443303   0.703  -1.19148   3.59110   6.97636   1.85766   0.00456   1.003E+00   1.000E-03  -3.180E-03
 975  8.78512855   0.703  -1.19147   3.59110   6.97635   1.85766   0.00454   1.003E+00   1.000E-03  -3.174E-03
 976  8.78582296   0.703  -1.19146   3.59110   6.97634   1.85765   0.00452   1.003E+00   1.000E-03  -3.168E-03
 977  8.78651626   0.703  -1.19146   3.59110   6.97633   1.85765   0.00450   1.003E+00   1.000E-03  -3.161E-03
 978  8.78720846   0.703  -1.19145   3.59110   6.97632   1.85765   0.00448   1.003E+00   1.000E-03  -3.155E-03
 979  8.78789956   0.703  -1.19145   3.59110   6.97631   1.85765   0.00446   1.003E+00   1.000E-03  -3.149E-03
 980  8.78858956   0.703  -1.19144   3.59110   6.97630   1.85765   0.00445   1.003E+00   1.000E-03  -3.143E-03
 981  8.78927846   0.703  -1.19143   3.59109   6.97629   1.85765   0.00443   1.003E+00   1.000E-03  -3.136E-03
 982  8.78996628   0.703  -1.19143   3.59109   6.97628   1.85764   0.00441   1.003E+00   1.000E-03  -3.130E-03
 983  8.79065300   0.703  -1.19142   3.59109   6.97627   1.85764   0.00439   1.003E+00   1.000E-03  -3.124E-03
 984  8.79133864   0.703  -1.19141   3.59109   6.97626   1.85764   0.00437   1.003E+00   1.000E-03  -3.118E-03
 985  8.79202321   0.703  -1.19141   3.59109   6.97625   1.85764   0.00435   1.003E+00   1.000E-03  -3.111E-03
 986  8.79270669   0.703  -1.19140   3.59109   6.97624   1.85764   0.00433   1.003E+00   1.000E-03  -3.105E-03
 987  8.79338910   0.703  -1.19139   3.59109   6.97623   1.85764   0.00432   1.003E+00   1.000E-03  -3.099E-03
 988  8.79407044   0.703  -1.19139   3.59109   6.97622   1.85763   0.00430   1.003E+00   1.000E-03  -3.093E-03
 989  8.79475071   0.703  -1.19138   3.59109   6.97621   1.85763   0.00428   1.003E+00   1.000E-03  -3.086E-03
 990  8.79542992   0.703  -1.19138   3.59109   6.97620   1.85763   0.00426   1.003E+00   1.000E-03  -3.080E-03
 991  8.79610806   0.703  -1.19137   3.59108   6.97619   1.85763   0.00424   1.002E+00   1.000E-03  -3.074E-03
 992  8.79678515   0.703  -1.19136   3.59108   6.97618   1.85763   0.00422   1.002E+00   1.000E-03  -3.068E-03
 993  8.79746119   0.703  -1.19136   3.59108   6.97617   1.85763   0.00420   1.002E+00   1.000E-03  -3.061E-03
 994  8.79813618   0.703  -1.19135   3.59108   6.97616   1.85762   0.00419   1.002E+00   1.000E-03  -3.055E-03
 995  8.79881011   0.703  -1.19134   3.59108   6.97615   1.85762   0.00417   1.002E+00   1.000E-03  -3.049E-03
 996  8.79948301   0.703  -1.19134   3.59108   6.97614   1.85762   0.00415   1.002E+00   1.000E-03  -3.043E-03
 997  8.80015486   0.703  -1.19133   3.59108   6.97613   1.85762   0.00413   1.002E+00   1.000E-03  -3.036E-03
 998  8.80082567   0.703  -1.19132   3.59108   6.97612   1.85762   0.00411   1.002E+00   1.000E-03  -3.030E-03
 999  8.80149546   0.703  -1.19132   3.59108   6.97611   1.85762   0.00409   1.002E+00   1.000E-03  -3.024E-03
1000  8.80216420   0.703  -1.19131   3.59108   6.97610   1.85762   0.00408   1.002E+00   1.000E-03  -3.018E-03
1001  8.80283193   0.703  -1.19131   3.59108   6.97609   1.85761   0.00406   1.002E+00   1.000E-03  -3.012E-03
1002  8.80349862   0.703  -1.19130   3.59107   6.97608   1.85761   0.00404   1.002E+00   1.000E-03  -3.005E-03
1003  8.80416430   0.703  -1.19129   3.59107   6.97607   1.85761   0.00402   1.002E+00   1.000E-03  -2.999E-03
1004  8.80482895   0.703  -1.19129   3.59107   6.97606   1.85761   0.00400   1.002E+00   1.000E-03  -2.993E-03
1005  8.80549259   0.703  -1.19128   3.59107   6.97605   1.85761   0.00398   1.002E+00   1.000E-03  -2.987E-03
1006  8.80615522   0.703  -1.19127   3.59107   6.97604   1.85761   0.00396   1.002E+00   1.000E-03  -2.980E-03
1007  8.80681683   0.703  -1.19127   3.59107   6.97603   1.85760   0.00395   1.002E+00   1.000E-03  -2.974E-03
1008  8.80747745   0.703  -1.19126   3.59107   6.97602   1.85760   0.00393   1.002E+00   1.000E-03  -2.968E-03
1009  8.80813705   0.703  -1.19125   3.59107   6.97601   1.85760   0.00391   1.002E+00   1.000E-03  -2.962E-03
1010  8.80879566   0.703  -1.19125   3.59107   6.97600   1.85760   0.00389   1.002E+00   1.000E-03  -2.955E-03
1011  8.80945327   0.703  -1.19124   3.59107   6.97599   1.85760   0.00387   1.002E+00   1.000E-03  -2.949E-03
1012  8.81010989   0.703  -1.19123   3.59106   6.97598   1.85760   0.00385   1.002E+00   1.000E-03  -2.943E-03
1013  8.81076551   0.702  -1.19123   3.59106   6.97597   1.85759   0.00383   1.002E+00   1.000E-03  -2.937E-03
1014  8.81142015   0.702  -1.19122   3.59106   6.97596   1.85759   0.00382   1.002E+00   1.000E-03  -2.930E-03
1015  8.81207380   0.702  -1.19122   3.59106   6.97595   1.85759   0.00380   1.002E+00   1.000E-03  -2.924E-03
1016  8.81272647   0.702  -1.19121   3.59106   6.97594   1.85759   0.00378   1.002E+00   1.000E-03  -2.918E-03
1017  8.81337816   0.702  -1.19120   3.59106   6.97593   1.85759   0.00376   1.002E+00   1.000E-03  -2.912E-03
1018  8.81402887   0.702  -1.19120   3.59106   6.97592   1.85759   0.00374   1.002E+00   1.000E-03  -2.905E-03
1019  8.81467861   0.702  -1.19119   3.59106   6.97591   1.85759   0.00372   1.002E+00   1.000E-03  -2.899E-03
1020  8.81532738   0.702  -1.19118   3.59106   6.97590   1.85758   0.00370   1.002E+00   1.000E-03  -2.893E-03
1021  8.81597518   0.702  -1.19118   3.59106   6.97589   1.85758   0.00369   1.002E+00   1.000E-03  -2.887E-03
1022  8.81662202   0.702  -1.19117   3.59106   6.97588   1.85758   0.00367   1.002E+00   1.000E-03  -2.881E-03
1023  8.81726789   0.702  -1.19116   3.59105   6.97587   1.85758   0.00365   1.002E+00   1.000E-03  -2.874E-03
1024  8.81791281   0.702  -1.19116   3.59105   6.97586   1.85758   0.00363   1.002E+00   1.000E-03  -2.868E-03
1025  8.81855676   0.702  -1.19115   3.59105   6.97585   1.85758   0.00361   1.002E+00   1.000E-03  -2.862E-03
1026  8.81919977   0.702  -1.19115   3.59105   6.97584   1.85757   0.00359   1.002E+00   1.000E-03  -2.856E-03
1027  8.81984183   0.702  -1.19114   3.59105   6.97583   1.85757   0.00358   1.002E+00   1.000E-03  -2.849E-03
1028  8.82048293   0.702  -1.19113   3.59105   6.97582   1.85757   0.00356   1.002E+00   1.000E-03  -2.843E-03
1029  8.82112309   0.702  -1.19113   3.59105   6.97581   1.85757   0.00354   1.002E+00   1.000E-03  -2.837E-03
1030  8.82176231   0.702  -1.19112   3.59105   6.97580   1.85757   0.00352   1.002E+00   1.000E-03  -2.831E-03
1031  8.82240060   0.702  -1.19111   3.59105   6.97579   1.85757   0.00350   1.002E+00   1.000E-03  -2.824E-03
1032  8.82303794   0.702  -1.19111   3.59105   6.97578   1.85756   0.00348   1.002E+00   1.000E-03  -2.818E-03
1033  8.82367435   0.702  -1.19110   3.59105   6.97577   1.85756   0.00346   1.002E+00   1.000E-03  -2.812E-03
1034  8.82430983   0.702  -1.19109   3.59104   6.97576   1.85756   0.00345   1.002E+00   1.000E-03  -2.806E-03
1035  8.82494438   0.702  -1.19109   3.59104   6.97575   1.85756   0.00343   1.002E+00   1.000E-03  -2.799E-03
1036  8.82557800   0.702  -1.19108   3.59104   6.97574   1.85756   0.00341   1.002E+00   1.000E-03  -2.793E-03
1037  8.82621070   0.702  -1.19108   3.59104   6.97573   1.85756   0.00339   1.002E+00   1.000E-03  -2.787E-03
1038  8.82684248   0.702  -1.19107   3.59104   6.97572   1.85755   0.00337   1.002E+00   1.000E-03  -2.781E-03
1039  8.82747335   0.702  -1.19106   3.59104   6.97571   1.85755   0.00335   1.002E+00   1.000E-03  -2.774E-03
1040  8.82810329   0.702  -1.19106   3.59104   6.97570   1.85755   0.00333   1.002E+00   1.000E-03  -2.768E-03
1041  8.82873233   0.702  -1.19105   3.59104   6.97569   1.85755   0.00332   1.002E+00   1.000E-03  -2.762E-03
1042  8.82936046   0.702  -1.19104   3.59104   6.97568   1.85755   0.00330   1.002E+00   1.000E-03  -2.756E-03
1043  8.82998767   0.702  -1.19104   3.59104   6.97567   1.85755   0.00328   1.002E+00   1.000E-03  -2.749E-03
1044  8.83061399   0.702  -1.19103   3.59103   6.97566   1.85755   0.00326   1.002E+00   1.000E-03  -2.743E-03
1045  8.83123940   0.702  -1.19102   3.59103   6.97565   1.85754   0.00324   1.002E+00   1.000E-03  -2.737E-03
1046  8.83186391   0.702  -1.19102   3.59103   6.97564   1.85754   0.00322   1.002E+00   1.000E-03  -2.731E-03
1047  8.83248753   0.702  -1.19101   3.59103   6.97563   1.85754   0.00320   1.002E+00   1.000E-03  -2.725E-03
1048  8.83311025   0.702  -1.19100   3.59103   6.97562   1.85754   0.00319   1.002E+00   1.000E-03  -2.718E-03
1049  8.83373208   0.702  -1.19100   3.59103   6.97561   1.85754   0.00317   1.002E+00   1.000E-03  -2.712E-03
1050  8.83435302   0.702  -1.19099   3.59103   6.97560   1.85754   0.00315   1.002E+00   1.000E-03  -2.706E-03
1051  8.83497308   0.702  -1.19099   3.59103   6.97559   1.85753   0.00313   1.002E+00   1.000E-03  -2.700E-03
1052  8.83559225   0.702  -1.19098   3.59103   6.97558   1.85753   0.00311   1.002E+00   1.000E-03  -2.693E-03
1053  8.83621054   0.702  -1.19097   3.59103   6.97557   1.85753   0.00309   1.002E+00   1.000E-03  -2.687E-03
1054  8.83682795   0.702  -1.19097   3.59103   6.97556   1.85753   0.00308   1.002E+00   1.000E-03  -2.681E-03
1055  8.83744448   0.702  -1.19096   3.59102   6.97555   1.85753   0.00306   1.002E+00   1.000E-03  -2.675E-03
1056  8.83806014   0.702  -1.19095   3.59102   6.97554   1.85753   0.00304   1.002E+00   1.000E-03  -2.668E-03
1057  8.83867493   0.702  -1.19095   3.59102   6.97553   1.85752   0.00302   1.002E+00   1.000E-03  -2.662E-03
1058  8.83928885   0.702  -1.19094   3.59102   6.97552   1.85752   0.00300   1.002E+00   1.000E-03  -2.656E-03
1059  8.83990190   0.702  -1.19093   3.59102   6.97551   1.85752   0.00298   1.002E+00   1.000E-03  -2.650E-03
1060  8.84051409   0.702  -1.19093   3.59102   6.97550   1.85752   0.00296   1.002E+00   1.000E-03  -2.643E-03
1061  8.84112542   0.702  -1.19092   3.59102   6.97549   1.85752   0.00295   1.002E+00   1.000E-03  -2.637E-03
1062  8.84173588   0.702  -1.19092   3.59102   6.97548   1.85752   0.00293   1.002E+00   1.000E-03  -2.631E-03
1063  8.84234549   0.702  -1.19091   3.59102   6.97547   1.85751   0.00291   1.002E+00   1.000E-03  -2.625E-03
1064  8.84295425   0.702  -1.19090   3.59102   6.97546   1.85751   0.00289   1.002E+00   1.000E-03  -2.618E-03
1065  8.84356215   0.702  -1.19090   3.59101   6.97545   1.85751   0.00287   1.002E+00   1.000E-03  -2.612E-03
1066  8.84416921   0.702  -1.19089   3.59101   6.97544   1.85751   0.00285   1.002E+00   1.000E-03  -2.606E-03
1067  8.84477541   0.702  -1.19088   3.59101   6.97543   1.85751   0.00283   1.002E+00   1.000E-03  -2.600E-03
1068  8.84538078   0.702  -1.19088   3.59101   6.97542   1.85751   0.00282   1.002E+00   1.000E-03  -2.594E-03
1069  8.84598529   0.702  -1.19087   3.59101   6.97541   1.85751   0.00280   1.002E+00   1.000E-03  -2.587E-03
1070  8.84658897   0.702  -1.19086   3.59101   6.97540   1.85750   0.00278   1.002E+00   1.000E-03  -2.581E-03
1071  8.84719181   0.702  -1.19086   3.59101   6.97539   1.85750   0.00276   1.002E+00   1.000E-03  -2.575E-03
1072  8.84779382   0.702  -1.19085   3.59101   6.97538   1.85750   0.00274   1.002E+00   1.000E-03  -2.569E-03
1073  8.84839499   0.702  -1.19085   3.59101   6.97537   1.85750   0.00272   1.002E+00   1.000E-03  -2.562E-03
1074  8.84899533   0.702  -1.19084   3.59101   6.97536   1.85750   0.00270   1.002E+00   1.000E-03  -2.556E-03
1075  8.84959484   0.702  -1.19083   3.59101   6.97535   1.85750   0.00269   1.002E+00   1.000E-03  -2.550E-03
1076  8.85019353   0.702  -1.19083   3.59100   6.97534   1.85749   0.00267   1.002E+00   1.000E-03  -2.544E-03
1077  8.85079139   0.702  -1.19082   3.59100   6.97533   1.85749   0.00265   1.002E+00   1.000E-03  -2.537E-03
1078  8.85138843   0.702  -1.19081   3.59100   6.97532   1.85749   0.00263   1.002E+00   1.000E-03  -2.531E-03
1079  8.85198465   0.702  -1.19081   3.59100   6.97531   1.85749   0.00261   1.002E+00   1.000E-03  -2.525E-03
1080  8.85258005   0.702  -1.19080   3.59100   6.97530   1.85749   0.00259   1.002E+00   1.000E-03  -2.519E-03
1081  8.85317464   0.702  -1.19079   3.59100   6.97529   1.85749   0.00258   1.002E+00   1.000E-03  -2.512E-03
1082  8.85376841   0.702  -1.19079   3.59100   6.97528   1.85748   0.00256   1.002E+00   1.000E-03  -2.506E-03
1083  8.85436138   0.702  -1.19078   3.59100   6.97527   1.85748   0.00254   1.002E+00   1.000E-03  -2.500E-03
1084  8.85495353   0.702  -1.19077   3.59100   6.97526   1.85748   0.00252   1.002E+00   1.000E-03  -2.494E-03
1085  8.85554488   0.702  -1.19077   3.59100   6.97525   1.85748   0.00250   1.002E+00   1.000E-03  -2.487E-03
1086  8.85613543   0.702  -1.19076   3.59099   6.97524   1.85748   0.00248   1.002E+00   1.000E-03  -2.481E-03
1087  8.85672517   0.701  -1.19076   3.59099   6.97523   1.85748   0.00246   1.002E+00   1.000E-03  -2.475E-03
1088  8.85731411   0.701  -1.19075   3.59099   6.97522   1.85747   0.00245   1.002E+00   1.000E-03  -2.469E-03
1089  8.85790226   0.701  -1.19074   3.59099   6.97521   1.85747   0.00243   1.002E+00   1.000E-03  -2.462E-03
1090  8.85848961   0.701  -1.19074   3.59099   6.97520   1.85747   0.00241   1.002E+00   1.000E-03  -2.456E-03
1091  8.85907617   0.701  -1.19073   3.59099   6.97519   1.85747   0.00239   1.002E+00   1.000E-03  -2.450E-03
1092  9.08701024   0.694  -1.18807   3.59073   6.97272   1.85737   0.00000   1.001E+00   1.000E-03  -1.163E-03
1093  9.23572039   0.687  -1.18524   3.59076   6.97214   1.85928   0.00000   1.000E+00   0.000E+00  -5.260E-04
1094  9.34629276   0.680  -1.18243   3.59089   6.97219   1.86235   0.00000   1.000E+00   0.000E+00  -2.532E-04
1095  9.43434916   0.673  -1.17965   3.59108   6.97253   1.86594   0.00000   1.000E+00   0.000E+00  -1.010E-04
1096  9.50752611   0.665  -1.17693   3.59129   6.97305   1.86985   0.00000   9.995E-01   0.000E+00   9.037E-07
1097  9.57013272   0.658  -1.17424   3.59152   6.97369   1.87392   0.00000   9.990E-01   0.000E+00   6.575E-05
1098  9.62484083   0.651  -1.17159   3.59176   6.97441   1.87807   0.00000   9.990E-01   0.000E+00   1.168E-04
1099  9.67342197   0.643  -1.16896   3.59200   6.97519   1.88228   0.00000   9.990E-01   9.573E-04   1.603E-04
1100  9.71711135   0.636  -1.16635   3.59225   6.97600   1.88652   0.00000   9.990E-01   1.000E-03   1.973E-04
1101  9.75680458   0.629  -1.16375   3.59250   6.97685   1.89079   0.00000   9.990E-01   1.000E-03   2.294E-04
1102  9.79317183   0.621  -1.16115   3.59276   6.97773   1.89508   0.00000   9.990E-01   1.000E-03   2.589E-04
1103  9.82672765   0.614  -1.15857   3.59301   6.97864   1.89937   0.00000   9.990E-01   1.000E-03   2.853E-04
1104  9.85787569   0.607  -1.15599   3.59328   6.97956   1.90368   0.00000   9.990E-01   1.000E-03   3.099E-04
1105  9.88693849   0.600  -1.15341   3.59354   6.98050   1.90801   0.00000   9.990E-01   1.000E-03   3.333E-04
1106  9.91417781   0.593  -1.15084   3.59381   6.98147   1.91315   0.00000   9.990E-01   1.000E-03   3.515E-04
1107  9.93980902   0.587  -1.14827   3.59408   6.98252   1.91834   0.00000   9.990E-01   1.000E-03   3.695E-04
1108  9.96401146   0.580  -1.14568   3.59435   6.98361   1.92356   0.00000   9.990E-01   1.000E-03   3.853E-04
1109  9.98693604   0.573  -1.14309   3.59462   6.98475   1.92879   0.00000   9.990E-01   1.000E-03   4.004E-04
1110 10.00871096   0.566  -1.14047   3.59488   6.98591   1.93402   0.00000   9.990E-01   1.000E-03   4.148E-04
1111 10.02944605   0.559  -1.13783   3.59516   6.98709   1.93927   0.00000   9.990E-01   1.000E-03   4.304E-04
1112 10.04923610   0.552  -1.13517   3.59543   6.98830   1.94456   0.00000   9.990E-01   1.000E-03   4.459E-04
1113 10.06816352   0.545  -1.13248   3.59571   6.98952   1.94986   0.00000   9.990E-01   1.000E-03   4.604E-04
1114 10.08630037   0.538  -1.12977   3.59599   6.99076   1.95519   0.00000   9.990E-01   1.000E-03   4.759E-04
1115 10.10371007   0.531  -1.12704   3.59627   6.99201   1.96056   0.00000   9.990E-01   1.000E-03   4.922E-04
1116 10.12044868   0.524  -1.12428   3.59655   6.99328   1.96594   0.00000   9.990E-01   1.000E-03   5.089E-04
1117 10.13656602   0.517  -1.12151   3.59683   6.99456   1.97135   0.00000   9.990E-01   1.000E-03   5.252E-04
1118 10.15210656   0.510  -1.11870   3.59712   6.99585   1.97676   0.00000   9.990E-01   1.000E-03   5.421E-04
1119 10.16711016   0.503  -1.11588   3.59741   6.99714   1.98217   0.00000   9.990E-01   1.000E-03   5.580E-04
1120 10.18161270   0.497  -1.11302   3.59771   6.99845   1.98754   0.00000   9.990E-01   1.000E-03   5.747E-04
1121 10.19564656   0.490  -1.11015   3.59800   6.99977   1.99295   0.00000   9.982E-01   1.000E-03   5.910E-04
1122 10.20924108   0.483  -1.10725   3.59831   7.00109   1.99836   0.00000   9.980E-01   1.000E-03   6.070E-04
1123 10.22242295   0.476  -1.10431   3.59861   7.00241   2.00384   0.00000   9.980E-01   1.000E-03   6.246E-04
1124 10.23521647   0.470  -1.10134   3.59892   7.00375   2.00933   0.00000   9.980E-01   1.000E-03   6.396E-04
1125 10.24764388   0.463  -1.09835   3.59924   7.00509   2.01491   0.00000   9.980E-01   1.000E-03   6.571E-04
1126 10.25972555   0.456  -1.09533   3.59955   7.00645   2.02049   0.00000   9.980E-01   1.000E-03   6.736E-04
1127 10.27148019   0.449  -1.09228   3.59988   7.00781   2.02616   0.00000   9.980E-01   1.000E-03   6.908E-04
1128 10.28292505   0.443  -1.08921   3.60020   7.00918   2.03182   0.00000   9.980E-01   1.000E-03   7.072E-04
1129 10.29407603   0.436  -1.08610   3.60053   7.01055   2.03758   0.00000   9.980E-01   1.000E-03   7.238E-04
1130 10.30494785   0.429  -1.08298   3.60086   7.01192   2.04335   0.00000   9.980E-01   1.000E-03   7.402E-04
1131 10.31555415   0.422  -1.07982   3.60120   7.01331   2.04917   0.00000   9.980E-01   1.000E-03   7.565E-04
1132 10.32590758   0.416  -1.07664   3.60155   7.01471   2.05501   0.00000   9.980E-01   1.000E-03   7.724E-04
1133 10.33601993   0.409  -1.07343   3.60189   7.01611   2.06090   0.00000   9.980E-01   1.000E-03   7.872E-04
1134 10.34590216   0.403  -1.07019   3.60225   7.01753   2.06681   0.00000   9.980E-01   1.000E-03   8.019E-04
1135 10.35556452   0.396  -1.06692   3.60260   7.01897   2.07349   0.00000   9.980E-01   1.000E-03   8.158E-04
1136 10.36501658   0.389  -1.06362   3.60297   7.02048   2.08067   0.00000   9.980E-01   1.000E-03   8.263E-04
1137 10.37426730   0.383  -1.06028   3.60333   7.02203   2.08791   0.00000   9.980E-01   1.000E-03   8.433E-04
1138 10.38332507   0.376  -1.05690   3.60371   7.02361   2.09518   0.00000   9.980E-01   1.000E-03   8.587E-04
1139 10.39219779   0.370  -1.05348   3.60408   7.02523   2.10252   0.00000   9.980E-01   1.000E-03   8.727E-04
1140 10.40089286   0.363  -1.05003   3.60447   7.02689   2.10991   0.00000   9.980E-01   1.000E-03   8.854E-04
1141 10.40941725   0.356  -1.04654   3.60485   7.02856   2.11737   0.00000   9.980E-01   1.000E-03   9.004E-04
1142 10.41777755   0.350  -1.04301   3.60524   7.03027   2.12487   0.00000   9.980E-01   1.000E-03   9.111E-04
1143 10.42597993   0.343  -1.03945   3.60564   7.03200   2.13242   0.00000   9.980E-01   1.000E-03   9.239E-04
1144 10.43403028   0.336  -1.03584   3.60603   7.03375   2.14002   0.00000   9.980E-01   1.000E-03   9.357E-04
1145 10.44193410   0.330  -1.03220   3.60643   7.03553   2.14769   0.00000   9.980E-01   1.000E-03   9.473E-04
1146 10.44969665   0.323  -1.02851   3.60685   7.03733   2.15542   0.00000   9.980E-01   1.000E-03   9.578E-04
1147 10.45732289   0.316  -1.02479   3.60726   7.03915   2.16322   0.00000   9.980E-01   1.000E-03   9.663E-04
1148 10.46481751   0.310  -1.02102   3.60767   7.04099   2.17110   0.00000   9.980E-01   1.000E-03   9.818E-04
1149 10.47218500   0.303  -1.01721   3.60810   7.04286   2.17902   0.00000   9.980E-01   1.000E-03   9.921E-04
1150 10.47942958   0.296  -1.01336   3.60852   7.04473   2.18702   0.00000   9.980E-01   1.000E-03   1.000E-03
1151 10.48655529   0.290  -1.00946   3.60895   7.04663   2.19504   0.00000   9.980E-01   1.000E-03   1.010E-03
1152 10.49356597   0.283  -1.00552   3.60939   7.04854   2.20313   0.00000   9.970E-01   1.000E-03   1.022E-03
1153 10.50046528   0.276  -1.00153   3.60983   7.05048   2.21127   0.00000   9.970E-01   1.669E-03   1.030E-03
1154 10.50725669   0.269  -0.99749   3.61028   7.05243   2.21950   0.00000   9.970E-01   2.000E-03   1.042E-03
1155 10.51394353   0.263  -0.99339   3.61074   7.05441   2.22780   0.00000   9.970E-01   2.000E-03   1.060E-03
1156 10.52052898   0.256  -0.98924   3.61120   7.05639   2.23617   0.00000   9.970E-01   2.000E-03   1.070E-03
1157 10.52701605   0.250  -0.98505   3.61166   7.05840   2.24460   0.00000   9.970E-01   2.000E-03   1.080E-03
1158 10.53340766   0.243  -0.98080   3.61214   7.06044   2.25306   0.00000   9.970E-01   2.000E-03   1.090E-03
1159 10.53970656   0.236  -0.97650   3.61261   7.06249   2.26155   0.00000   9.970E-01   2.000E-03   1.100E-03
1160 10.54591540   0.230  -0.97215   3.61309   7.06456   2.27011   0.00000   9.970E-01   2.000E-03   1.110E-03
1161 10.55203673   0.224  -0.96774   3.61359   7.06665   2.27871   0.00000   9.970E-01   2.000E-03   1.116E-03
1162 10.55807298   0.217  -0.96328   3.61408   7.06875   2.28738   0.00000   9.970E-01   2.000E-03   1.130E-03
1163 10.56402648   0.211  -0.95876   3.61458   7.07089   2.29608   0.00000   9.970E-01   2.000E-03   1.136E-03
1164 10.56989948   0.205  -0.95419   3.61508   7.07305   2.30481   0.00000   9.970E-01   2.000E-03   1.141E-03
1165 10.57569410   0.199  -0.94956   3.61560   7.07523   2.31379   0.00000   9.970E-01   2.000E-03   1.150E-03
1166 10.58141243   0.194  -0.94487   3.61611   7.07744   2.32415   0.00000   9.970E-01   2.000E-03   1.160E-03
1167 10.58705645   0.188  -0.94012   3.61663   7.07973   2.33448   0.00000   9.970E-01   2.000E-03   1.166E-03
1168 10.59262805   0.183  -0.93532   3.61717   7.08213   2.34499   0.00000   9.970E-01   2.000E-03   1.171E-03
1169 10.59812908   0.177  -0.93044   3.61770   7.08456   2.35549   0.00000   9.970E-01   2.000E-03   1.180E-03
1170 10.60356131   0.172  -0.92550   3.61824   7.08707   2.36619   0.00000   9.970E-01   2.000E-03   1.190E-03
1171 10.60892642   0.166  -0.92048   3.61879   7.08965   2.37692   0.00000   9.970E-01   2.000E-03   1.202E-03
1172 10.61422606   0.161  -0.91539   3.61933   7.09231   2.38785   0.00000   9.970E-01   2.000E-03   1.230E-03
1173 10.61946181   0.156  -0.91022   3.61989   7.09501   2.39885   0.00000   9.970E-01   2.000E-03   1.257E-03
1174 10.62463519   0.151  -0.90497   3.62046   7.09776   2.41002   0.00000   9.970E-01   2.000E-03   1.273E-03
1175 10.62974768   0.145  -0.89966   3.62103   7.10059   2.42129   0.00000   9.970E-01   2.000E-03   1.290E-03
1176 10.63480067   0.140  -0.89426   3.62160   7.10347   2.43275   0.00000   9.970E-01   2.000E-03   1.316E-03
1177 10.63979555   0.135  -0.88878   3.62218   7.10640   2.44434   0.00000   9.970E-01   2.000E-03   1.333E-03
1178 10.64473364   0.130  -0.88322   3.62276   7.10939   2.45612   0.00000   9.960E-01   2.000E-03   1.361E-03
1179 10.64961621   0.125  -0.87756   3.62335   7.11243   2.46807   0.00000   9.960E-01   2.000E-03   1.388E-03
1180 10.65444449   0.120  -0.87181   3.62395   7.11553   2.48020   0.00000   9.960E-01   2.000E-03   1.408E-03
1181 10.65921969   0.115  -0.86597   3.62455   7.11868   2.49257   0.00000   9.960E-01   2.000E-03   1.437E-03
1182 10.66394295   0.111  -0.86002   3.62516   7.12186   2.50517   0.00000   9.960E-01   3.000E-03   1.456E-03
1183 10.66861540   0.106  -0.85398   3.62578   7.12509   2.51798   0.00000   9.960E-01   3.000E-03   1.480E-03
1184 10.67323811   0.101  -0.84781   3.62640   7.12836   2.53106   0.00000   9.960E-01   3.000E-03   1.517E-03
1185 10.67781213   0.096  -0.84154   3.62704   7.13167   2.54438   0.00000   9.950E-01   3.000E-03   1.538E-03
1186 10.68233848   0.092  -0.83513   3.62767   7.13501   2.55799   0.00000   9.950E-01   3.000E-03   1.580E-03
1187 10.68681815   0.087  -0.82858   3.62832   7.13837   2.57186   0.00000   9.950E-01   4.000E-03   1.613E-03
1188 10.69125207   0.083  -0.82190   3.62899   7.14176   2.58608   0.00000   9.944E-01   4.000E-03   1.640E-03
1189 10.69564119   0.078  -0.81507   3.62966   7.14518   2.60067   0.00000   9.940E-01   4.000E-03   1.680E-03
1190 10.69998639   0.074  -0.80808   3.63034   7.14862   2.61565   0.00000   9.940E-01   5.000E-03   1.719E-03
1191 10.70428856   0.070  -0.80092   3.63104   7.15207   2.63105   0.00000   9.930E-01   5.000E-03   1.760E-03
1192 10.70569889   0.069  -0.79852   3.63128   7.15322   2.63624   0.00000   9.930E-01   5.000E-03   1.774E-03
1193 10.70710466   0.067  -0.79609   3.63151   7.15437   2.64149   0.00000   9.930E-01   5.396E-03   1.794E-03
1194 10.70850589   0.066  -0.79366   3.63175   7.15553   2.64679   0.00000   9.930E-01   6.000E-03   1.806E-03
1195 10.70990262   0.065  -0.79121   3.63199   7.15669   2.65213   0.00000   9.922E-01   6.000E-03   1.810E-03
1196 10.71129486   0.063  -0.78873   3.63222   7.15785   2.65750   0.00000   9.920E-01   6.000E-03   1.821E-03
1197 10.71268266   0.062  -0.78622   3.63247   7.15903   2.66293   0.00000   9.920E-01   6.000E-03   1.843E-03
1198 10.71406604   0.061  -0.78370   3.63271   7.16021   2.66843   0.00000   9.920E-01   6.554E-03   1.856E-03
1199 10.71544502   0.059  -0.78115   3.63296   7.16140   2.67398   0.00000   9.912E-01   7.000E-03   1.868E-03
1200 10.71681965   0.058  -0.77858   3.63320   7.16259   2.67959   0.00000   9.910E-01   7.000E-03   1.891E-03
1201 10.71818993   0.057  -0.77599   3.63345   7.16379   2.68526   0.00000   9.910E-01   7.000E-03   1.904E-03
1202 10.71955590   0.055  -0.77338   3.63370   7.16501   2.69098   0.00000   9.903E-01   7.679E-03   1.917E-03
1203 10.72091759   0.054  -0.77074   3.63395   7.16623   2.69676   0.00000   9.900E-01   8.000E-03   1.940E-03
1204 10.72227503   0.053  -0.76808   3.63420   7.16746   2.70259   0.00000   9.900E-01   8.000E-03   1.953E-03
1205 10.72362823   0.052  -0.76540   3.63446   7.16870   2.70847   0.00000   9.894E-01   8.640E-03   1.960E-03
1206 10.72497723   0.051  -0.76267   3.63474   7.16994   2.71441   0.00000   9.890E-01   9.000E-03   1.980E-03
1207 10.72632206   0.049  -0.75992   3.63500   7.17122   2.72045   0.00000   9.886E-01   9.358E-03   2.016E-03
1208 10.72766273   0.048  -0.75717   3.63526   7.17249   2.72651   0.00000   9.880E-01   1.000E-02   2.010E-03
1209 10.72899928   0.047  -0.75439   3.63552   7.17378   2.73263   0.00000   9.879E-01   1.011E-02   2.011E-03
1210 10.73033172   0.046  -0.75158   3.63578   7.17509   2.73883   0.00000   9.870E-01   1.100E-02   2.035E-03
1211 10.73166009   0.045  -0.74875   3.63604   7.17641   2.74506   0.00000   9.870E-01   1.100E-02   2.059E-03
1212 10.73298441   0.043  -0.74590   3.63631   7.17776   2.75129   0.00000   9.860E-01   1.200E-02   2.067E-03
1213 10.73430471   0.042  -0.74301   3.63658   7.17912   2.75759   0.00000   9.852E-01   1.276E-02   2.088E-03
1214 10.73562100   0.041  -0.74011   3.63685   7.18051   2.76396   0.00000   9.848E-01   1.300E-02   2.100E-03
1215 10.73693332   0.040  -0.73717   3.63713   7.18191   2.77037   0.00000   9.840E-01   1.366E-02   2.113E-03
1216 10.73824168   0.039  -0.73420   3.63740   7.18334   2.77684   0.00000   9.830E-01   1.414E-02   2.131E-03
1217 10.73954611   0.038  -0.73122   3.63767   7.18480   2.78335   0.00000   9.824E-01   1.500E-02   2.146E-03
1218 10.74084663   0.036  -0.72821   3.63794   7.18628   2.78987   0.00000   9.819E-01   1.612E-02   2.151E-03
1219 10.74214328   0.035  -0.72515   3.63822   7.18780   2.79645   0.00000   9.810E-01   1.700E-02   2.179E-03
1220 10.74343606   0.034  -0.72206   3.63851   7.18935   2.80309   0.00000   9.798E-01   1.800E-02   2.212E-03
1221 10.74472500   0.033  -0.71895   3.63879   7.19094   2.80977   0.00000   9.790E-01   1.871E-02   2.220E-03
1222 10.74601014   0.032  -0.71583   3.63907   7.19256   2.81647   0.00000   9.777E-01   2.000E-02   2.223E-03
1223 10.74729148   0.031  -0.71267   3.63936   7.19422   2.82323   0.00000   9.770E-01   2.084E-02   2.238E-03
1224 10.74856905   0.030  -0.70948   3.63965   7.19592   2.82998   0.00000   9.756E-01   2.243E-02   2.264E-03
1225 10.74984287   0.029  -0.70627   3.63993   7.19767   2.83675   0.00000   9.740E-01   2.302E-02   2.270E-03
1226 10.75111297   0.028  -0.70303   3.64021   7.19946   2.84355   0.00000   9.724E-01   2.464E-02   2.286E-03
1227 10.75237936   0.027  -0.69977   3.64051   7.20130   2.85038   0.00000   9.717E-01   2.626E-02   2.303E-03
1228 10.75364208   0.025  -0.69648   3.64080   7.20320   2.85723   0.00000   9.701E-01   2.790E-02   2.310E-03
1229 10.75490113   0.024  -0.69316   3.64109   7.20515   2.86407   0.00000   9.675E-01   2.955E-02   2.321E-03
1230 10.75615654   0.023  -0.68982   3.64138   7.20716   2.87088   0.00000   9.658E-01   3.141E-02   2.344E-03
1231 10.75740833   0.022  -0.68641   3.64170   7.20926   2.87770   0.00000   9.641E-01   3.390E-02   2.414E-03
1232 10.75865653   0.021  -0.68304   3.64199   7.21138   2.88448   0.00000   9.618E-01   3.559E-02   2.342E-03
1233 10.75990115   0.020  -0.67964   3.64228   7.21358   2.89126   0.00000   9.594E-01   3.828E-02   2.358E-03
1234 10.76114221   0.019  -0.67622   3.64258   7.21584   2.89805   0.00000   9.570E-01   4.097E-02   2.390E-03
1235 10.76237974   0.017  -0.67279   3.64287   7.21815   2.90483   0.00000   9.543E-01   4.340E-02   2.376E-03
1236 10.76361375   0.016  -0.66933   3.64316   7.22049   2.91156   0.00000   9.512E-01   4.642E-02   2.384E-03
1237 10.76484426   0.015  -0.66585   3.64345   7.22288   2.91835   0.00000   9.478E-01   4.931E-02   2.402E-03
1238 10.76607129   0.014  -0.66234   3.64374   7.22525   2.92521   0.00000   9.452E-01   5.280E-02   2.410E-03
1239 10.76729487   0.012  -0.65879   3.64404   7.22767   2.93217   0.00000   9.416E-01   5.645E-02   2.559E-03
1240 10.76851502   0.011  -0.65517   3.64434   7.23010   2.93933   0.00000   9.373E-01   6.049E-02   2.844E-03
1241 10.76973174   0.010  -0.65149   3.64466   7.23243   2.94671   0.00000   9.330E-01   6.400E-02   3.140E-03
1242 10.77001370   0.010  -0.65063   3.64473   7.23295   2.94847   0.00000   9.319E-01   6.513E-02   3.208E-03
1243 10.77029547   0.009  -0.64977   3.64481   7.23346   2.95025   0.00000   9.307E-01   6.614E-02   3.278E-03
1244 10.77057706   0.009  -0.64890   3.64488   7.23396   2.95204   0.00000   9.295E-01   6.673E-02   3.355E-03
1245 10.77085846   0.009  -0.64804   3.64495   7.23444   2.95386   0.00000   9.287E-01   6.768E-02   3.434E-03
1246 10.77113969   0.008  -0.64717   3.64502   7.23493   2.95570   0.00000   9.280E-01   6.891E-02   3.514E-03
1247 10.77142073   0.008  -0.64630   3.64510   7.23539   2.95757   0.00000   9.268E-01   6.960E-02   3.598E-03
1248 10.77170159   0.008  -0.64542   3.64517   7.23584   2.95946   0.00000   9.255E-01   7.049E-02   3.682E-03
1249 10.77198227   0.008  -0.64454   3.64524   7.23628   2.96137   0.00000   9.242E-01   7.183E-02   3.769E-03
1250 10.77226277   0.007  -0.64366   3.64531   7.23671   2.96332   0.00000   9.234E-01   7.260E-02   3.846E-03
1251 10.77254309   0.007  -0.64278   3.64538   7.23712   2.96530   0.00000   9.224E-01   7.360E-02   3.923E-03
1252 10.77282322   0.007  -0.64190   3.64545   7.23752   2.96730   0.00000   9.210E-01   7.501E-02   4.001E-03
1253 10.77310318   0.007  -0.64101   3.64552   7.23791   2.96933   0.00000   9.203E-01   7.574E-02   4.074E-03
1254 10.77338296   0.006  -0.64012   3.64560   7.23829   2.97139   0.00000   9.195E-01   7.649E-02   4.149E-03
1255 10.77366255   0.006  -0.63919   3.64568   7.23865   2.97348   0.00000   9.185E-01   7.724E-02   4.229E-03
1256 10.77394197   0.006  -0.63819   3.64579   7.23900   2.97558   0.00000   9.170E-01   7.803E-02   4.321E-03
1257 10.77422120   0.006  -0.63730   3.64586   7.23934   2.97771   0.00000   9.162E-01   7.961E-02   4.352E-03
1258 10.77450026   0.005  -0.63640   3.64594   7.23966   2.97987   0.00000   9.154E-01   8.061E-02   4.415E-03
1259 10.77477914   0.005  -0.63549   3.64600   7.23998   2.98207   0.00000   9.141E-01   8.143E-02   4.489E-03
1260 10.77505783   0.005  -0.63458   3.64607   7.24028   2.98430   0.00000   9.127E-01   8.226E-02   4.564E-03
1261 10.77533635   0.005  -0.63365   3.64614   7.24058   2.98654   0.00000   9.119E-01   8.311E-02   4.640E-03
1262 10.77561469   0.005  -0.63273   3.64622   7.24086   2.98882   0.00000   9.110E-01   8.397E-02   4.717E-03
1263 10.77589286   0.004  -0.63180   3.64629   7.24112   2.99111   0.00000   9.102E-01   8.485E-02   4.788E-03
1264 10.77617084   0.004  -0.63088   3.64635   7.24138   2.99344   0.00000   9.093E-01   8.574E-02   4.859E-03
1265 10.77644865   0.004  -0.62994   3.64642   7.24163   2.99579   0.00000   9.084E-01   8.664E-02   4.925E-03
1266 10.77672628   0.004  -0.62901   3.64649   7.24187   2.99817   0.00000   9.069E-01   8.811E-02   4.995E-03
1267 10.77700373   0.004  -0.62807   3.64656   7.24210   3.00058   0.00000   9.055E-01   8.949E-02   5.059E-03
1268 10.77728101   0.004  -0.62713   3.64663   7.24232   3.00301   0.00000   9.046E-01   9.043E-02   5.120E-03
1269 10.77755810   0.003  -0.62618   3.64671   7.24253   3.00546   0.00000   9.036E-01   9.139E-02   5.179E-03
1270 10.77783502   0.003  -0.62523   3.64678   7.24273   3.00794   0.00000   9.026E-01   9.236E-02   5.235E-03
1271 10.77811177   0.003  -0.62428   3.64684   7.24293   3.01045   0.00000   9.017E-01   9.300E-02   5.304E-03
1272 10.77838834   0.003  -0.62332   3.64691   7.24312   3.01297   0.00000   9.007E-01   9.335E-02   5.374E-03
1273 10.77866473   0.003  -0.62236   3.64698   7.24330   3.01551   0.00000   8.996E-01   9.436E-02   5.438E-03
1274 10.77894095   0.003  -0.62139   3.64705   7.24347   3.01807   0.00000   8.986E-01   9.538E-02   5.497E-03
1275 10.77921699   0.002  -0.62042   3.64712   7.24364   3.02067   0.00000   8.976E-01   9.642E-02   5.565E-03
1276 10.77949285   0.002  -0.61945   3.64718   7.24381   3.02328   0.00000   8.965E-01   9.747E-02   5.628E-03
1277 10.77976854   0.002  -0.61847   3.64725   7.24397   3.02591   0.00000   8.955E-01   9.854E-02   5.692E-03
1278 10.78004406   0.002  -0.61749   3.64732   7.24412   3.02858   0.00000   8.944E-01   9.962E-02   5.757E-03
1279 10.78031940   0.002  -0.61651   3.64739   7.24427   3.03125   0.00000   8.933E-01   1.007E-01   5.822E-03
1280 10.78059457   0.002  -0.61552   3.64746   7.24442   3.03393   0.00000   8.922E-01   1.018E-01   5.889E-03
1281 10.78086956   0.002  -0.61453   3.64753   7.24456   3.03664   0.00000   8.911E-01   1.029E-01   5.956E-03
1282 10.78114438   0.002  -0.61354   3.64759   7.24470   3.03937   0.00000   8.899E-01   1.041E-01   6.014E-03
1283 10.78141902   0.002  -0.61254   3.64766   7.24482   3.04211   0.00000   8.888E-01   1.050E-01   6.086E-03
1284 10.78169349   0.002  -0.61153   3.64772   7.24495   3.04488   0.00000   8.880E-01   1.054E-01   6.164E-03
1285 10.78196779   0.001  -0.61052   3.64779   7.24508   3.04766   0.00000   8.874E-01   1.066E-01   6.235E-03
1286 10.78224192   0.001  -0.60951   3.64786   7.24521   3.05048   0.00000   8.862E-01   1.078E-01   6.314E-03
1287 10.78251587   0.001  -0.60850   3.64793   7.24533   3.05331   0.00000   8.850E-01   1.090E-01   6.389E-03
1288 10.78278965   0.001  -0.60748   3.64799   7.24545   3.05617   0.00000   8.838E-01   1.100E-01   6.463E-03
1289 10.78306325   0.001  -0.60646   3.64806   7.24557   3.05904   0.00000   8.825E-01   1.105E-01   6.533E-03
1290 10.78333669   0.001  -0.60544   3.64813   7.24569   3.06193   0.00000   8.813E-01   1.117E-01   6.603E-03
1291 10.78360995   0.001  -0.60441   3.64819   7.24580   3.06486   0.00000   8.800E-01   1.130E-01   6.680E-03
1292 10.78430270   0.001  -0.60181   3.64836   7.24606   3.07237   0.00000   8.780E-01   1.160E-01   6.139E-03
1293 10.78499434   0.001  -0.59917   3.64853   7.24630   3.07999   0.00000   8.761E-01   1.179E-01   5.425E-03
1294 10.78568488   0.001  -0.59648   3.64870   7.24651   3.08773   0.00000   8.747E-01   1.213E-01   4.791E-03
1295 10.78637433   0.000  -0.59374   3.64889   7.24672   3.09562   0.00000   8.726E-01   1.234E-01   4.210E-03
1296 10.78706268   0.000  -0.59105   3.64904   7.24690   3.10367   0.00000   8.706E-01   1.262E-01   3.665E-03
1297 10.78774994   0.000  -0.58833   3.64918   7.24707   3.11190   0.00000   8.682E-01   1.286E-01   3.179E-03
1298 10.78843612   0.000  -0.58560   3.64932   7.24725   3.12024   0.00000   8.664E-01   1.314E-01   2.796E-03
1299 10.78912122   0.000  -0.58279   3.64947   7.24765   3.12873   0.00000   8.629E-01   1.341E-01   2.872E-03
1300 10.78980523   0.000  -0.57996   3.64963   7.24803   3.13733   0.00000   8.600E-01   1.370E-01   2.930E-03
1301 10.79048817   0.000  -0.57708   3.64978   7.24834   3.14598   0.00000   8.568E-01   1.402E-01   2.944E-03
1302 10.79117004   0.000  -0.57418   3.64992   7.24867   3.15480   0.00000   8.533E-01   1.437E-01   2.950E-03
1303 10.79185084   0.000  -0.57123   3.65008   7.24901   3.16381   0.00000   8.504E-01   1.466E-01   2.989E-03
1304 10.79253058   0.000  -0.56824   3.65023   7.24936   3.17299   0.00000   8.466E-01   1.504E-01   3.026E-03
1305 10.79320925   0.000  -0.56518   3.65037   7.24982   3.18276   0.00000   8.434E-01   1.536E-01   3.042E-03
1306 10.79388686   0.000  -0.56207   3.65054   7.25014   3.19257   0.00000   8.395E-01   1.575E-01   3.120E-03
1307 10.79456342   0.000  -0.55894   3.65067   7.25057   3.20283   0.00000   8.362E-01   1.608E-01   3.084E-03
1308 10.79523892   0.000  -0.55578   3.65080   7.25106   3.21357   0.00000   8.321E-01   1.649E-01   3.061E-03
1309 10.79591338   0.000  -0.55257   3.65092   7.25136   3.22429   0.00000   8.289E-01   1.681E-01   3.114E-03
1310 10.79658679   0.000  -0.54933   3.65103   7.25166   3.23525   0.00000   8.247E-01   1.715E-01   3.047E-03
1311 10.79725916   0.000  -0.54604   3.65114   7.25194   3.24642   0.00000   8.214E-01   1.756E-01   2.999E-03
1312 10.79793049   0.000  -0.54269   3.65125   7.25229   3.25757   0.00000   8.171E-01   1.799E-01   3.019E-03
1313 10.79860078   0.000  -0.53932   3.65136   7.25290   3.26907   0.00000   8.127E-01   1.843E-01   2.996E-03
1314 10.79927004   0.000  -0.53588   3.65145   7.25326   3.28089   0.00000   8.085E-01   1.885E-01   2.986E-03
1315 10.79993827   0.000  -0.53240   3.65154   7.25373   3.29286   0.00000   8.043E-01   1.927E-01   2.999E-03
1316 10.80060547   0.000  -0.52886   3.65162   7.25422   3.30514   0.00000   7.994E-01   1.976E-01   2.972E-03
1317 10.80127165   0.000  -0.52518   3.65172   7.25478   3.31762   0.00000   7.947E-01   2.023E-01   3.072E-03
1318 10.80193681   0.000  -0.52154   3.65179   7.25530   3.33054   0.00000   7.901E-01   2.069E-01   3.006E-03
1319 10.80260095   0.000  -0.51787   3.65183   7.25585   3.34375   0.00000   7.847E-01   2.123E-01   2.965E-03
1320 10.80326408   0.000  -0.51407   3.65188   7.25645   3.35717   0.00000   7.791E-01   2.179E-01   3.000E-03
1321 10.80392620   0.000  -0.51018   3.65194   7.25712   3.37079   0.00000   7.733E-01   2.237E-01   3.093E-03
1322 10.80458731   0.000  -0.50625   3.65198   7.25792   3.38472   0.00000   7.675E-01   2.290E-01   3.035E-03
1323 10.80524741   0.000  -0.50225   3.65200   7.25867   3.39917   0.00000   7.620E-01   2.350E-01   3.075E-03
1324 10.80590651   0.000  -0.49815   3.65203   7.25948   3.41409   0.00000   7.560E-01   2.405E-01   3.045E-03
1325 10.80656462   0.000  -0.49398   3.65203   7.26031   3.42942   0.00000   7.493E-01   2.477E-01   3.099E-03
1326 10.80722173   0.000  -0.48974   3.65200   7.26118   3.44535   0.00000   7.430E-01   2.540E-01   3.034E-03
1327 10.80787784   0.000  -0.48532   3.65199   7.26210   3.46180   0.00000   7.365E-01   2.605E-01   3.148E-03
1328 10.80853297   0.000  -0.48081   3.65195   7.26304   3.47868   0.00000   7.298E-01   2.672E-01   3.052E-03
1329 10.80918710   0.000  -0.47615   3.65190   7.26403   3.49617   0.00000   7.219E-01   2.751E-01   3.066E-03
1330 10.80984026   0.000  -0.47153   3.65181   7.26506   3.51430   0.00000   7.149E-01   2.821E-01   2.849E-03
1331 10.81049243   0.000  -0.46662   3.65172   7.26621   3.53279   0.00000   7.058E-01   2.912E-01   3.158E-03
1332 10.81114363   0.000  -0.46159   3.65161   7.26736   3.55191   0.00000   6.967E-01   3.003E-01   3.114E-03
1333 10.81179385   0.000  -0.45640   3.65148   7.26863   3.57167   0.00000   6.875E-01   3.095E-01   3.200E-03
1334 10.81244310   0.000  -0.45134   3.65128   7.26992   3.59225   0.00000   6.775E-01   3.195E-01   2.908E-03
1335 10.81309138   0.000  -0.44584   3.65108   7.27134   3.61361   0.00000   6.664E-01   3.303E-01   3.133E-03
1336 10.81373869   0.000  -0.44007   3.65087   7.27284   3.63559   0.00000   6.543E-01   3.427E-01   3.253E-03
1337 10.81438504   0.000  -0.43428   3.65064   7.27444   3.65864   0.00000   6.425E-01   3.545E-01   3.243E-03
1338 10.81503043   0.000  -0.42760   3.65024   7.27717   3.68634   0.00000   6.337E-01   3.632E-01   3.170E-03
1339 10.81567487   0.000  -0.41888   3.64968   7.27953   3.72523   0.00000   6.211E-01   3.746E-01   4.205E-03
1340 10.81631834   0.000  -0.41042   3.64896   7.28092   3.76457   0.00000   6.082E-01   3.874E-01   4.164E-03
1341 10.81696087   0.967  -0.40126   3.64833   7.28247   3.80278   0.00000   5.940E-01   4.020E-01   4.210E-03
