 # M = 0.25 Mo, Y = 0.2700, Z = 2.00000E-02, alpha = 1.68, X_D = 2.0E-05
 # Solar Mixture: Asplund et al. (2005)         
 # ------------------------------------------------------------------------------------------------------------
 # NMD   LOG AGE    Xc      LOG L     LOG TE    LOG Tc   LOG RHOc    M-CC       L-PP       L-CNO       L-GRA
 #        (yr)              (Lo)        (K)       (K)   (gr/cm^3)    (Mo)        (L)         (L)         (L)
 # ------------------------------------------------------------------------------------------------------------
   1  5.23072206   0.710  -0.38644   3.51377   6.00691  -0.53387   0.00000   9.730E-01   0.000E+00   2.660E-02
   2  5.44222730   0.710  -0.39483   3.51377   6.01089  -0.52191   0.00000   9.069E-01   0.000E+00   9.282E-02
   3  5.58384586   0.710  -0.40422   3.51377   6.01535  -0.50847   0.00000   8.942E-01   0.000E+00   1.058E-01
   4  5.69046468   0.710  -0.41278   3.51378   6.01943  -0.49618   0.00000   8.976E-01   0.000E+00   1.024E-01
   5  5.77599995   0.710  -0.42104   3.51378   6.02337  -0.48435   0.00000   9.011E-01   0.000E+00   9.896E-02
   6  5.84742907   0.710  -0.42861   3.51379   6.02697  -0.47352   0.00000   9.045E-01   0.000E+00   9.562E-02
   7  5.90875267   0.710  -0.43618   3.51379   6.03056  -0.46269   0.00000   9.079E-01   0.000E+00   9.228E-02
   8  5.96247892   0.710  -0.44345   3.51379   6.03403  -0.45226   0.00000   9.073E-01   0.000E+00   9.290E-02
   9  6.01028446   0.710  -0.45071   3.51380   6.03749  -0.44184   0.00000   9.065E-01   0.000E+00   9.362E-02
  10  6.05334568   0.710  -0.45805   3.51380   6.04100  -0.43130   0.00000   9.048E-01   0.000E+00   9.530E-02
  11  6.09251980   0.710  -0.46556   3.51381   6.04458  -0.42051   0.00000   9.012E-01   0.000E+00   9.889E-02
  12  6.12845086   0.710  -0.47307   3.51382   6.04816  -0.40972   0.00000   8.975E-01   0.000E+00   1.025E-01
  13  6.16163501   0.710  -0.48099   3.51382   6.05194  -0.39833   0.00000   8.921E-01   0.000E+00   1.079E-01
  14  6.19246257   0.710  -0.48920   3.51383   6.05587  -0.38649   0.00000   8.853E-01   0.000E+00   1.147E-01
  15  6.22124619   0.710  -0.49742   3.51384   6.05980  -0.37465   0.00000   8.786E-01   0.000E+00   1.214E-01
  16  6.24824012   0.710  -0.50672   3.51385   6.06424  -0.36125   0.00000   8.675E-01   0.000E+00   1.325E-01
  17  6.27365396   0.710  -0.51612   3.51386   6.06873  -0.34771   0.00000   8.560E-01   0.000E+00   1.440E-01
  18  6.29766250   0.710  -0.52631   3.51386   6.07361  -0.33301   0.00000   8.409E-01   0.000E+00   1.591E-01
  19  6.32041304   0.710  -0.53735   3.51387   6.07890  -0.31707   0.00000   8.221E-01   0.000E+00   1.779E-01
  20  6.34203089   0.710  -0.54913   3.51389   6.08455  -0.30005   0.00000   7.993E-01   0.000E+00   2.007E-01
  21  6.36262349   0.710  -0.56224   3.51390   6.09084  -0.28106   0.00000   7.689E-01   0.000E+00   2.311E-01
  22  6.38228372   0.710  -0.57669   3.51392   6.09778  -0.26015   0.00000   7.297E-01   0.000E+00   2.703E-01
  23  6.40109236   0.710  -0.59231   3.51394   6.10528  -0.23755   0.00000   6.828E-01   0.000E+00   3.172E-01
  24  6.41912012   0.710  -0.61044   3.51396   6.11400  -0.21125   0.00000   6.174E-01   0.000E+00   3.826E-01
  25  6.43642927   0.710  -0.63042   3.51399   6.12360  -0.18231   0.00000   5.375E-01   0.000E+00   4.625E-01
  26  6.45307491   0.710  -0.65241   3.51401   6.13416  -0.15042   0.00000   4.435E-01   0.000E+00   5.565E-01
  27  6.46910604   0.710  -0.67623   3.51404   6.14563  -0.11580   0.00000   3.399E-01   0.000E+00   6.601E-01
  28  6.48456642   0.710  -0.70133   3.51407   6.15775  -0.07924   0.00000   2.387E-01   0.000E+00   7.613E-01
  29  6.49949529   0.710  -0.72692   3.51411   6.17010  -0.04197   0.00000   1.543E-01   0.000E+00   8.457E-01
  30  6.51392799   0.710  -0.75204   3.51414   6.18228  -0.00523   0.00000   9.308E-02   0.000E+00   9.069E-01
  31  6.52789644   0.710  -0.77621   3.51419   6.19401   0.03021   0.00000   5.209E-02   0.000E+00   9.479E-01
  32  6.54142958   0.710  -0.79885   3.51424   6.20502   0.06345   0.00000   3.932E-02   0.000E+00   9.607E-01
  33  6.55455373   0.710  -0.81986   3.51430   6.21523   0.09433   0.00000   3.262E-02   0.000E+00   9.674E-01
  34  6.56729288   0.710  -0.83958   3.51435   6.22480   0.12327   0.00000   2.646E-02   0.000E+00   9.735E-01
  35  6.57966897   0.710  -0.85810   3.51441   6.23382   0.15057   0.00000   2.153E-02   0.000E+00   9.785E-01
  36  6.59170213   0.710  -0.87559   3.51447   6.24235   0.17639   0.00000   1.690E-02   0.000E+00   9.831E-01
  37  6.60341086   0.710  -0.89206   3.51454   6.25039   0.20077   0.00000   1.340E-02   0.000E+00   9.866E-01
  38  6.61481218   0.710  -0.90764   3.51461   6.25802   0.22387   0.00000   1.008E-02   0.000E+00   9.899E-01
  39  6.62592183   0.710  -0.92246   3.51467   6.26527   0.24588   0.00000   7.442E-03   0.000E+00   9.926E-01
  40  6.63675436   0.710  -0.93663   3.51473   6.27221   0.26694   0.00000   5.451E-03   0.000E+00   9.945E-01
  41  6.64732325   0.710  -0.95024   3.51480   6.27889   0.28719   0.00000   4.000E-03   0.000E+00   9.960E-01
  42  6.66440405   0.710  -0.97135   3.51491   6.28927   0.31866   0.00000   2.873E-03   0.000E+00   9.971E-01
  43  6.68083842   0.710  -0.99106   3.51502   6.29896   0.34807   0.00000   1.822E-03   0.000E+00   9.982E-01
  44  6.69667348   0.710  -1.00951   3.51513   6.30806   0.37568   0.00000   1.000E-03   0.000E+00   9.990E-01
  45  6.71195143   0.710  -1.02687   3.51524   6.31662   0.40169   0.00000   9.092E-04   0.000E+00   9.991E-01
  46  6.72671014   0.710  -1.04322   3.51535   6.32469   0.42624   0.00000   3.549E-05   0.000E+00   1.000E+00
  47  6.74098374   0.710  -1.05855   3.51545   6.33228   0.44931   0.00000   0.000E+00   0.000E+00   1.000E+00
  48  6.75480311   0.710  -1.07312   3.51556   6.33950   0.47126   0.00000   0.000E+00   0.000E+00   1.000E+00
  49  6.76819627   0.710  -1.08704   3.51566   6.34640   0.49225   0.00000   0.000E+00   0.000E+00   1.000E+00
  50  6.78118872   0.710  -1.10041   3.51576   6.35303   0.51243   0.00000   0.000E+00   0.000E+00   1.000E+00
  51  6.79380376   0.710  -1.11293   3.51586   6.35926   0.53138   0.00000   0.000E+00   0.000E+00   1.000E+00
  52  6.80606268   0.710  -1.12502   3.51596   6.36527   0.54970   0.00000   0.000E+00   0.000E+00   1.000E+00
  53  6.81798505   0.710  -1.13673   3.51606   6.37110   0.56747   0.00000   0.000E+00   0.000E+00   1.000E+00
  54  6.82958885   0.710  -1.14774   3.51616   6.37659   0.58420   0.00000   0.000E+00   0.000E+00   1.000E+00
  55  6.84089065   0.710  -1.15854   3.51626   6.38197   0.60061   0.00000   0.000E+00   0.000E+00   1.000E+00
  56  6.85190580   0.710  -1.16880   3.51635   6.38710   0.61621   0.00000   0.000E+00   0.000E+00   1.000E+00
  57  6.86264845   0.710  -1.17879   3.51645   6.39208   0.63142   0.00000   0.000E+00   0.000E+00   1.000E+00
  58  6.87313179   0.710  -1.18838   3.51653   6.39687   0.64604   0.00000   0.000E+00   0.000E+00   1.000E+00
  59  6.88336801   0.710  -1.19770   3.51662   6.40153   0.66024   0.00000   0.000E+00   0.000E+00   1.000E+00
  60  6.89336852   0.710  -1.20669   3.51671   6.40602   0.67394   0.00000   0.000E+00   0.000E+00   1.000E+00
  61  6.90314392   0.710  -1.21546   3.51679   6.41040   0.68732   0.00000   0.000E+00   0.000E+00   1.000E+00
  62  6.91270413   0.710  -1.22387   3.51687   6.41460   0.70016   0.00000   0.000E+00   0.000E+00   1.000E+00
  63  6.92205841   0.710  -1.23220   3.51695   6.41876   0.71287   0.00000   0.000E+00   0.000E+00   1.000E+00
  64  6.93121544   0.710  -1.24008   3.51702   6.42270   0.72490   0.00000   0.000E+00   0.000E+00   1.000E+00
  65  6.94018339   0.710  -1.24797   3.51709   6.42664   0.73693   0.00000   0.000E+00   0.000E+00   1.000E+00
  66  6.94896989   0.710  -1.25547   3.51716   6.43038   0.74838   0.00000   0.000E+00   0.000E+00   1.000E+00
  67  6.95758214   0.710  -1.26285   3.51724   6.43407   0.75965   0.00000   0.000E+00   0.000E+00   1.000E+00
  68  6.96602693   0.710  -1.27012   3.51730   6.43770   0.77075   0.00000   0.000E+00   0.000E+00   1.000E+00
  69  6.97431063   0.710  -1.27704   3.51737   6.44115   0.78131   0.00000   0.000E+00   0.000E+00   1.000E+00
  70  6.98243928   0.710  -1.28396   3.51743   6.44460   0.79187   0.00000   0.000E+00   0.000E+00   1.000E+00
  71  6.99041859   0.710  -1.29066   3.51749   6.44793   0.80208   0.00000   0.000E+00   0.000E+00   1.000E+00
  72  6.99825393   0.710  -1.29715   3.51755   6.45116   0.81197   0.00000   0.000E+00   0.000E+00   1.000E+00
  73  7.00595041   0.710  -1.30364   3.51761   6.45440   0.82186   0.00000   0.000E+00   0.000E+00   1.000E+00
  74  7.01351286   0.710  -1.30987   3.51766   6.45750   0.83135   0.00000   0.000E+00   0.000E+00   1.000E+00
  75  7.02094588   0.710  -1.31596   3.51771   6.46052   0.84061   0.00000   0.000E+00   0.000E+00   1.000E+00
  76  7.02825382   0.710  -1.32204   3.51776   6.46354   0.84988   0.00000   0.000E+00   0.000E+00   1.000E+00
  77  7.03544082   0.710  -1.32791   3.51781   6.46646   0.85882   0.00000   0.000E+00   0.000E+00   1.000E+00
  78  7.04251082   0.710  -1.33362   3.51785   6.46929   0.86750   0.00000   0.000E+00   0.000E+00   1.000E+00
  79  7.04946757   0.710  -1.33932   3.51790   6.47212   0.87618   0.00000   0.000E+00   0.000E+00   1.000E+00
  80  7.05631463   0.710  -1.34493   3.51794   6.47490   0.88472   0.00000   0.000E+00   0.000E+00   1.000E+00
  81  7.06305542   0.710  -1.35028   3.51798   6.47755   0.89284   0.00000   0.000E+00   0.000E+00   1.000E+00
  82  7.06969318   0.710  -1.35564   3.51803   6.48019   0.90096   0.00000   0.000E+00   0.000E+00   1.000E+00
  83  7.07623101   0.710  -1.36099   3.51807   6.48284   0.90909   0.00000   0.000E+00   0.000E+00   1.000E+00
  84  7.08267188   0.710  -1.36608   3.51811   6.48536   0.91682   0.00000   0.000E+00   0.000E+00   1.000E+00
  85  7.08901862   0.710  -1.37109   3.51814   6.48784   0.92442   0.00000   0.000E+00   0.000E+00   1.000E+00
  86  7.09527395   0.710  -1.37611   3.51818   6.49031   0.93202   0.00000   0.000E+00   0.000E+00   1.000E+00
  87  7.10144045   0.710  -1.38111   3.51821   6.49279   0.93961   0.00000   0.000E+00   0.000E+00   1.000E+00
  88  7.10752062   0.710  -1.38582   3.51824   6.49510   0.94673   0.00000   0.000E+00   0.000E+00   1.000E+00
  89  7.11351685   0.710  -1.39052   3.51828   6.49742   0.95385   0.00000   0.000E+00   0.000E+00   1.000E+00
  90  7.11943141   0.710  -1.39522   3.51831   6.49974   0.96097   0.00000   0.000E+00   0.000E+00   1.000E+00
  91  7.12526650   0.710  -1.39992   3.51834   6.50205   0.96807   0.00000   0.000E+00   0.000E+00   1.000E+00
  92  7.13102423   0.710  -1.40432   3.51837   6.50421   0.97473   0.00000   0.000E+00   0.000E+00   1.000E+00
  93  7.13670663   0.710  -1.40873   3.51839   6.50638   0.98139   0.00000   0.000E+00   0.000E+00   1.000E+00
  94  7.14231563   0.710  -1.41314   3.51842   6.50854   0.98805   0.00000   0.000E+00   0.000E+00   1.000E+00
  95  7.14785312   0.710  -1.41754   3.51844   6.51071   0.99471   0.00000   0.000E+00   0.000E+00   1.000E+00
  96  7.15332088   0.710  -1.42174   3.51847   6.51277   1.00105   0.00000   0.000E+00   0.000E+00   1.000E+00
  97  7.15872067   0.710  -1.42587   3.51849   6.51479   1.00729   0.00000   0.000E+00   0.000E+00   1.000E+00
  98  7.16405414   0.710  -1.43000   3.51852   6.51682   1.01353   0.00000   0.000E+00   0.000E+00   1.000E+00
  99  7.16932290   0.710  -1.43414   3.51854   6.51885   1.01978   0.00000   0.000E+00   0.000E+00   1.000E+00
 100  7.17452851   0.710  -1.43821   3.51857   6.52084   1.02592   0.00000   0.000E+00   0.000E+00   1.000E+00
 101  7.17967247   0.710  -1.44208   3.51859   6.52274   1.03177   0.00000   0.000E+00   0.000E+00   1.000E+00
 102  7.18475620   0.710  -1.44596   3.51861   6.52464   1.03762   0.00000   0.000E+00   0.000E+00   1.000E+00
 103  7.18978112   0.710  -1.44984   3.51863   6.52654   1.04347   0.00000   0.000E+00   0.000E+00   1.000E+00
 104  7.19474856   0.710  -1.45371   3.51865   6.52844   1.04932   0.00000   0.000E+00   0.000E+00   1.000E+00
 105  7.19965983   0.710  -1.45749   3.51867   6.53028   1.05502   0.00000   0.000E+00   0.000E+00   1.000E+00
 106  7.20451617   0.710  -1.46113   3.51868   6.53206   1.06050   0.00000   0.000E+00   0.000E+00   1.000E+00
 107  7.20931882   0.710  -1.46477   3.51870   6.53383   1.06598   0.00000   0.000E+00   0.000E+00   1.000E+00
 108  7.21406893   0.710  -1.46841   3.51872   6.53561   1.07147   0.00000   0.000E+00   0.000E+00   1.000E+00
 109  7.21876765   0.710  -1.47205   3.51874   6.53738   1.07695   0.00000   0.000E+00   0.000E+00   1.000E+00
 110  7.22341608   0.710  -1.47563   3.51875   6.53913   1.08234   0.00000   0.000E+00   0.000E+00   1.000E+00
 111  7.22801528   0.710  -1.47905   3.51877   6.54079   1.08748   0.00000   0.000E+00   0.000E+00   1.000E+00
 112  7.23256628   0.710  -1.48246   3.51878   6.54245   1.09261   0.00000   0.000E+00   0.000E+00   1.000E+00
 113  7.23707009   0.710  -1.48588   3.51879   6.54412   1.09775   0.00000   0.000E+00   0.000E+00   1.000E+00
 114  7.24152767   0.710  -1.48929   3.51880   6.54578   1.10288   0.00000   0.000E+00   0.000E+00   1.000E+00
 115  7.24593996   0.710  -1.49271   3.51882   6.54744   1.10802   0.00000   0.000E+00   0.000E+00   1.000E+00
 116  7.25030788   0.710  -1.49597   3.51883   6.54902   1.11290   0.00000   0.000E+00   0.000E+00   1.000E+00
 117  7.25463230   0.710  -1.49917   3.51884   6.55058   1.11771   0.00000   0.000E+00   0.000E+00   1.000E+00
 118  7.25891408   0.710  -1.50237   3.51886   6.55214   1.12251   0.00000   0.000E+00   0.000E+00   1.000E+00
 119  7.26315407   0.710  -1.50557   3.51887   6.55369   1.12731   0.00000   0.000E+00   0.000E+00   1.000E+00
 120  7.26735306   0.710  -1.50877   3.51888   6.55525   1.13212   0.00000   0.000E+00   0.000E+00   1.000E+00
 121  7.27151184   0.710  -1.51197   3.51890   6.55681   1.13692   0.00000   0.000E+00   0.000E+00   1.000E+00
 122  7.27563117   0.710  -1.51500   3.51891   6.55827   1.14145   0.00000   0.000E+00   0.000E+00   1.000E+00
 123  7.27971179   0.710  -1.51801   3.51892   6.55973   1.14596   0.00000   0.000E+00   0.000E+00   1.000E+00
 124  7.28375444   0.710  -1.52102   3.51893   6.56119   1.15046   0.00000   0.000E+00   0.000E+00   1.000E+00
 125  7.28775979   0.710  -1.52402   3.51894   6.56264   1.15496   0.00000   0.000E+00   0.000E+00   1.000E+00
 126  7.29172855   0.710  -1.52703   3.51895   6.56410   1.15946   0.00000   0.000E+00   0.000E+00   1.000E+00
 127  7.29566136   0.710  -1.53004   3.51896   6.56556   1.16397   0.00000   0.000E+00   0.000E+00   1.000E+00
 128  7.29955888   0.710  -1.53293   3.51896   6.56695   1.16829   0.00000   9.744E-05   0.000E+00   9.999E-01
 129  7.30342174   0.710  -1.53575   3.51897   6.56832   1.17251   0.00000   2.478E-04   0.000E+00   9.998E-01
 130  7.30725054   0.710  -1.53857   3.51898   6.56968   1.17673   0.00000   3.981E-04   0.000E+00   9.996E-01
 131  7.31104587   0.710  -1.54139   3.51899   6.57104   1.18095   0.00000   5.485E-04   0.000E+00   9.995E-01
 132  7.31480833   0.710  -1.54422   3.51899   6.57241   1.18517   0.00000   6.988E-04   0.000E+00   9.993E-01
 133  7.31853847   0.710  -1.54704   3.51900   6.57377   1.18939   0.00000   8.492E-04   0.000E+00   9.992E-01
 134  7.32223685   0.710  -1.54986   3.51901   6.57514   1.19361   0.00000   9.995E-04   0.000E+00   9.990E-01
 135  7.32590399   0.710  -1.55251   3.51902   6.57641   1.19756   0.00000   1.000E-03   0.000E+00   9.990E-01
 136  7.32954043   0.710  -1.55516   3.51902   6.57769   1.20152   0.00000   1.000E-03   0.000E+00   9.990E-01
 137  7.33314668   0.710  -1.55781   3.51903   6.57896   1.20547   0.00000   1.000E-03   0.000E+00   9.990E-01
 138  7.33672322   0.710  -1.56046   3.51903   6.58024   1.20943   0.00000   1.000E-03   0.000E+00   9.990E-01
 139  7.34027055   0.710  -1.56311   3.51904   6.58151   1.21338   0.00000   1.000E-03   0.000E+00   9.990E-01
 140  7.34378915   0.710  -1.56576   3.51904   6.58279   1.21734   0.00000   1.000E-03   0.000E+00   9.990E-01
 141  7.34727946   0.710  -1.56841   3.51905   6.58407   1.22129   0.00000   1.000E-03   0.000E+00   9.990E-01
 142  7.35074195   0.710  -1.57092   3.51905   6.58527   1.22503   0.00000   1.000E-03   0.000E+00   9.990E-01
 143  7.35417705   0.710  -1.57341   3.51906   6.58646   1.22874   0.00000   1.000E-03   0.000E+00   9.990E-01
 144  7.35758519   0.710  -1.57590   3.51906   6.58766   1.23245   0.00000   1.000E-03   0.000E+00   9.990E-01
 145  7.36096679   0.710  -1.57839   3.51907   6.58885   1.23616   0.00000   1.000E-03   0.000E+00   9.990E-01
 146  7.36432227   0.710  -1.58087   3.51907   6.59005   1.23987   0.00000   1.000E-03   0.000E+00   9.990E-01
 147  7.36765202   0.710  -1.58336   3.51907   6.59124   1.24359   0.00000   1.000E-03   0.000E+00   9.990E-01
 148  7.37095644   0.710  -1.58585   3.51908   6.59244   1.24730   0.00000   1.000E-03   0.000E+00   9.990E-01
 149  7.37423590   0.710  -1.58829   3.51908   6.59361   1.25092   0.00000   1.000E-03   0.000E+00   9.990E-01
 150  7.37749079   0.710  -1.59063   3.51908   6.59473   1.25441   0.00000   1.000E-03   0.000E+00   9.990E-01
 151  7.38072146   0.710  -1.59296   3.51908   6.59584   1.25789   0.00000   1.000E-03   0.000E+00   9.990E-01
 152  7.38392827   0.710  -1.59530   3.51908   6.59696   1.26137   0.00000   1.000E-03   0.000E+00   9.990E-01
 153  7.38711159   0.710  -1.59763   3.51909   6.59808   1.26485   0.00000   1.000E-03   0.000E+00   9.990E-01
 154  7.39027173   0.710  -1.59997   3.51909   6.59920   1.26833   0.00000   1.000E-03   0.000E+00   9.990E-01
 155  7.39340905   0.710  -1.60231   3.51909   6.60032   1.27181   0.00000   1.000E-03   0.000E+00   9.990E-01
 156  7.39652387   0.710  -1.60464   3.51909   6.60144   1.27530   0.00000   1.000E-03   0.000E+00   9.990E-01
 157  7.39961651   0.710  -1.60693   3.51909   6.60254   1.27870   0.00000   1.039E-03   0.000E+00   9.990E-01
 158  7.40268727   0.710  -1.60913   3.51909   6.60358   1.28195   0.00000   1.155E-03   0.000E+00   9.988E-01
 159  7.40573648   0.710  -1.61133   3.51909   6.60463   1.28520   0.00000   1.272E-03   0.000E+00   9.987E-01
 160  7.40876443   0.710  -1.61352   3.51909   6.60568   1.28846   0.00000   1.389E-03   0.000E+00   9.986E-01
 161  7.41177142   0.710  -1.61572   3.51910   6.60672   1.29171   0.00000   1.506E-03   0.000E+00   9.985E-01
 162  7.41475772   0.710  -1.61791   3.51910   6.60777   1.29496   0.00000   1.623E-03   0.000E+00   9.984E-01
 163  7.41772364   0.710  -1.62011   3.51910   6.60882   1.29821   0.00000   1.740E-03   0.000E+00   9.983E-01
 164  7.42066943   0.710  -1.62231   3.51910   6.60987   1.30146   0.00000   1.857E-03   0.000E+00   9.981E-01
 165  7.42359538   0.710  -1.62450   3.51910   6.61091   1.30471   0.00000   1.974E-03   0.000E+00   9.980E-01
 166  7.42650175   0.710  -1.62660   3.51910   6.61191   1.30781   0.00000   2.000E-03   0.000E+00   9.980E-01
 167  7.42938880   0.710  -1.62866   3.51910   6.61289   1.31085   0.00000   2.000E-03   0.000E+00   9.980E-01
 168  7.43225678   0.710  -1.63072   3.51910   6.61387   1.31390   0.00000   2.000E-03   0.000E+00   9.980E-01
 169  7.43510595   0.710  -1.63278   3.51910   6.61485   1.31695   0.00000   2.000E-03   0.000E+00   9.980E-01
 170  7.43793654   0.710  -1.63485   3.51909   6.61583   1.31999   0.00000   2.000E-03   0.000E+00   9.980E-01
 171  7.44074881   0.710  -1.63691   3.51909   6.61681   1.32304   0.00000   2.000E-03   0.000E+00   9.980E-01
 172  7.44354298   0.710  -1.63897   3.51909   6.61779   1.32608   0.00000   2.000E-03   0.000E+00   9.980E-01
 173  7.44631929   0.710  -1.64103   3.51909   6.61877   1.32913   0.00000   2.000E-03   0.000E+00   9.980E-01
 174  7.44907797   0.710  -1.64310   3.51909   6.61975   1.33218   0.00000   2.000E-03   0.000E+00   9.980E-01
 175  7.45181923   0.710  -1.64508   3.51909   6.62069   1.33510   0.00000   2.068E-03   0.000E+00   9.979E-01
 176  7.45454330   0.710  -1.64701   3.51909   6.62161   1.33796   0.00000   2.172E-03   0.000E+00   9.978E-01
 177  7.45725039   0.710  -1.64895   3.51908   6.62252   1.34081   0.00000   2.275E-03   0.000E+00   9.977E-01
 178  7.45994071   0.710  -1.65088   3.51908   6.62344   1.34367   0.00000   2.378E-03   0.000E+00   9.976E-01
 179  7.46261446   0.710  -1.65282   3.51908   6.62436   1.34653   0.00000   2.481E-03   0.000E+00   9.975E-01
 180  7.46527186   0.710  -1.65475   3.51908   6.62527   1.34938   0.00000   2.584E-03   0.000E+00   9.974E-01
 181  7.46791309   0.710  -1.65669   3.51908   6.62619   1.35224   0.00000   2.687E-03   0.000E+00   9.973E-01
 182  7.47053836   0.710  -1.65862   3.51907   6.62711   1.35510   0.00000   2.790E-03   0.000E+00   9.972E-01
 183  7.47314785   0.710  -1.66056   3.51907   6.62802   1.35796   0.00000   2.893E-03   0.000E+00   9.971E-01
 184  7.47574176   0.710  -1.66249   3.51907   6.62894   1.36081   0.00000   2.997E-03   0.000E+00   9.970E-01
 185  7.47832027   0.710  -1.66431   3.51907   6.62980   1.36350   0.00000   3.000E-03   0.000E+00   9.970E-01
 186  7.48088355   0.710  -1.66613   3.51907   6.63066   1.36618   0.00000   3.000E-03   0.000E+00   9.970E-01
 187  7.48343180   0.710  -1.66795   3.51906   6.63151   1.36886   0.00000   3.000E-03   0.000E+00   9.970E-01
 188  7.48596518   0.710  -1.66976   3.51906   6.63237   1.37154   0.00000   3.000E-03   0.000E+00   9.970E-01
 189  7.48848388   0.710  -1.67158   3.51906   6.63323   1.37422   0.00000   3.000E-03   0.000E+00   9.970E-01
 190  7.49098804   0.710  -1.67339   3.51906   6.63409   1.37690   0.00000   3.000E-03   0.000E+00   9.970E-01
 191  7.49347785   0.710  -1.67521   3.51906   6.63494   1.37958   0.00000   3.000E-03   0.000E+00   9.970E-01
 192  7.49595347   0.710  -1.67703   3.51905   6.63580   1.38226   0.00000   3.000E-03   0.000E+00   9.970E-01
 193  7.49841506   0.710  -1.67884   3.51905   6.63666   1.38494   0.00000   3.000E-03   0.000E+00   9.970E-01
 194  7.50086277   0.710  -1.68066   3.51905   6.63752   1.38761   0.00000   3.000E-03   0.000E+00   9.970E-01
 195  7.50329677   0.710  -1.68240   3.51905   6.63834   1.39019   0.00000   3.058E-03   0.000E+00   9.969E-01
 196  7.50571720   0.710  -1.68411   3.51905   6.63914   1.39270   0.00000   3.149E-03   0.000E+00   9.969E-01
 197  7.50812421   0.710  -1.68581   3.51904   6.63995   1.39521   0.00000   3.239E-03   0.000E+00   9.968E-01
 198  7.51051796   0.710  -1.68751   3.51904   6.64075   1.39772   0.00000   3.330E-03   0.000E+00   9.967E-01
 199  7.51289858   0.710  -1.68921   3.51904   6.64155   1.40023   0.00000   3.421E-03   0.000E+00   9.966E-01
 200  7.51526623   0.710  -1.69092   3.51903   6.64236   1.40275   0.00000   3.512E-03   0.000E+00   9.965E-01
 201  7.51762104   0.710  -1.69262   3.51903   6.64316   1.40526   0.00000   3.602E-03   0.000E+00   9.964E-01
 202  7.51996315   0.710  -1.69432   3.51903   6.64396   1.40777   0.00000   3.693E-03   0.000E+00   9.963E-01
 203  7.52229270   0.710  -1.69603   3.51903   6.64477   1.41028   0.00000   3.784E-03   0.000E+00   9.962E-01
 204  7.52460982   0.710  -1.69773   3.51902   6.64557   1.41279   0.00000   3.875E-03   0.000E+00   9.961E-01
 205  7.52691464   0.710  -1.69943   3.51902   6.64637   1.41530   0.00000   3.965E-03   0.000E+00   9.960E-01
 206  7.52920729   0.710  -1.70107   3.51902   6.64715   1.41772   0.00000   4.053E-03   0.000E+00   9.959E-01
 207  7.53148791   0.710  -1.70266   3.51902   6.64790   1.42007   0.00000   4.138E-03   0.000E+00   9.959E-01
 208  7.53375661   0.710  -1.70426   3.51901   6.64865   1.42242   0.00000   4.223E-03   0.000E+00   9.958E-01
 209  7.53601352   0.710  -1.70585   3.51901   6.64940   1.42477   0.00000   4.308E-03   0.000E+00   9.957E-01
 210  7.53825876   0.710  -1.70745   3.51901   6.65015   1.42713   0.00000   4.393E-03   0.000E+00   9.956E-01
 211  7.54049246   0.710  -1.70904   3.51901   6.65090   1.42948   0.00000   4.479E-03   0.000E+00   9.955E-01
 212  7.54271472   0.710  -1.71064   3.51900   6.65165   1.43183   0.00000   4.564E-03   0.000E+00   9.954E-01
 213  7.54492567   0.710  -1.71223   3.51900   6.65240   1.43418   0.00000   4.649E-03   0.000E+00   9.954E-01
 214  7.54712543   0.710  -1.71383   3.51900   6.65315   1.43653   0.00000   4.734E-03   0.000E+00   9.953E-01
 215  7.54931409   0.710  -1.71542   3.51900   6.65391   1.43889   0.00000   4.819E-03   0.000E+00   9.952E-01
 216  7.55149179   0.710  -1.71702   3.51899   6.65466   1.44124   0.00000   4.904E-03   0.000E+00   9.951E-01
 217  7.55365861   0.710  -1.71861   3.51899   6.65541   1.44359   0.00000   4.990E-03   0.000E+00   9.950E-01
 218  7.55581468   0.710  -1.72012   3.51899   6.65612   1.44581   0.00000   5.140E-03   0.000E+00   9.949E-01
 219  7.55796010   0.710  -1.72161   3.51899   6.65682   1.44801   0.00000   5.299E-03   0.000E+00   9.947E-01
 220  7.56009497   0.710  -1.72311   3.51898   6.65752   1.45020   0.00000   5.459E-03   0.000E+00   9.945E-01
 221  7.56221940   0.710  -1.72460   3.51898   6.65822   1.45240   0.00000   5.618E-03   0.000E+00   9.944E-01
 222  7.56433349   0.710  -1.72609   3.51898   6.65893   1.45460   0.00000   5.778E-03   0.000E+00   9.942E-01
 223  7.56643734   0.710  -1.72758   3.51898   6.65963   1.45680   0.00000   5.937E-03   0.000E+00   9.941E-01
 224  7.56853104   0.710  -1.72908   3.51897   6.66033   1.45899   0.00000   6.097E-03   0.000E+00   9.939E-01
 225  7.57061470   0.710  -1.73057   3.51897   6.66103   1.46119   0.00000   6.256E-03   0.000E+00   9.937E-01
 226  7.57268841   0.710  -1.73206   3.51897   6.66174   1.46339   0.00000   6.416E-03   0.000E+00   9.936E-01
 227  7.57475227   0.710  -1.73355   3.51897   6.66244   1.46559   0.00000   6.575E-03   0.000E+00   9.934E-01
 228  7.57680636   0.710  -1.73505   3.51896   6.66314   1.46779   0.00000   6.735E-03   0.000E+00   9.933E-01
 229  7.57885079   0.710  -1.73654   3.51896   6.66384   1.46998   0.00000   6.894E-03   0.000E+00   9.931E-01
 230  7.58088563   0.710  -1.73800   3.51896   6.66453   1.47213   0.00000   7.050E-03   0.000E+00   9.929E-01
 231  7.58291099   0.710  -1.73940   3.51896   6.66519   1.47419   0.00000   7.200E-03   0.000E+00   9.928E-01
 232  7.58492694   0.710  -1.74079   3.51895   6.66584   1.47625   0.00000   7.349E-03   0.000E+00   9.927E-01
 233  7.58693358   0.710  -1.74219   3.51895   6.66650   1.47831   0.00000   7.498E-03   0.000E+00   9.925E-01
 234  7.58893099   0.710  -1.74359   3.51895   6.66716   1.48037   0.00000   7.648E-03   0.000E+00   9.924E-01
 235  7.59091926   0.710  -1.74499   3.51895   6.66781   1.48243   0.00000   7.797E-03   0.000E+00   9.922E-01
 236  7.59289846   0.710  -1.74638   3.51895   6.66847   1.48449   0.00000   7.946E-03   0.000E+00   9.921E-01
 237  7.59486869   0.710  -1.74778   3.51894   6.66913   1.48655   0.00000   8.096E-03   0.000E+00   9.919E-01
 238  7.59683001   0.710  -1.74918   3.51894   6.66978   1.48861   0.00000   8.245E-03   0.000E+00   9.918E-01
 239  7.59878252   0.710  -1.75057   3.51894   6.67044   1.49067   0.00000   8.394E-03   0.000E+00   9.916E-01
 240  7.60072630   0.710  -1.75197   3.51894   6.67109   1.49273   0.00000   8.544E-03   0.000E+00   9.915E-01
 241  7.60266141   0.710  -1.75337   3.51893   6.67175   1.49479   0.00000   8.693E-03   0.000E+00   9.913E-01
 242  7.60458793   0.710  -1.75476   3.51893   6.67241   1.49685   0.00000   8.842E-03   0.000E+00   9.912E-01
 243  7.60650595   0.710  -1.75616   3.51893   6.67306   1.49891   0.00000   8.992E-03   0.000E+00   9.910E-01
 244  7.60841553   0.710  -1.75747   3.51893   6.67368   1.50085   0.00000   9.132E-03   0.000E+00   9.909E-01
 245  7.61031676   0.710  -1.75878   3.51893   6.67429   1.50278   0.00000   9.272E-03   0.000E+00   9.907E-01
 246  7.61220970   0.710  -1.76008   3.51892   6.67491   1.50470   0.00000   9.411E-03   0.000E+00   9.906E-01
 247  7.61409442   0.710  -1.76139   3.51892   6.67552   1.50663   0.00000   9.551E-03   0.000E+00   9.904E-01
 248  7.61597100   0.710  -1.76270   3.51892   6.67613   1.50856   0.00000   9.691E-03   0.000E+00   9.903E-01
 249  7.61783951   0.710  -1.76400   3.51892   6.67675   1.51048   0.00000   9.830E-03   0.000E+00   9.902E-01
 250  7.61970001   0.710  -1.76531   3.51892   6.67736   1.51241   0.00000   9.970E-03   0.000E+00   9.900E-01
 251  7.62155257   0.710  -1.76661   3.51891   6.67798   1.51434   0.00000   1.011E-02   0.000E+00   9.899E-01
 252  7.62339727   0.710  -1.76792   3.51891   6.67859   1.51626   0.00000   1.025E-02   0.000E+00   9.898E-01
 253  7.62523416   0.710  -1.76923   3.51891   6.67920   1.51819   0.00000   1.039E-02   0.000E+00   9.896E-01
 254  7.62706332   0.710  -1.77053   3.51891   6.67982   1.52012   0.00000   1.053E-02   0.000E+00   9.895E-01
 255  7.62888480   0.710  -1.77184   3.51890   6.68043   1.52204   0.00000   1.067E-02   0.000E+00   9.893E-01
 256  7.63069868   0.710  -1.77314   3.51890   6.68105   1.52397   0.00000   1.081E-02   0.000E+00   9.892E-01
 257  7.63250501   0.710  -1.77445   3.51890   6.68166   1.52590   0.00000   1.095E-02   0.000E+00   9.891E-01
 258  7.63430386   0.710  -1.77570   3.51890   6.68225   1.52775   0.00000   1.112E-02   0.000E+00   9.889E-01
 259  7.63609529   0.710  -1.77692   3.51890   6.68282   1.52955   0.00000   1.132E-02   0.000E+00   9.887E-01
 260  7.63787937   0.710  -1.77814   3.51890   6.68339   1.53136   0.00000   1.151E-02   0.000E+00   9.885E-01
 261  7.63965614   0.710  -1.77936   3.51890   6.68397   1.53316   0.00000   1.171E-02   0.000E+00   9.883E-01
 262  7.64142567   0.710  -1.78058   3.51889   6.68454   1.53497   0.00000   1.191E-02   0.000E+00   9.881E-01
 263  7.64318802   0.710  -1.78180   3.51889   6.68511   1.53677   0.00000   1.210E-02   0.000E+00   9.879E-01
 264  7.64494325   0.710  -1.78302   3.51889   6.68568   1.53857   0.00000   1.230E-02   0.000E+00   9.877E-01
 265  7.64669142   0.710  -1.78424   3.51889   6.68626   1.54038   0.00000   1.249E-02   0.000E+00   9.875E-01
 266  7.64843257   0.710  -1.78546   3.51889   6.68683   1.54218   0.00000   1.269E-02   0.000E+00   9.873E-01
 267  7.65016678   0.710  -1.78668   3.51889   6.68740   1.54399   0.00000   1.289E-02   0.000E+00   9.871E-01
 268  7.65189408   0.710  -1.78790   3.51889   6.68798   1.54579   0.00000   1.308E-02   0.000E+00   9.869E-01
 269  7.65361455   0.710  -1.78912   3.51888   6.68855   1.54760   0.00000   1.328E-02   0.000E+00   9.867E-01
 270  7.65532822   0.710  -1.79034   3.51888   6.68912   1.54940   0.00000   1.347E-02   0.000E+00   9.865E-01
 271  7.65703516   0.710  -1.79156   3.51888   6.68969   1.55120   0.00000   1.367E-02   0.000E+00   9.863E-01
 272  7.65873542   0.710  -1.79278   3.51888   6.69027   1.55301   0.00000   1.387E-02   0.000E+00   9.861E-01
 273  7.66042904   0.710  -1.79398   3.51888   6.69083   1.55478   0.00000   1.408E-02   0.000E+00   9.859E-01
 274  7.66211609   0.710  -1.79511   3.51888   6.69136   1.55647   0.00000   1.432E-02   0.000E+00   9.857E-01
 275  7.66379661   0.710  -1.79625   3.51888   6.69190   1.55816   0.00000   1.456E-02   0.000E+00   9.854E-01
 276  7.66547065   0.710  -1.79739   3.51888   6.69243   1.55985   0.00000   1.481E-02   0.000E+00   9.852E-01
 277  7.66713826   0.710  -1.79853   3.51887   6.69297   1.56154   0.00000   1.505E-02   0.000E+00   9.849E-01
 278  7.66879950   0.710  -1.79967   3.51887   6.69350   1.56323   0.00000   1.530E-02   0.000E+00   9.847E-01
 279  7.67045440   0.710  -1.80081   3.51887   6.69404   1.56492   0.00000   1.554E-02   0.000E+00   9.845E-01
 280  7.67210302   0.710  -1.80195   3.51887   6.69457   1.56661   0.00000   1.578E-02   0.000E+00   9.842E-01
 281  7.67374541   0.710  -1.80308   3.51887   6.69511   1.56830   0.00000   1.603E-02   0.000E+00   9.840E-01
 282  7.67538161   0.710  -1.80422   3.51887   6.69564   1.56999   0.00000   1.627E-02   0.000E+00   9.837E-01
 283  7.67701167   0.710  -1.80536   3.51887   6.69618   1.57168   0.00000   1.652E-02   0.000E+00   9.835E-01
 284  7.67863563   0.710  -1.80650   3.51887   6.69671   1.57337   0.00000   1.676E-02   0.000E+00   9.832E-01
 285  7.68025354   0.710  -1.80764   3.51886   6.69724   1.57506   0.00000   1.700E-02   0.000E+00   9.830E-01
 286  7.68186545   0.710  -1.80878   3.51886   6.69778   1.57675   0.00000   1.725E-02   0.000E+00   9.828E-01
 287  7.68347140   0.710  -1.80991   3.51886   6.69831   1.57843   0.00000   1.749E-02   0.000E+00   9.825E-01
 288  7.68507143   0.710  -1.81105   3.51886   6.69885   1.58012   0.00000   1.774E-02   0.000E+00   9.823E-01
 289  7.68666558   0.710  -1.81219   3.51886   6.69938   1.58181   0.00000   1.798E-02   0.000E+00   9.820E-01
 290  7.68825391   0.710  -1.81326   3.51886   6.69989   1.58340   0.00000   1.821E-02   0.000E+00   9.818E-01
 291  7.68983645   0.710  -1.81432   3.51886   6.70038   1.58497   0.00000   1.844E-02   0.000E+00   9.816E-01
 292  7.69141324   0.710  -1.81538   3.51886   6.70088   1.58654   0.00000   1.866E-02   0.000E+00   9.813E-01
 293  7.69298433   0.710  -1.81644   3.51886   6.70138   1.58811   0.00000   1.889E-02   0.000E+00   9.811E-01
 294  7.69454976   0.710  -1.81751   3.51886   6.70188   1.58969   0.00000   1.912E-02   0.000E+00   9.809E-01
 295  7.69610956   0.710  -1.81857   3.51886   6.70238   1.59126   0.00000   1.935E-02   0.000E+00   9.807E-01
 296  7.69766379   0.710  -1.81963   3.51886   6.70288   1.59283   0.00000   1.957E-02   0.000E+00   9.804E-01
 297  7.69921247   0.710  -1.82069   3.51886   6.70338   1.59440   0.00000   1.980E-02   0.000E+00   9.802E-01
 298  7.70075564   0.710  -1.82175   3.51886   6.70388   1.59597   0.00000   2.003E-02   0.000E+00   9.800E-01
 299  7.70229336   0.710  -1.82281   3.51886   6.70437   1.59755   0.00000   2.026E-02   0.000E+00   9.797E-01
 300  7.70382564   0.710  -1.82387   3.51886   6.70487   1.59912   0.00000   2.049E-02   0.000E+00   9.795E-01
 301  7.70535254   0.710  -1.82493   3.51886   6.70537   1.60069   0.00000   2.071E-02   0.000E+00   9.793E-01
 302  7.70687409   0.710  -1.82600   3.51886   6.70587   1.60226   0.00000   2.094E-02   0.000E+00   9.791E-01
 303  7.70839033   0.710  -1.82706   3.51886   6.70637   1.60383   0.00000   2.117E-02   0.000E+00   9.788E-01
 304  7.70990130   0.710  -1.82812   3.51886   6.70687   1.60541   0.00000   2.140E-02   0.000E+00   9.786E-01
 305  7.71140702   0.710  -1.82918   3.51886   6.70737   1.60698   0.00000   2.162E-02   0.000E+00   9.784E-01
 306  7.71290754   0.710  -1.83024   3.51886   6.70787   1.60855   0.00000   2.185E-02   0.000E+00   9.781E-01
 307  7.71440290   0.710  -1.83128   3.51886   6.70835   1.61008   0.00000   2.211E-02   0.000E+00   9.779E-01
 308  7.71589312   0.710  -1.83226   3.51886   6.70882   1.61155   0.00000   2.243E-02   0.000E+00   9.776E-01
 309  7.71737825   0.710  -1.83325   3.51886   6.70928   1.61302   0.00000   2.275E-02   0.000E+00   9.773E-01
 310  7.71885832   0.710  -1.83424   3.51886   6.70975   1.61448   0.00000   2.307E-02   0.000E+00   9.769E-01
 311  7.72033336   0.710  -1.83523   3.51886   6.71021   1.61595   0.00000   2.339E-02   0.000E+00   9.766E-01
 312  7.72180341   0.710  -1.83622   3.51886   6.71067   1.61741   0.00000   2.370E-02   0.000E+00   9.763E-01
 313  7.72326850   0.710  -1.83720   3.51886   6.71114   1.61888   0.00000   2.402E-02   0.000E+00   9.760E-01
 314  7.72472866   0.710  -1.83819   3.51886   6.71160   1.62034   0.00000   2.434E-02   0.000E+00   9.757E-01
 315  7.72618393   0.710  -1.83918   3.51886   6.71207   1.62181   0.00000   2.466E-02   0.000E+00   9.753E-01
 316  7.72763434   0.710  -1.84017   3.51886   6.71253   1.62327   0.00000   2.498E-02   0.000E+00   9.750E-01
 317  7.72907992   0.710  -1.84116   3.51885   6.71300   1.62474   0.00000   2.530E-02   0.000E+00   9.747E-01
 318  7.73052070   0.710  -1.84214   3.51885   6.71346   1.62620   0.00000   2.561E-02   0.000E+00   9.744E-01
 319  7.73195673   0.710  -1.84313   3.51885   6.71392   1.62767   0.00000   2.593E-02   0.000E+00   9.741E-01
 320  7.73338802   0.710  -1.84412   3.51885   6.71439   1.62913   0.00000   2.625E-02   0.000E+00   9.737E-01
 321  7.73481460   0.710  -1.84511   3.51885   6.71485   1.63060   0.00000   2.657E-02   0.000E+00   9.734E-01
 322  7.73623652   0.710  -1.84610   3.51885   6.71532   1.63207   0.00000   2.689E-02   0.000E+00   9.731E-01
 323  7.73765380   0.710  -1.84708   3.51885   6.71578   1.63353   0.00000   2.721E-02   0.000E+00   9.728E-01
 324  7.73906646   0.710  -1.84807   3.51885   6.71624   1.63500   0.00000   2.752E-02   0.000E+00   9.725E-01
 325  7.74047455   0.710  -1.84906   3.51885   6.71671   1.63646   0.00000   2.784E-02   0.000E+00   9.722E-01
 326  7.74187809   0.710  -1.85001   3.51885   6.71716   1.63788   0.00000   2.817E-02   0.000E+00   9.718E-01
 327  7.74327710   0.710  -1.85093   3.51885   6.71759   1.63924   0.00000   2.852E-02   0.000E+00   9.715E-01
 328  7.74467162   0.710  -1.85185   3.51885   6.71802   1.64061   0.00000   2.887E-02   0.000E+00   9.711E-01
 329  7.74606168   0.710  -1.85277   3.51885   6.71845   1.64197   0.00000   2.921E-02   0.000E+00   9.708E-01
 330  7.74744730   0.710  -1.85369   3.51885   6.71888   1.64334   0.00000   2.956E-02   0.000E+00   9.704E-01
 331  7.74882852   0.710  -1.85460   3.51885   6.71931   1.64471   0.00000   2.990E-02   0.000E+00   9.701E-01
 332  7.75020536   0.710  -1.85552   3.51885   6.71974   1.64607   0.00000   3.025E-02   0.000E+00   9.698E-01
 333  7.75157785   0.710  -1.85644   3.51885   6.72017   1.64744   0.00000   3.059E-02   0.000E+00   9.694E-01
 334  7.75294601   0.710  -1.85736   3.51885   6.72060   1.64880   0.00000   3.094E-02   0.000E+00   9.691E-01
 335  7.75430988   0.710  -1.85828   3.51885   6.72103   1.65017   0.00000   3.129E-02   0.000E+00   9.687E-01
 336  7.75566947   0.710  -1.85920   3.51886   6.72147   1.65153   0.00000   3.163E-02   0.000E+00   9.684E-01
 337  7.75702483   0.710  -1.86012   3.51886   6.72190   1.65290   0.00000   3.198E-02   0.000E+00   9.680E-01
 338  7.75837596   0.710  -1.86103   3.51886   6.72233   1.65426   0.00000   3.232E-02   0.000E+00   9.677E-01
 339  7.75972291   0.710  -1.86195   3.51886   6.72276   1.65563   0.00000   3.267E-02   0.000E+00   9.673E-01
 340  7.76106569   0.710  -1.86287   3.51886   6.72319   1.65700   0.00000   3.302E-02   0.000E+00   9.670E-01
 341  7.76240433   0.710  -1.86379   3.51886   6.72362   1.65836   0.00000   3.336E-02   0.000E+00   9.666E-01
 342  7.76373886   0.710  -1.86471   3.51886   6.72405   1.65973   0.00000   3.371E-02   0.000E+00   9.663E-01
 343  7.76506930   0.710  -1.86563   3.51886   6.72448   1.66109   0.00000   3.405E-02   0.000E+00   9.659E-01
 344  7.76639568   0.710  -1.86655   3.51886   6.72491   1.66246   0.00000   3.440E-02   0.000E+00   9.656E-01
 345  7.76771802   0.710  -1.86746   3.51886   6.72534   1.66382   0.00000   3.475E-02   0.000E+00   9.653E-01
 346  7.76903635   0.710  -1.86836   3.51886   6.72577   1.66517   0.00000   3.512E-02   0.000E+00   9.649E-01
 347  7.77035068   0.710  -1.86922   3.51886   6.72617   1.66644   0.00000   3.558E-02   0.000E+00   9.644E-01
 348  7.77166105   0.710  -1.87007   3.51886   6.72657   1.66771   0.00000   3.604E-02   0.000E+00   9.640E-01
 349  7.77296748   0.710  -1.87092   3.51886   6.72697   1.66898   0.00000   3.650E-02   0.000E+00   9.635E-01
 350  7.77426999   0.710  -1.87177   3.51886   6.72736   1.67025   0.00000   3.696E-02   0.000E+00   9.630E-01
 351  7.77556861   0.710  -1.87262   3.51886   6.72776   1.67152   0.00000   3.742E-02   0.000E+00   9.626E-01
 352  7.77686335   0.710  -1.87347   3.51886   6.72816   1.67279   0.00000   3.788E-02   0.000E+00   9.621E-01
 353  7.77815425   0.710  -1.87433   3.51886   6.72856   1.67406   0.00000   3.833E-02   0.000E+00   9.617E-01
 354  7.77944132   0.710  -1.87518   3.51886   6.72896   1.67534   0.00000   3.879E-02   0.000E+00   9.612E-01
 355  7.78072458   0.710  -1.87603   3.51886   6.72936   1.67661   0.00000   3.925E-02   0.000E+00   9.607E-01
 356  7.78200407   0.710  -1.87688   3.51886   6.72976   1.67788   0.00000   3.971E-02   0.000E+00   9.603E-01
 357  7.78327979   0.710  -1.87773   3.51887   6.73016   1.67915   0.00000   4.017E-02   0.000E+00   9.598E-01
 358  7.78455179   0.710  -1.87858   3.51887   6.73056   1.68042   0.00000   4.063E-02   0.000E+00   9.594E-01
 359  7.78582006   0.710  -1.87944   3.51887   6.73096   1.68169   0.00000   4.109E-02   0.000E+00   9.589E-01
 360  7.78708465   0.710  -1.88029   3.51887   6.73136   1.68296   0.00000   4.155E-02   0.000E+00   9.585E-01
 361  7.78834556   0.710  -1.88114   3.51887   6.73176   1.68423   0.00000   4.201E-02   0.000E+00   9.580E-01
 362  7.78960282   0.710  -1.88199   3.51887   6.73216   1.68551   0.00000   4.247E-02   0.000E+00   9.575E-01
 363  7.79085645   0.710  -1.88284   3.51887   6.73256   1.68678   0.00000   4.293E-02   0.000E+00   9.571E-01
 364  7.79210648   0.710  -1.88369   3.51887   6.73296   1.68805   0.00000   4.338E-02   0.000E+00   9.566E-01
 365  7.79335291   0.710  -1.88455   3.51887   6.73336   1.68932   0.00000   4.384E-02   0.000E+00   9.562E-01
 366  7.79459578   0.710  -1.88540   3.51887   6.73376   1.69059   0.00000   4.430E-02   0.000E+00   9.557E-01
 367  7.79583510   0.710  -1.88625   3.51887   6.73416   1.69186   0.00000   4.476E-02   0.000E+00   9.552E-01
 368  7.79707090   0.710  -1.88707   3.51887   6.73455   1.69309   0.00000   4.523E-02   0.000E+00   9.548E-01
 369  7.79830319   0.710  -1.88786   3.51887   6.73492   1.69427   0.00000   4.569E-02   0.000E+00   9.543E-01
 370  7.79953199   0.710  -1.88865   3.51887   6.73529   1.69544   0.00000   4.616E-02   0.000E+00   9.538E-01
 371  7.80075733   0.710  -1.88943   3.51887   6.73566   1.69662   0.00000   4.663E-02   0.000E+00   9.534E-01
 372  7.80197922   0.710  -1.89022   3.51887   6.73603   1.69780   0.00000   4.710E-02   0.000E+00   9.529E-01
 373  7.80319768   0.710  -1.89101   3.51887   6.73640   1.69898   0.00000   4.757E-02   0.000E+00   9.524E-01
 374  7.80441273   0.710  -1.89180   3.51888   6.73677   1.70016   0.00000   4.804E-02   0.000E+00   9.520E-01
 375  7.80562439   0.710  -1.89258   3.51888   6.73714   1.70133   0.00000   4.850E-02   0.000E+00   9.515E-01
 376  7.80683268   0.710  -1.89337   3.51888   6.73751   1.70251   0.00000   4.897E-02   0.000E+00   9.510E-01
 377  7.80803762   0.710  -1.89416   3.51888   6.73788   1.70369   0.00000   4.944E-02   0.000E+00   9.506E-01
 378  7.80923922   0.710  -1.89495   3.51888   6.73825   1.70487   0.00000   4.991E-02   0.000E+00   9.501E-01
 379  7.81043751   0.710  -1.89574   3.51888   6.73862   1.70604   0.00000   5.038E-02   0.000E+00   9.496E-01
 380  7.81163250   0.710  -1.89652   3.51888   6.73899   1.70722   0.00000   5.085E-02   0.000E+00   9.492E-01
 381  7.81282421   0.710  -1.89731   3.51888   6.73936   1.70840   0.00000   5.132E-02   0.000E+00   9.487E-01
 382  7.81401267   0.710  -1.89810   3.51888   6.73973   1.70958   0.00000   5.178E-02   0.000E+00   9.482E-01
 383  7.81519787   0.710  -1.89889   3.51888   6.74010   1.71076   0.00000   5.225E-02   0.000E+00   9.477E-01
 384  7.81637986   0.710  -1.89968   3.51888   6.74047   1.71193   0.00000   5.272E-02   0.000E+00   9.473E-01
 385  7.81755863   0.710  -1.90046   3.51888   6.74084   1.71311   0.00000   5.319E-02   0.000E+00   9.468E-01
 386  7.81873421   0.710  -1.90125   3.51889   6.74121   1.71429   0.00000   5.366E-02   0.000E+00   9.463E-01
 387  7.81990662   0.710  -1.90204   3.51889   6.74158   1.71547   0.00000   5.413E-02   0.000E+00   9.459E-01
 388  7.82107588   0.710  -1.90283   3.51889   6.74195   1.71665   0.00000   5.459E-02   0.000E+00   9.454E-01
 389  7.82224199   0.710  -1.90361   3.51889   6.74232   1.71782   0.00000   5.506E-02   0.000E+00   9.449E-01
 390  7.82340498   0.710  -1.90440   3.51889   6.74269   1.71900   0.00000   5.553E-02   0.000E+00   9.445E-01
 391  7.82456487   0.710  -1.90519   3.51889   6.74306   1.72018   0.00000   5.600E-02   0.000E+00   9.440E-01
 392  7.90937863   0.710  -1.95906   3.51898   6.76832   1.80080   0.00000   1.085E-01   0.000E+00   8.915E-01
 393  7.98030438   0.710  -2.00091   3.51909   6.78790   1.86368   0.00000   1.812E-01   0.000E+00   8.188E-01
 394  8.04125680   0.710  -2.03386   3.51920   6.80322   1.91315   0.00000   2.689E-01   0.000E+00   7.311E-01
 395  8.09469805   0.710  -2.05925   3.51929   6.81500   1.95139   0.00000   3.647E-01   0.000E+00   6.353E-01
 396  8.14227787   0.710  -2.07917   3.51936   6.82416   1.98140   0.00000   4.613E-01   0.000E+00   5.387E-01
 397  8.18515589   0.710  -2.09425   3.51941   6.83112   2.00419   0.00000   5.519E-01   0.000E+00   4.481E-01
 398  8.22417836   0.710  -2.10549   3.51945   6.83630   2.02122   0.00000   6.302E-01   0.000E+00   3.698E-01
 399  8.25998181   0.710  -2.11435   3.51949   6.84038   2.03466   0.00000   6.980E-01   0.000E+00   3.020E-01
 400  8.29305710   0.710  -2.12083   3.51951   6.84336   2.04451   0.00000   7.539E-01   0.000E+00   2.461E-01
 401  8.32379070   0.710  -2.12599   3.51953   6.84574   2.05233   0.00000   8.000E-01   0.000E+00   2.000E-01
 402  8.35249238   0.710  -2.12938   3.51954   6.84729   2.05743   0.00000   8.329E-01   0.000E+00   1.671E-01
 403  8.37941425   0.710  -2.13277   3.51955   6.84885   2.06253   0.00000   8.658E-01   0.000E+00   1.342E-01
 404  8.40476420   0.710  -2.13517   3.51956   6.84995   2.06613   0.00000   8.897E-01   0.000E+00   1.103E-01
 405  8.42871571   0.710  -2.13658   3.51957   6.85060   2.06826   0.00000   9.050E-01   0.000E+00   9.503E-02
 406  8.45141505   0.710  -2.13800   3.51957   6.85126   2.07039   0.00000   9.203E-01   0.000E+00   7.979E-02
 407  8.47298665   0.710  -2.13941   3.51958   6.85191   2.07252   0.00000   9.356E-01   0.000E+00   6.454E-02
 408  8.49353730   0.710  -2.14071   3.51958   6.85251   2.07447   0.00000   9.496E-01   0.000E+00   5.055E-02
 409  8.51315927   0.710  -2.14116   3.51958   6.85271   2.07515   0.00000   9.548E-01   0.000E+00   4.533E-02
 410  8.53193290   0.710  -2.14161   3.51959   6.85292   2.07583   0.00000   9.600E-01   0.000E+00   4.011E-02
 411  8.54992849   0.710  -2.14207   3.51959   6.85313   2.07651   0.00000   9.652E-01   0.000E+00   3.489E-02
 412  8.56720799   0.710  -2.14252   3.51959   6.85334   2.07719   0.00000   9.703E-01   0.000E+00   2.967E-02
 413  8.58382620   0.710  -2.14297   3.51960   6.85355   2.07787   0.00000   9.755E-01   0.000E+00   2.445E-02
 414  8.59983189   0.710  -2.14343   3.51960   6.85376   2.07855   0.00000   9.807E-01   0.000E+00   1.923E-02
 415  8.61526860   0.710  -2.14369   3.51960   6.85388   2.07894   0.00000   9.837E-01   0.000E+00   1.617E-02
 416  8.63017541   0.710  -2.14379   3.51960   6.85393   2.07909   0.00000   9.850E-01   0.000E+00   1.485E-02
 417  8.64458749   0.710  -2.14389   3.51960   6.85398   2.07925   0.00000   9.864E-01   0.000E+00   1.353E-02
 418  8.65853662   0.710  -2.14399   3.51960   6.85404   2.07941   0.00000   9.877E-01   0.000E+00   1.221E-02
 419  8.67205163   0.710  -2.14409   3.51960   6.85409   2.07957   0.00000   9.890E-01   0.000E+00   1.089E-02
 420  8.68515872   0.710  -2.14419   3.51961   6.85414   2.07972   0.00000   9.903E-01   0.000E+00   9.571E-03
 421  8.69788180   0.710  -2.14429   3.51961   6.85420   2.07988   0.00000   9.916E-01   0.000E+00   8.251E-03
 422  8.71024273   0.710  -2.14440   3.51961   6.85425   2.08004   0.00000   9.930E-01   0.000E+00   6.931E-03
 423  8.72226155   0.710  -2.14450   3.51961   6.85430   2.08019   0.00000   9.943E-01   0.000E+00   5.612E-03
 424  8.73395670   0.710  -2.14460   3.51961   6.85435   2.08035   0.00000   9.956E-01   0.000E+00   4.292E-03
 425  8.74534515   0.710  -2.14463   3.51961   6.85438   2.08041   0.00000   9.962E-01   0.000E+00   3.710E-03
 426  8.75644257   0.710  -2.14464   3.51961   6.85438   2.08042   0.00000   9.965E-01   0.000E+00   3.450E-03
 427  8.76726348   0.710  -2.14465   3.51961   6.85439   2.08043   0.00000   9.968E-01   0.000E+00   3.191E-03
 428  8.77782132   0.710  -2.14465   3.51961   6.85440   2.08045   0.00000   9.971E-01   0.000E+00   2.931E-03
 429  8.78812857   0.710  -2.14466   3.51961   6.85440   2.08046   0.00000   9.974E-01   0.000E+00   2.672E-03
 430  8.79819685   0.710  -2.14466   3.51961   6.85441   2.08047   0.00000   9.976E-01   0.000E+00   2.413E-03
 431  8.80803700   0.710  -2.14467   3.51961   6.85442   2.08048   0.00000   9.979E-01   0.000E+00   2.153E-03
 432  8.81765913   0.710  -2.14467   3.51962   6.85443   2.08049   0.00000   9.982E-01   0.000E+00   1.894E-03
 433  8.82707268   0.710  -2.14468   3.51962   6.85443   2.08051   0.00000   9.985E-01   0.000E+00   1.634E-03
 434  8.83628651   0.710  -2.14469   3.51962   6.85444   2.08052   0.00000   9.988E-01   0.000E+00   1.375E-03
 435  8.84530892   0.710  -2.14469   3.51962   6.85445   2.08053   0.00000   9.991E-01   0.000E+00   1.116E-03
 436  8.85414770   0.710  -2.14470   3.51962   6.85445   2.08054   0.00000   9.994E-01   0.000E+00   8.561E-04
 437  8.86281017   0.710  -2.14470   3.51962   6.85446   2.08056   0.00000   9.997E-01   0.000E+00   5.967E-04
 438  8.87130323   0.710  -2.14471   3.51962   6.85447   2.08057   0.00000   9.999E-01   0.000E+00   3.373E-04
 439  8.87963339   0.710  -2.14470   3.51962   6.85447   2.08055   0.00000   1.000E+00   0.000E+00   2.401E-04
 440  8.88780676   0.709  -2.14468   3.51962   6.85447   2.08053   0.00000   1.000E+00   0.000E+00   1.819E-04
 441  8.89582915   0.709  -2.14467   3.51962   6.85447   2.08052   0.00000   1.000E+00   0.000E+00   1.238E-04
 442  8.90370604   0.709  -2.14465   3.51962   6.85447   2.08050   0.00000   1.000E+00   0.000E+00   6.559E-05
 443  8.91144260   0.709  -2.14463   3.51962   6.85447   2.08048   0.00000   1.000E+00   0.000E+00   7.413E-06
 444  8.91904375   0.709  -2.14462   3.51962   6.85447   2.08046   0.00000   1.000E+00   0.000E+00  -5.076E-05
 445  8.92651414   0.709  -2.14460   3.51962   6.85447   2.08044   0.00000   1.000E+00   0.000E+00  -1.089E-04
 446  8.93385821   0.709  -2.14459   3.51963   6.85446   2.08042   0.00000   1.001E+00   0.000E+00  -1.671E-04
 447  8.94108015   0.709  -2.14457   3.51963   6.85446   2.08040   0.00000   1.001E+00   0.000E+00  -2.253E-04
 448  8.94818395   0.709  -2.14455   3.51963   6.85446   2.08038   0.00000   1.001E+00   0.000E+00  -2.835E-04
 449  8.95517343   0.709  -2.14454   3.51963   6.85446   2.08036   0.00000   1.001E+00   0.000E+00  -3.416E-04
 450  8.96205220   0.709  -2.14452   3.51963   6.85446   2.08034   0.00000   1.001E+00   0.000E+00  -3.998E-04
 451  8.96882371   0.709  -2.14451   3.51963   6.85446   2.08032   0.00000   1.001E+00   0.000E+00  -4.580E-04
 452  8.97549126   0.709  -2.14449   3.51963   6.85446   2.08030   0.00000   1.001E+00   0.000E+00  -5.161E-04
 453  8.98205799   0.709  -2.14447   3.51963   6.85446   2.08027   0.00000   1.001E+00   0.000E+00  -5.393E-04
 454  8.98852690   0.709  -2.14445   3.51963   6.85445   2.08024   0.00000   1.001E+00   0.000E+00  -5.592E-04
 455  8.99490088   0.709  -2.14442   3.51963   6.85445   2.08021   0.00000   1.001E+00   0.000E+00  -5.792E-04
 456  9.00118265   0.709  -2.14440   3.51963   6.85444   2.08018   0.00000   1.001E+00   0.000E+00  -5.991E-04
 457  9.00737486   0.709  -2.14438   3.51963   6.85444   2.08015   0.00000   1.001E+00   0.000E+00  -6.191E-04
 458  9.01348002   0.709  -2.14435   3.51963   6.85443   2.08012   0.00000   1.001E+00   0.000E+00  -6.390E-04
 459  9.01950054   0.709  -2.14433   3.51963   6.85443   2.08009   0.00000   1.001E+00   0.000E+00  -6.589E-04
 460  9.02543874   0.709  -2.14431   3.51964   6.85442   2.08006   0.00000   1.001E+00   0.000E+00  -6.789E-04
 461  9.03129684   0.709  -2.14428   3.51964   6.85442   2.08003   0.00000   1.001E+00   0.000E+00  -6.988E-04
 462  9.03707698   0.709  -2.14426   3.51964   6.85441   2.08000   0.00000   1.001E+00   0.000E+00  -7.188E-04
 463  9.04278119   0.709  -2.14424   3.51964   6.85440   2.07997   0.00000   1.001E+00   0.000E+00  -7.387E-04
 464  9.04841145   0.709  -2.14422   3.51964   6.85440   2.07994   0.00000   1.001E+00   0.000E+00  -7.587E-04
 465  9.05396966   0.709  -2.14419   3.51964   6.85439   2.07991   0.00000   1.001E+00   0.000E+00  -7.786E-04
 466  9.05945762   0.709  -2.14417   3.51964   6.85439   2.07988   0.00000   1.001E+00   0.000E+00  -7.983E-04
 467  9.06487710   0.709  -2.14414   3.51964   6.85438   2.07984   0.00000   1.001E+00   0.000E+00  -8.106E-04
 468  9.07022979   0.709  -2.14411   3.51964   6.85438   2.07981   0.00000   1.001E+00   0.000E+00  -8.228E-04
 469  9.07551731   0.709  -2.14409   3.51964   6.85437   2.07977   0.00000   1.001E+00   0.000E+00  -8.351E-04
 470  9.08074122   0.709  -2.14406   3.51964   6.85436   2.07973   0.00000   1.001E+00   0.000E+00  -8.473E-04
 471  9.08590305   0.709  -2.14403   3.51964   6.85436   2.07970   0.00000   1.001E+00   0.000E+00  -8.595E-04
 472  9.09100424   0.709  -2.14400   3.51964   6.85435   2.07966   0.00000   1.001E+00   0.000E+00  -8.718E-04
 473  9.09604621   0.709  -2.14397   3.51965   6.85434   2.07962   0.00000   1.001E+00   0.000E+00  -8.840E-04
 474  9.10103032   0.709  -2.14394   3.51965   6.85434   2.07959   0.00000   1.001E+00   0.000E+00  -8.962E-04
 475  9.10595787   0.709  -2.14392   3.51965   6.85433   2.07955   0.00000   1.001E+00   0.000E+00  -9.085E-04
 476  9.11083015   0.709  -2.14389   3.51965   6.85433   2.07951   0.00000   1.001E+00   0.000E+00  -9.207E-04
 477  9.11564837   0.709  -2.14386   3.51965   6.85432   2.07948   0.00000   1.001E+00   0.000E+00  -9.330E-04
 478  9.12041372   0.709  -2.14383   3.51965   6.85431   2.07944   0.00000   1.001E+00   0.000E+00  -9.452E-04
 479  9.12512734   0.709  -2.14380   3.51965   6.85431   2.07940   0.00000   1.001E+00   0.000E+00  -9.574E-04
 480  9.12979036   0.709  -2.14378   3.51965   6.85430   2.07936   0.00000   1.001E+00   0.000E+00  -9.694E-04
 481  9.13440384   0.709  -2.14374   3.51965   6.85429   2.07932   0.00000   1.001E+00   0.000E+00  -9.796E-04
 482  9.13896883   0.709  -2.14371   3.51965   6.85428   2.07928   0.00000   1.001E+00   0.000E+00  -9.899E-04
 483  9.14348633   0.709  -2.14368   3.51965   6.85427   2.07923   0.00000   1.001E+00   0.000E+00  -1.000E-03
 484  9.14795733   0.709  -2.14365   3.51965   6.85426   2.07919   0.00000   1.001E+00   0.000E+00  -1.010E-03
 485  9.15238276   0.709  -2.14362   3.51965   6.85425   2.07915   0.00000   1.001E+00   0.000E+00  -1.021E-03
 486  9.15676356   0.709  -2.14359   3.51965   6.85424   2.07910   0.00000   1.001E+00   0.000E+00  -1.031E-03
 487  9.16110061   0.709  -2.14356   3.51966   6.85423   2.07906   0.00000   1.001E+00   0.000E+00  -1.041E-03
 488  9.16539477   0.709  -2.14353   3.51966   6.85422   2.07902   0.00000   1.001E+00   0.000E+00  -1.051E-03
 489  9.16964689   0.709  -2.14350   3.51966   6.85421   2.07898   0.00000   1.001E+00   0.000E+00  -1.061E-03
 490  9.17385778   0.709  -2.14347   3.51966   6.85421   2.07893   0.00000   1.001E+00   0.000E+00  -1.072E-03
 491  9.17802823   0.709  -2.14344   3.51966   6.85420   2.07889   0.00000   1.001E+00   0.000E+00  -1.082E-03
 492  9.18215902   0.709  -2.14340   3.51966   6.85419   2.07885   0.00000   1.001E+00   0.000E+00  -1.092E-03
 493  9.18625088   0.709  -2.14337   3.51966   6.85418   2.07880   0.00000   1.001E+00   0.000E+00  -1.102E-03
 494  9.19030456   0.709  -2.14334   3.51966   6.85417   2.07876   0.00000   1.001E+00   0.000E+00  -1.112E-03
 495  9.19432074   0.709  -2.14331   3.51966   6.85416   2.07871   0.00000   1.001E+00   0.000E+00  -1.122E-03
 496  9.19830013   0.709  -2.14327   3.51966   6.85415   2.07866   0.00000   1.001E+00   0.000E+00  -1.131E-03
 497  9.20224338   0.709  -2.14324   3.51966   6.85414   2.07862   0.00000   1.001E+00   0.000E+00  -1.140E-03
 498  9.20615115   0.709  -2.14320   3.51966   6.85413   2.07857   0.00000   1.001E+00   0.000E+00  -1.150E-03
 499  9.21002408   0.709  -2.14316   3.51966   6.85412   2.07852   0.00000   1.001E+00   0.000E+00  -1.159E-03
 500  9.21386277   0.709  -2.14313   3.51966   6.85411   2.07847   0.00000   1.001E+00   0.000E+00  -1.168E-03
 501  9.21766783   0.709  -2.14309   3.51967   6.85410   2.07843   0.00000   1.001E+00   0.000E+00  -1.178E-03
 502  9.22143984   0.709  -2.14306   3.51967   6.85409   2.07838   0.00000   1.001E+00   0.000E+00  -1.187E-03
 503  9.22517937   0.709  -2.14302   3.51967   6.85408   2.07833   0.00000   1.001E+00   0.000E+00  -1.197E-03
 504  9.22888697   0.709  -2.14299   3.51967   6.85407   2.07828   0.00000   1.001E+00   0.000E+00  -1.206E-03
 505  9.23256319   0.709  -2.14295   3.51967   6.85406   2.07824   0.00000   1.001E+00   0.000E+00  -1.215E-03
 506  9.23620855   0.709  -2.14292   3.51967   6.85405   2.07819   0.00000   1.001E+00   0.000E+00  -1.225E-03
 507  9.23982357   0.709  -2.14288   3.51967   6.85404   2.07814   0.00000   1.001E+00   0.000E+00  -1.234E-03
 508  9.24340875   0.709  -2.14285   3.51967   6.85403   2.07809   0.00000   1.001E+00   0.000E+00  -1.243E-03
 509  9.24696457   0.709  -2.14281   3.51967   6.85401   2.07804   0.00000   1.001E+00   0.000E+00  -1.251E-03
 510  9.25049152   0.709  -2.14277   3.51967   6.85400   2.07799   0.00000   1.001E+00   0.000E+00  -1.259E-03
 511  9.25399005   0.709  -2.14273   3.51967   6.85399   2.07793   0.00000   1.001E+00   0.000E+00  -1.267E-03
 512  9.25746063   0.709  -2.14270   3.51967   6.85398   2.07788   0.00000   1.001E+00   0.000E+00  -1.275E-03
 513  9.26090369   0.709  -2.14266   3.51967   6.85397   2.07783   0.00000   1.001E+00   0.000E+00  -1.282E-03
 514  9.26431967   0.709  -2.14262   3.51967   6.85396   2.07778   0.00000   1.001E+00   0.000E+00  -1.290E-03
 515  9.26770899   0.709  -2.14258   3.51968   6.85395   2.07772   0.00000   1.001E+00   0.000E+00  -1.298E-03
 516  9.27107206   0.709  -2.14255   3.51968   6.85393   2.07767   0.00000   1.001E+00   0.000E+00  -1.306E-03
 517  9.27440929   0.709  -2.14251   3.51968   6.85392   2.07762   0.00000   1.001E+00   0.000E+00  -1.314E-03
 518  9.27772107   0.709  -2.14247   3.51968   6.85391   2.07757   0.00000   1.001E+00   0.000E+00  -1.322E-03
 519  9.28100779   0.709  -2.14243   3.51968   6.85390   2.07751   0.00000   1.001E+00   0.000E+00  -1.330E-03
 520  9.28426982   0.709  -2.14240   3.51968   6.85389   2.07746   0.00000   1.001E+00   0.000E+00  -1.338E-03
 521  9.28750754   0.709  -2.14236   3.51968   6.85388   2.07741   0.00000   1.001E+00   0.000E+00  -1.346E-03
 522  9.29072129   0.709  -2.14232   3.51968   6.85386   2.07735   0.00000   1.001E+00   0.000E+00  -1.353E-03
 523  9.29391144   0.709  -2.14228   3.51968   6.85385   2.07730   0.00000   1.001E+00   0.000E+00  -1.361E-03
 524  9.29707832   0.708  -2.14224   3.51968   6.85384   2.07724   0.00000   1.001E+00   0.000E+00  -1.368E-03
 525  9.30022228   0.708  -2.14220   3.51968   6.85383   2.07718   0.00000   1.001E+00   0.000E+00  -1.375E-03
 526  9.30334364   0.708  -2.14216   3.51968   6.85381   2.07713   0.00000   1.001E+00   0.000E+00  -1.382E-03
 527  9.30644273   0.708  -2.14212   3.51968   6.85380   2.07707   0.00000   1.001E+00   0.000E+00  -1.389E-03
 528  9.30951986   0.708  -2.14207   3.51968   6.85379   2.07701   0.00000   1.001E+00   0.000E+00  -1.397E-03
 529  9.31257534   0.708  -2.14203   3.51968   6.85377   2.07696   0.00000   1.001E+00   0.000E+00  -1.404E-03
 530  9.31560947   0.708  -2.14199   3.51968   6.85376   2.07690   0.00000   1.001E+00   0.000E+00  -1.411E-03
 531  9.31862255   0.708  -2.14195   3.51968   6.85375   2.07684   0.00000   1.001E+00   0.000E+00  -1.418E-03
 532  9.32161487   0.708  -2.14191   3.51968   6.85373   2.07678   0.00000   1.001E+00   0.000E+00  -1.425E-03
 533  9.32458672   0.708  -2.14187   3.51968   6.85372   2.07673   0.00000   1.001E+00   0.000E+00  -1.433E-03
 534  9.32753837   0.708  -2.14183   3.51968   6.85371   2.07667   0.00000   1.001E+00   0.000E+00  -1.440E-03
 535  9.33047009   0.708  -2.14179   3.51968   6.85370   2.07661   0.00000   1.001E+00   0.000E+00  -1.447E-03
 536  9.33338216   0.708  -2.14174   3.51968   6.85368   2.07655   0.00000   1.001E+00   0.000E+00  -1.454E-03
 537  9.33627483   0.708  -2.14170   3.51968   6.85367   2.07649   0.00000   1.001E+00   0.000E+00  -1.460E-03
 538  9.33914835   0.708  -2.14166   3.51968   6.85365   2.07643   0.00000   1.001E+00   0.000E+00  -1.467E-03
 539  9.34200300   0.708  -2.14162   3.51968   6.85364   2.07637   0.00000   1.001E+00   0.000E+00  -1.473E-03
 540  9.34483899   0.708  -2.14157   3.51968   6.85362   2.07631   0.00000   1.001E+00   0.000E+00  -1.480E-03
 541  9.34765660   0.708  -2.14153   3.51968   6.85361   2.07625   0.00000   1.001E+00   0.000E+00  -1.486E-03
 542  9.35045603   0.708  -2.14149   3.51968   6.85360   2.07619   0.00000   1.001E+00   0.000E+00  -1.493E-03
 543  9.35323754   0.708  -2.14144   3.51969   6.85358   2.07613   0.00000   1.002E+00   0.000E+00  -1.499E-03
 544  9.35600135   0.708  -2.14140   3.51969   6.85357   2.07607   0.00000   1.002E+00   0.000E+00  -1.506E-03
 545  9.35874768   0.708  -2.14136   3.51969   6.85355   2.07601   0.00000   1.002E+00   0.000E+00  -1.512E-03
 546  9.36147675   0.708  -2.14131   3.51969   6.85354   2.07595   0.00000   1.002E+00   0.000E+00  -1.519E-03
 547  9.36418878   0.708  -2.14127   3.51969   6.85352   2.07589   0.00000   1.002E+00   0.000E+00  -1.525E-03
 548  9.36688398   0.708  -2.14123   3.51969   6.85351   2.07583   0.00000   1.002E+00   0.000E+00  -1.532E-03
 549  9.36956256   0.708  -2.14118   3.51969   6.85349   2.07577   0.00000   1.002E+00   0.000E+00  -1.538E-03
 550  9.37222471   0.708  -2.14114   3.51969   6.85348   2.07571   0.00000   1.002E+00   0.000E+00  -1.544E-03
 551  9.37487065   0.708  -2.14109   3.51969   6.85346   2.07564   0.00000   1.002E+00   0.000E+00  -1.550E-03
 552  9.37750057   0.708  -2.14105   3.51969   6.85345   2.07558   0.00000   1.002E+00   0.000E+00  -1.555E-03
 553  9.38011465   0.708  -2.14101   3.51969   6.85343   2.07552   0.00000   1.002E+00   0.000E+00  -1.561E-03
 554  9.38271310   0.708  -2.14096   3.51969   6.85342   2.07545   0.00000   1.002E+00   0.000E+00  -1.567E-03
 555  9.38529609   0.708  -2.14092   3.51969   6.85340   2.07539   0.00000   1.002E+00   0.000E+00  -1.573E-03
 556  9.38786381   0.708  -2.14087   3.51969   6.85339   2.07533   0.00000   1.002E+00   0.000E+00  -1.579E-03
 557  9.39041643   0.708  -2.14083   3.51970   6.85337   2.07526   0.00000   1.002E+00   0.000E+00  -1.584E-03
 558  9.39295414   0.708  -2.14078   3.51970   6.85336   2.07520   0.00000   1.002E+00   0.000E+00  -1.590E-03
 559  9.39547711   0.708  -2.14074   3.51970   6.85334   2.07514   0.00000   1.002E+00   0.000E+00  -1.596E-03
 560  9.39798551   0.708  -2.14069   3.51970   6.85333   2.07507   0.00000   1.002E+00   0.000E+00  -1.602E-03
 561  9.40047950   0.708  -2.14065   3.51970   6.85331   2.07501   0.00000   1.002E+00   0.000E+00  -1.607E-03
 562  9.40295925   0.708  -2.14060   3.51970   6.85330   2.07495   0.00000   1.002E+00   0.000E+00  -1.613E-03
 563  9.40542492   0.708  -2.14056   3.51970   6.85328   2.07488   0.00000   1.002E+00   0.000E+00  -1.619E-03
 564  9.40787667   0.708  -2.14051   3.51970   6.85327   2.07482   0.00000   1.002E+00   0.000E+00  -1.623E-03
 565  9.41031466   0.708  -2.14046   3.51970   6.85325   2.07475   0.00000   1.002E+00   0.000E+00  -1.628E-03
 566  9.41273904   0.708  -2.14042   3.51970   6.85324   2.07468   0.00000   1.002E+00   0.000E+00  -1.632E-03
 567  9.41514996   0.708  -2.14037   3.51970   6.85322   2.07462   0.00000   1.002E+00   0.000E+00  -1.636E-03
 568  9.41754757   0.708  -2.14032   3.51970   6.85320   2.07455   0.00000   1.002E+00   0.000E+00  -1.641E-03
 569  9.41993202   0.708  -2.14027   3.51970   6.85319   2.07449   0.00000   1.002E+00   0.000E+00  -1.645E-03
 570  9.42230344   0.708  -2.14023   3.51970   6.85317   2.07442   0.00000   1.002E+00   0.000E+00  -1.649E-03
 571  9.42466199   0.708  -2.14018   3.51971   6.85316   2.07435   0.00000   1.002E+00   0.000E+00  -1.654E-03
 572  9.42700780   0.708  -2.14013   3.51971   6.85314   2.07429   0.00000   1.002E+00   0.000E+00  -1.658E-03
 573  9.42934101   0.708  -2.14008   3.51971   6.85312   2.07422   0.00000   1.002E+00   0.000E+00  -1.662E-03
 574  9.43166174   0.708  -2.14004   3.51971   6.85311   2.07415   0.00000   1.002E+00   0.000E+00  -1.667E-03
 575  9.43397015   0.708  -2.13999   3.51971   6.85309   2.07409   0.00000   1.002E+00   0.000E+00  -1.671E-03
 576  9.43626634   0.708  -2.13994   3.51971   6.85308   2.07402   0.00000   1.002E+00   0.000E+00  -1.675E-03
 577  9.43855046   0.708  -2.13989   3.51971   6.85306   2.07396   0.00000   1.002E+00   0.000E+00  -1.680E-03
 578  9.44082264   0.708  -2.13985   3.51971   6.85304   2.07389   0.00000   1.002E+00   0.000E+00  -1.684E-03
 579  9.44308298   0.708  -2.13980   3.51971   6.85303   2.07382   0.00000   1.002E+00   0.000E+00  -1.688E-03
 580  9.44533162   0.708  -2.13975   3.51971   6.85301   2.07375   0.00000   1.002E+00   0.000E+00  -1.693E-03
 581  9.44756868   0.708  -2.13970   3.51971   6.85300   2.07368   0.00000   1.002E+00   0.000E+00  -1.697E-03
 582  9.44979427   0.708  -2.13965   3.51971   6.85298   2.07361   0.00000   1.002E+00   0.000E+00  -1.701E-03
 583  9.45200852   0.708  -2.13960   3.51971   6.85296   2.07354   0.00000   1.002E+00   0.000E+00  -1.706E-03
 584  9.45421154   0.708  -2.13956   3.51971   6.85295   2.07347   0.00000   1.002E+00   0.000E+00  -1.710E-03
 585  9.45640343   0.708  -2.13951   3.51972   6.85293   2.07340   0.00000   1.002E+00   0.000E+00  -1.714E-03
 586  9.45858432   0.708  -2.13946   3.51972   6.85291   2.07333   0.00000   1.002E+00   0.000E+00  -1.718E-03
 587  9.46075431   0.708  -2.13941   3.51972   6.85290   2.07326   0.00000   1.002E+00   0.000E+00  -1.723E-03
 588  9.46291352   0.708  -2.13936   3.51972   6.85288   2.07320   0.00000   1.002E+00   0.000E+00  -1.727E-03
 589  9.46506204   0.708  -2.13932   3.51972   6.85286   2.07313   0.00000   1.002E+00   0.000E+00  -1.731E-03
 590  9.46719998   0.708  -2.13927   3.51972   6.85285   2.07306   0.00000   1.002E+00   0.000E+00  -1.736E-03
 591  9.46932746   0.708  -2.13922   3.51972   6.85283   2.07299   0.00000   1.002E+00   0.000E+00  -1.740E-03
 592  9.47144456   0.708  -2.13917   3.51972   6.85281   2.07292   0.00000   1.002E+00   0.000E+00  -1.743E-03
 593  9.47355139   0.708  -2.13912   3.51972   6.85279   2.07285   0.00000   1.002E+00   0.000E+00  -1.746E-03
 594  9.47564805   0.708  -2.13907   3.51972   6.85278   2.07278   0.00000   1.002E+00   0.000E+00  -1.749E-03
 595  9.47773463   0.708  -2.13902   3.51972   6.85276   2.07271   0.00000   1.002E+00   0.000E+00  -1.752E-03
 596  9.47981124   0.708  -2.13897   3.51972   6.85274   2.07264   0.00000   1.002E+00   0.000E+00  -1.754E-03
 597  9.48187797   0.708  -2.13892   3.51972   6.85272   2.07257   0.00000   1.002E+00   0.000E+00  -1.757E-03
 598  9.48393490   0.708  -2.13887   3.51972   6.85270   2.07249   0.00000   1.002E+00   0.000E+00  -1.760E-03
 599  9.48598215   0.708  -2.13882   3.51972   6.85269   2.07242   0.00000   1.002E+00   0.000E+00  -1.763E-03
 600  9.48801978   0.708  -2.13877   3.51972   6.85267   2.07235   0.00000   1.002E+00   0.000E+00  -1.766E-03
 601  9.49004790   0.708  -2.13871   3.51972   6.85265   2.07228   0.00000   1.002E+00   0.000E+00  -1.769E-03
 602  9.49206660   0.708  -2.13866   3.51972   6.85263   2.07221   0.00000   1.002E+00   0.000E+00  -1.772E-03
 603  9.49407595   0.708  -2.13861   3.51972   6.85261   2.07214   0.00000   1.002E+00   0.000E+00  -1.775E-03
 604  9.49607605   0.708  -2.13856   3.51972   6.85260   2.07207   0.00000   1.002E+00   0.000E+00  -1.778E-03
 605  9.49806698   0.708  -2.13851   3.51972   6.85258   2.07200   0.00000   1.002E+00   0.000E+00  -1.780E-03
 606  9.50004882   0.708  -2.13846   3.51972   6.85256   2.07193   0.00000   1.002E+00   0.000E+00  -1.783E-03
 607  9.50202167   0.708  -2.13841   3.51972   6.85254   2.07186   0.00000   1.002E+00   0.000E+00  -1.786E-03
 608  9.50398559   0.708  -2.13836   3.51972   6.85252   2.07178   0.00000   1.002E+00   0.000E+00  -1.789E-03
 609  9.50594067   0.708  -2.13831   3.51972   6.85251   2.07171   0.00000   1.002E+00   0.000E+00  -1.792E-03
 610  9.50788698   0.708  -2.13826   3.51972   6.85249   2.07164   0.00000   1.002E+00   0.000E+00  -1.795E-03
 611  9.50982462   0.707  -2.13821   3.51972   6.85247   2.07157   0.00000   1.002E+00   0.000E+00  -1.798E-03
 612  9.51175365   0.707  -2.13816   3.51973   6.85245   2.07150   0.00000   1.002E+00   0.000E+00  -1.801E-03
 613  9.51367414   0.707  -2.13811   3.51973   6.85243   2.07142   0.00000   1.002E+00   0.000E+00  -1.803E-03
 614  9.51558619   0.707  -2.13806   3.51973   6.85242   2.07135   0.00000   1.002E+00   0.000E+00  -1.806E-03
 615  9.51748985   0.707  -2.13801   3.51973   6.85240   2.07128   0.00000   1.002E+00   0.000E+00  -1.809E-03
 616  9.51938520   0.707  -2.13796   3.51973   6.85238   2.07121   0.00000   1.002E+00   0.000E+00  -1.812E-03
 617  9.52127232   0.707  -2.13791   3.51973   6.85236   2.07114   0.00000   1.002E+00   0.000E+00  -1.815E-03
 618  9.52315127   0.707  -2.13786   3.51973   6.85234   2.07106   0.00000   1.002E+00   0.000E+00  -1.818E-03
 619  9.52502213   0.707  -2.13781   3.51973   6.85233   2.07099   0.00000   1.002E+00   0.000E+00  -1.820E-03
 620  9.52688496   0.707  -2.13776   3.51973   6.85231   2.07092   0.00000   1.002E+00   0.000E+00  -1.822E-03
 621  9.52873984   0.707  -2.13770   3.51973   6.85229   2.07085   0.00000   1.002E+00   0.000E+00  -1.823E-03
 622  9.53058683   0.707  -2.13765   3.51973   6.85227   2.07077   0.00000   1.002E+00   0.000E+00  -1.825E-03
 623  9.53242600   0.707  -2.13760   3.51973   6.85225   2.07070   0.00000   1.002E+00   0.000E+00  -1.826E-03
 624  9.53425741   0.707  -2.13755   3.51973   6.85224   2.07062   0.00000   1.002E+00   0.000E+00  -1.828E-03
 625  9.53608113   0.707  -2.13750   3.51973   6.85222   2.07055   0.00000   1.002E+00   0.000E+00  -1.829E-03
 626  9.53789722   0.707  -2.13744   3.51974   6.85220   2.07048   0.00000   1.002E+00   0.000E+00  -1.830E-03
 627  9.53970575   0.707  -2.13739   3.51974   6.85218   2.07040   0.00000   1.002E+00   0.000E+00  -1.832E-03
 628  9.54150679   0.707  -2.13734   3.51974   6.85216   2.07033   0.00000   1.002E+00   0.000E+00  -1.833E-03
 629  9.54330038   0.707  -2.13729   3.51974   6.85215   2.07026   0.00000   1.002E+00   0.000E+00  -1.835E-03
 630  9.54508660   0.707  -2.13724   3.51974   6.85213   2.07018   0.00000   1.002E+00   0.000E+00  -1.836E-03
 631  9.54686550   0.707  -2.13719   3.51974   6.85211   2.07011   0.00000   1.002E+00   0.000E+00  -1.838E-03
 632  9.54863714   0.707  -2.13713   3.51974   6.85209   2.07004   0.00000   1.002E+00   0.000E+00  -1.839E-03
 633  9.55040159   0.707  -2.13708   3.51974   6.85207   2.06996   0.00000   1.002E+00   0.000E+00  -1.841E-03
 634  9.55215889   0.707  -2.13703   3.51974   6.85205   2.06989   0.00000   1.002E+00   0.000E+00  -1.842E-03
 635  9.55390912   0.707  -2.13698   3.51974   6.85204   2.06982   0.00000   1.002E+00   0.000E+00  -1.843E-03
 636  9.55565232   0.707  -2.13692   3.51974   6.85202   2.06974   0.00000   1.002E+00   0.000E+00  -1.845E-03
 637  9.55738855   0.707  -2.13687   3.51974   6.85200   2.06967   0.00000   1.002E+00   0.000E+00  -1.846E-03
 638  9.55911786   0.707  -2.13682   3.51974   6.85198   2.06959   0.00000   1.002E+00   0.000E+00  -1.848E-03
 639  9.56084032   0.707  -2.13677   3.51974   6.85196   2.06952   0.00000   1.002E+00   0.000E+00  -1.849E-03
 640  9.56255597   0.707  -2.13671   3.51975   6.85194   2.06944   0.00000   1.002E+00   0.000E+00  -1.851E-03
 641  9.56426488   0.707  -2.13666   3.51975   6.85192   2.06937   0.00000   1.002E+00   0.000E+00  -1.852E-03
 642  9.56596708   0.707  -2.13661   3.51975   6.85190   2.06930   0.00000   1.002E+00   0.000E+00  -1.853E-03
 643  9.56766264   0.707  -2.13656   3.51975   6.85189   2.06922   0.00000   1.002E+00   0.000E+00  -1.855E-03
 644  9.56935160   0.707  -2.13650   3.51975   6.85187   2.06915   0.00000   1.002E+00   0.000E+00  -1.856E-03
 645  9.57103403   0.707  -2.13645   3.51975   6.85185   2.06907   0.00000   1.002E+00   0.000E+00  -1.858E-03
 646  9.57270995   0.707  -2.13640   3.51975   6.85183   2.06900   0.00000   1.002E+00   0.000E+00  -1.859E-03
 647  9.57437944   0.707  -2.13635   3.51975   6.85181   2.06893   0.00000   1.002E+00   0.000E+00  -1.860E-03
 648  9.57604254   0.707  -2.13629   3.51975   6.85179   2.06885   0.00000   1.002E+00   0.000E+00  -1.861E-03
 649  9.57769928   0.707  -2.13624   3.51975   6.85177   2.06878   0.00000   1.002E+00   0.000E+00  -1.862E-03
 650  9.57934974   0.707  -2.13619   3.51975   6.85176   2.06870   0.00000   1.002E+00   0.000E+00  -1.862E-03
 651  9.58099394   0.707  -2.13614   3.51975   6.85174   2.06863   0.00000   1.002E+00   0.000E+00  -1.863E-03
 652  9.58263195   0.707  -2.13608   3.51975   6.85172   2.06855   0.00000   1.002E+00   0.000E+00  -1.864E-03
 653  9.58426379   0.707  -2.13603   3.51975   6.85170   2.06848   0.00000   1.002E+00   0.000E+00  -1.865E-03
 654  9.58588953   0.707  -2.13598   3.51975   6.85168   2.06840   0.00000   1.002E+00   0.000E+00  -1.865E-03
 655  9.58750921   0.707  -2.13593   3.51975   6.85166   2.06833   0.00000   1.002E+00   0.000E+00  -1.866E-03
 656  9.58912287   0.707  -2.13587   3.51975   6.85164   2.06825   0.00000   1.002E+00   0.000E+00  -1.867E-03
 657  9.59073055   0.707  -2.13582   3.51975   6.85162   2.06818   0.00000   1.002E+00   0.000E+00  -1.868E-03
 658  9.59233231   0.707  -2.13577   3.51975   6.85161   2.06810   0.00000   1.002E+00   0.000E+00  -1.868E-03
 659  9.59392818   0.707  -2.13571   3.51975   6.85159   2.06803   0.00000   1.002E+00   0.000E+00  -1.869E-03
 660  9.59551821   0.707  -2.13566   3.51975   6.85157   2.06795   0.00000   1.002E+00   0.000E+00  -1.870E-03
 661  9.59710243   0.707  -2.13561   3.51975   6.85155   2.06788   0.00000   1.002E+00   0.000E+00  -1.870E-03
 662  9.59868090   0.707  -2.13556   3.51975   6.85153   2.06780   0.00000   1.002E+00   0.000E+00  -1.870E-03
 663  9.60025366   0.707  -2.13550   3.51975   6.85151   2.06773   0.00000   1.002E+00   0.000E+00  -1.870E-03
 664  9.60182073   0.707  -2.13545   3.51975   6.85149   2.06765   0.00000   1.002E+00   0.000E+00  -1.870E-03
 665  9.60338218   0.707  -2.13540   3.51975   6.85147   2.06758   0.00000   1.002E+00   0.000E+00  -1.870E-03
 666  9.60493803   0.707  -2.13535   3.51975   6.85145   2.06750   0.00000   1.002E+00   0.000E+00  -1.870E-03
 667  9.60648832   0.707  -2.13529   3.51975   6.85143   2.06743   0.00000   1.002E+00   0.000E+00  -1.870E-03
 668  9.60803310   0.707  -2.13524   3.51976   6.85141   2.06735   0.00000   1.002E+00   0.000E+00  -1.870E-03
 669  9.60957241   0.707  -2.13519   3.51976   6.85139   2.06728   0.00000   1.002E+00   0.000E+00  -1.870E-03
 670  9.61110628   0.707  -2.13514   3.51976   6.85137   2.06720   0.00000   1.002E+00   0.000E+00  -1.870E-03
 671  9.61263475   0.707  -2.13508   3.51976   6.85135   2.06713   0.00000   1.002E+00   0.000E+00  -1.870E-03
 672  9.61415786   0.707  -2.13503   3.51976   6.85134   2.06705   0.00000   1.002E+00   0.000E+00  -1.870E-03
 673  9.61567565   0.707  -2.13498   3.51976   6.85132   2.06698   0.00000   1.002E+00   0.000E+00  -1.870E-03
 674  9.61718815   0.707  -2.13493   3.51976   6.85130   2.06690   0.00000   1.002E+00   0.000E+00  -1.870E-03
 675  9.61869540   0.707  -2.13487   3.51976   6.85128   2.06683   0.00000   1.002E+00   0.000E+00  -1.870E-03
 676  9.62019744   0.707  -2.13482   3.51976   6.85126   2.06675   0.00000   1.002E+00   0.000E+00  -1.870E-03
 677  9.62169430   0.707  -2.13477   3.51976   6.85124   2.06668   0.00000   1.002E+00   0.000E+00  -1.870E-03
 678  9.62318603   0.707  -2.13471   3.51976   6.85122   2.06660   0.00000   1.002E+00   0.000E+00  -1.870E-03
 679  9.62467264   0.707  -2.13466   3.51976   6.85120   2.06653   0.00000   1.002E+00   0.000E+00  -1.870E-03
 680  9.62615418   0.707  -2.13461   3.51976   6.85118   2.06645   0.00000   1.002E+00   0.000E+00  -1.870E-03
 681  9.62763069   0.707  -2.13455   3.51976   6.85116   2.06637   0.00000   1.002E+00   0.000E+00  -1.870E-03
 682  9.62910219   0.707  -2.13450   3.51977   6.85115   2.06630   0.00000   1.002E+00   0.000E+00  -1.870E-03
 683  9.63056873   0.707  -2.13445   3.51977   6.85113   2.06622   0.00000   1.002E+00   0.000E+00  -1.870E-03
 684  9.63203033   0.707  -2.13439   3.51977   6.85111   2.06615   0.00000   1.002E+00   0.000E+00  -1.870E-03
 685  9.63348702   0.707  -2.13434   3.51977   6.85109   2.06607   0.00000   1.002E+00   0.000E+00  -1.870E-03
 686  9.63493885   0.707  -2.13429   3.51977   6.85107   2.06600   0.00000   1.002E+00   0.000E+00  -1.870E-03
 687  9.63638584   0.707  -2.13423   3.51977   6.85105   2.06592   0.00000   1.002E+00   0.000E+00  -1.870E-03
 688  9.63782802   0.707  -2.13418   3.51977   6.85103   2.06585   0.00000   1.002E+00   0.000E+00  -1.870E-03
 689  9.63926544   0.707  -2.13413   3.51977   6.85101   2.06577   0.00000   1.002E+00   0.000E+00  -1.869E-03
 690  9.64069811   0.707  -2.13408   3.51977   6.85100   2.06569   0.00000   1.002E+00   0.000E+00  -1.869E-03
 691  9.64212606   0.707  -2.13402   3.51977   6.85098   2.06562   0.00000   1.002E+00   0.000E+00  -1.868E-03
 692  9.64354934   0.707  -2.13397   3.51977   6.85096   2.06554   0.00000   1.002E+00   0.000E+00  -1.867E-03
 693  9.64496797   0.707  -2.13392   3.51977   6.85094   2.06547   0.00000   1.002E+00   0.000E+00  -1.867E-03
 694  9.64638198   0.707  -2.13387   3.51977   6.85092   2.06539   0.00000   1.002E+00   0.000E+00  -1.866E-03
 695  9.64779141   0.707  -2.13381   3.51977   6.85090   2.06532   0.00000   1.002E+00   0.000E+00  -1.865E-03
 696  9.64919627   0.707  -2.13376   3.51977   6.85088   2.06524   0.00000   1.002E+00   0.000E+00  -1.864E-03
 697  9.65059660   0.707  -2.13371   3.51977   6.85086   2.06517   0.00000   1.002E+00   0.000E+00  -1.864E-03
 698  9.65199243   0.707  -2.13366   3.51977   6.85084   2.06509   0.00000   1.002E+00   0.000E+00  -1.863E-03
 699  9.65338380   0.707  -2.13360   3.51977   6.85082   2.06501   0.00000   1.002E+00   0.000E+00  -1.862E-03
 700  9.65477071   0.707  -2.13355   3.51977   6.85080   2.06494   0.00000   1.002E+00   0.000E+00  -1.862E-03
 701  9.65615321   0.707  -2.13350   3.51977   6.85078   2.06486   0.00000   1.002E+00   0.000E+00  -1.861E-03
 702  9.65753133   0.707  -2.13344   3.51977   6.85076   2.06479   0.00000   1.002E+00   0.000E+00  -1.860E-03
 703  9.65890509   0.706  -2.13339   3.51977   6.85074   2.06471   0.00000   1.002E+00   0.000E+00  -1.859E-03
 704  9.66027451   0.706  -2.13334   3.51977   6.85072   2.06464   0.00000   1.002E+00   0.000E+00  -1.859E-03
 705  9.66163963   0.706  -2.13329   3.51977   6.85071   2.06456   0.00000   1.002E+00   0.000E+00  -1.858E-03
 706  9.66300047   0.706  -2.13323   3.51977   6.85069   2.06449   0.00000   1.002E+00   0.000E+00  -1.857E-03
 707  9.66435706   0.706  -2.13318   3.51977   6.85067   2.06441   0.00000   1.002E+00   0.000E+00  -1.856E-03
 708  9.66570943   0.706  -2.13313   3.51977   6.85065   2.06434   0.00000   1.002E+00   0.000E+00  -1.856E-03
 709  9.66705760   0.706  -2.13307   3.51977   6.85063   2.06426   0.00000   1.002E+00   0.000E+00  -1.855E-03
 710  9.66840160   0.706  -2.13302   3.51978   6.85061   2.06419   0.00000   1.002E+00   0.000E+00  -1.854E-03
 711  9.66974145   0.706  -2.13297   3.51978   6.85059   2.06411   0.00000   1.002E+00   0.000E+00  -1.854E-03
 712  9.67107717   0.706  -2.13291   3.51978   6.85057   2.06404   0.00000   1.002E+00   0.000E+00  -1.853E-03
 713  9.67240881   0.706  -2.13286   3.51978   6.85056   2.06396   0.00000   1.002E+00   0.000E+00  -1.852E-03
 714  9.67373637   0.706  -2.13281   3.51978   6.85054   2.06389   0.00000   1.002E+00   0.000E+00  -1.851E-03
 715  9.67505989   0.706  -2.13275   3.51978   6.85052   2.06381   0.00000   1.002E+00   0.000E+00  -1.851E-03
 716  9.67637939   0.706  -2.13270   3.51978   6.85050   2.06374   0.00000   1.002E+00   0.000E+00  -1.850E-03
 717  9.67769488   0.706  -2.13265   3.51978   6.85048   2.06366   0.00000   1.002E+00   0.000E+00  -1.849E-03
 718  9.67900641   0.706  -2.13260   3.51978   6.85046   2.06359   0.00000   1.002E+00   0.000E+00  -1.849E-03
 719  9.68031399   0.706  -2.13254   3.51978   6.85044   2.06352   0.00000   1.002E+00   0.000E+00  -1.848E-03
 720  9.68161764   0.706  -2.13249   3.51978   6.85042   2.06344   0.00000   1.002E+00   0.000E+00  -1.847E-03
 721  9.68291739   0.706  -2.13244   3.51978   6.85040   2.06337   0.00000   1.002E+00   0.000E+00  -1.846E-03
 722  9.68421327   0.706  -2.13239   3.51978   6.85038   2.06329   0.00000   1.002E+00   0.000E+00  -1.846E-03
 723  9.68550529   0.706  -2.13234   3.51979   6.85036   2.06322   0.00000   1.002E+00   0.000E+00  -1.845E-03
 724  9.68679347   0.706  -2.13228   3.51979   6.85034   2.06315   0.00000   1.002E+00   0.000E+00  -1.844E-03
 725  9.68807785   0.706  -2.13223   3.51979   6.85032   2.06307   0.00000   1.002E+00   0.000E+00  -1.844E-03
 726  9.68935844   0.706  -2.13218   3.51979   6.85031   2.06300   0.00000   1.002E+00   0.000E+00  -1.843E-03
 727  9.69063526   0.706  -2.13213   3.51979   6.85029   2.06292   0.00000   1.002E+00   0.000E+00  -1.842E-03
 728  9.69190834   0.706  -2.13208   3.51979   6.85027   2.06285   0.00000   1.002E+00   0.000E+00  -1.841E-03
 729  9.69317770   0.706  -2.13203   3.51979   6.85025   2.06277   0.00000   1.002E+00   0.000E+00  -1.841E-03
 730  9.69444336   0.706  -2.13197   3.51979   6.85023   2.06270   0.00000   1.002E+00   0.000E+00  -1.840E-03
 731  9.69570534   0.706  -2.13192   3.51979   6.85021   2.06263   0.00000   1.002E+00   0.000E+00  -1.838E-03
 732  9.69696367   0.706  -2.13187   3.51979   6.85019   2.06255   0.00000   1.002E+00   0.000E+00  -1.837E-03
 733  9.69821836   0.706  -2.13182   3.51979   6.85017   2.06248   0.00000   1.002E+00   0.000E+00  -1.835E-03
 734  9.69946944   0.706  -2.13176   3.51979   6.85015   2.06240   0.00000   1.002E+00   0.000E+00  -1.834E-03
 735  9.70071692   0.706  -2.13171   3.51979   6.85013   2.06233   0.00000   1.002E+00   0.000E+00  -1.833E-03
 736  9.70196083   0.706  -2.13166   3.51979   6.85012   2.06226   0.00000   1.002E+00   0.000E+00  -1.831E-03
 737  9.70320119   0.706  -2.13161   3.51979   6.85010   2.06218   0.00000   1.002E+00   0.000E+00  -1.830E-03
 738  9.70443801   0.706  -2.13155   3.51979   6.85008   2.06211   0.00000   1.002E+00   0.000E+00  -1.828E-03
 739  9.70567133   0.706  -2.13150   3.51979   6.85006   2.06203   0.00000   1.002E+00   0.000E+00  -1.827E-03
 740  9.70690115   0.706  -2.13145   3.51979   6.85004   2.06196   0.00000   1.002E+00   0.000E+00  -1.825E-03
 741  9.70812749   0.706  -2.13140   3.51979   6.85002   2.06188   0.00000   1.002E+00   0.000E+00  -1.824E-03
 742  9.70935039   0.706  -2.13134   3.51979   6.85000   2.06181   0.00000   1.002E+00   0.000E+00  -1.823E-03
 743  9.71056985   0.706  -2.13129   3.51979   6.84998   2.06174   0.00000   1.002E+00   0.000E+00  -1.821E-03
 744  9.71178589   0.706  -2.13124   3.51979   6.84997   2.06166   0.00000   1.002E+00   0.000E+00  -1.820E-03
 745  9.71299854   0.706  -2.13119   3.51979   6.84995   2.06159   0.00000   1.002E+00   0.000E+00  -1.818E-03
 746  9.71420782   0.706  -2.13114   3.51979   6.84993   2.06152   0.00000   1.002E+00   0.000E+00  -1.817E-03
 747  9.71541373   0.706  -2.13108   3.51979   6.84991   2.06144   0.00000   1.002E+00   0.000E+00  -1.815E-03
 748  9.71661631   0.706  -2.13103   3.51979   6.84989   2.06137   0.00000   1.002E+00   0.000E+00  -1.814E-03
 749  9.71781557   0.706  -2.13098   3.51979   6.84987   2.06130   0.00000   1.002E+00   0.000E+00  -1.812E-03
 750  9.71901152   0.706  -2.13093   3.51979   6.84985   2.06122   0.00000   1.002E+00   0.000E+00  -1.811E-03
 751  9.72020419   0.706  -2.13088   3.51980   6.84983   2.06115   0.00000   1.002E+00   0.000E+00  -1.810E-03
 752  9.72139359   0.706  -2.13083   3.51980   6.84982   2.06108   0.00000   1.002E+00   0.000E+00  -1.808E-03
 753  9.72257975   0.706  -2.13078   3.51980   6.84980   2.06100   0.00000   1.002E+00   0.000E+00  -1.807E-03
 754  9.72376267   0.706  -2.13073   3.51980   6.84978   2.06093   0.00000   1.002E+00   0.000E+00  -1.805E-03
 755  9.72494238   0.706  -2.13068   3.51980   6.84976   2.06085   0.00000   1.002E+00   0.000E+00  -1.804E-03
 756  9.72611889   0.706  -2.13062   3.51980   6.84974   2.06078   0.00000   1.002E+00   0.000E+00  -1.802E-03
 757  9.72729223   0.706  -2.13057   3.51980   6.84972   2.06071   0.00000   1.002E+00   0.000E+00  -1.801E-03
 758  9.72846240   0.706  -2.13052   3.51980   6.84970   2.06063   0.00000   1.002E+00   0.000E+00  -1.799E-03
 759  9.72962943   0.706  -2.13047   3.51980   6.84968   2.06056   0.00000   1.002E+00   0.000E+00  -1.798E-03
 760  9.73079334   0.706  -2.13042   3.51980   6.84967   2.06049   0.00000   1.002E+00   0.000E+00  -1.797E-03
 761  9.73195413   0.706  -2.13037   3.51980   6.84965   2.06041   0.00000   1.002E+00   0.000E+00  -1.795E-03
 762  9.73311182   0.706  -2.13032   3.51980   6.84963   2.06034   0.00000   1.002E+00   0.000E+00  -1.794E-03
 763  9.73426644   0.706  -2.13027   3.51980   6.84961   2.06027   0.00000   1.002E+00   0.000E+00  -1.792E-03
 764  9.73541800   0.706  -2.13022   3.51980   6.84959   2.06019   0.00000   1.002E+00   0.000E+00  -1.791E-03
 765  9.73656651   0.706  -2.13016   3.51981   6.84957   2.06012   0.00000   1.002E+00   0.000E+00  -1.789E-03
 766  9.73771199   0.706  -2.13011   3.51981   6.84955   2.06005   0.00000   1.002E+00   0.000E+00  -1.788E-03
 767  9.73885446   0.706  -2.13006   3.51981   6.84954   2.05997   0.00000   1.002E+00   0.000E+00  -1.787E-03
 768  9.73999394   0.706  -2.13001   3.51981   6.84952   2.05990   0.00000   1.002E+00   0.000E+00  -1.785E-03
 769  9.74113043   0.706  -2.12996   3.51981   6.84950   2.05983   0.00000   1.002E+00   0.000E+00  -1.784E-03
 770  9.74226395   0.706  -2.12991   3.51981   6.84948   2.05975   0.00000   1.002E+00   0.000E+00  -1.782E-03
 771  9.74339452   0.706  -2.12986   3.51981   6.84946   2.05968   0.00000   1.002E+00   0.000E+00  -1.781E-03
 772  9.74452216   0.706  -2.12981   3.51981   6.84944   2.05961   0.00000   1.002E+00   0.000E+00  -1.779E-03
 773  9.74564688   0.706  -2.12976   3.51981   6.84942   2.05953   0.00000   1.002E+00   0.000E+00  -1.778E-03
 774  9.74676869   0.706  -2.12970   3.51981   6.84941   2.05946   0.00000   1.002E+00   0.000E+00  -1.776E-03
 775  9.74788761   0.706  -2.12965   3.51981   6.84939   2.05939   0.00000   1.002E+00   0.000E+00  -1.775E-03
 776  9.74900366   0.706  -2.12960   3.51981   6.84937   2.05932   0.00000   1.002E+00   0.000E+00  -1.774E-03
 777  9.75011684   0.706  -2.12955   3.51981   6.84935   2.05924   0.00000   1.002E+00   0.000E+00  -1.772E-03
 778  9.75122718   0.706  -2.12950   3.51981   6.84933   2.05917   0.00000   1.002E+00   0.000E+00  -1.771E-03
 779  9.75233469   0.706  -2.12945   3.51981   6.84932   2.05910   0.00000   1.002E+00   0.000E+00  -1.769E-03
 780  9.75343938   0.706  -2.12940   3.51981   6.84930   2.05902   0.00000   1.002E+00   0.000E+00  -1.768E-03
 781  9.75454127   0.706  -2.12935   3.51981   6.84928   2.05895   0.00000   1.002E+00   0.000E+00  -1.766E-03
 782  9.75564037   0.706  -2.12930   3.51981   6.84926   2.05888   0.00000   1.002E+00   0.000E+00  -1.765E-03
 783  9.75673669   0.706  -2.12924   3.51981   6.84924   2.05881   0.00000   1.002E+00   0.000E+00  -1.764E-03
 784  9.75783026   0.706  -2.12919   3.51981   6.84923   2.05873   0.00000   1.002E+00   0.000E+00  -1.762E-03
 785  9.75892108   0.706  -2.12914   3.51981   6.84921   2.05866   0.00000   1.002E+00   0.000E+00  -1.761E-03
 786  9.76000916   0.706  -2.12909   3.51981   6.84919   2.05859   0.00000   1.002E+00   0.000E+00  -1.759E-03
 787  9.76109453   0.706  -2.12904   3.51981   6.84917   2.05852   0.00000   1.002E+00   0.000E+00  -1.757E-03
 788  9.76217719   0.706  -2.12899   3.51981   6.84915   2.05845   0.00000   1.002E+00   0.000E+00  -1.754E-03
 789  9.76325715   0.706  -2.12894   3.51981   6.84913   2.05838   0.00000   1.002E+00   0.000E+00  -1.752E-03
 790  9.76433444   0.706  -2.12889   3.51981   6.84911   2.05830   0.00000   1.002E+00   0.000E+00  -1.750E-03
 791  9.76540907   0.706  -2.12884   3.51981   6.84910   2.05823   0.00000   1.002E+00   0.000E+00  -1.748E-03
 792  9.76648104   0.706  -2.12879   3.51981   6.84908   2.05816   0.00000   1.002E+00   0.000E+00  -1.746E-03
 793  9.76755037   0.706  -2.12874   3.51982   6.84906   2.05809   0.00000   1.002E+00   0.000E+00  -1.744E-03
 794  9.76861707   0.706  -2.12869   3.51982   6.84904   2.05802   0.00000   1.002E+00   0.000E+00  -1.741E-03
 795  9.76968116   0.706  -2.12864   3.51982   6.84902   2.05795   0.00000   1.002E+00   0.000E+00  -1.739E-03
 796  9.77074265   0.706  -2.12859   3.51982   6.84900   2.05788   0.00000   1.002E+00   0.000E+00  -1.737E-03
 797  9.77180156   0.706  -2.12855   3.51982   6.84898   2.05781   0.00000   1.002E+00   0.000E+00  -1.735E-03
 798  9.77285788   0.706  -2.12850   3.51982   6.84896   2.05773   0.00000   1.002E+00   0.000E+00  -1.733E-03
 799  9.77391164   0.706  -2.12845   3.51982   6.84895   2.05766   0.00000   1.002E+00   0.000E+00  -1.731E-03
 800  9.77496286   0.706  -2.12840   3.51982   6.84893   2.05759   0.00000   1.002E+00   0.000E+00  -1.729E-03
 801  9.77601153   0.706  -2.12835   3.51982   6.84891   2.05752   0.00000   1.002E+00   0.000E+00  -1.728E-03
 802  9.77705768   0.705  -2.12830   3.51982   6.84889   2.05745   0.00000   1.002E+00   0.000E+00  -1.726E-03
 803  9.77810131   0.705  -2.12825   3.51982   6.84888   2.05738   0.00000   1.002E+00   0.000E+00  -1.725E-03
 804  9.77914245   0.705  -2.12820   3.51982   6.84886   2.05731   0.00000   1.002E+00   0.000E+00  -1.723E-03
 805  9.78018109   0.705  -2.12815   3.51982   6.84884   2.05724   0.00000   1.002E+00   0.000E+00  -1.722E-03
 806  9.78121725   0.705  -2.12810   3.51982   6.84882   2.05717   0.00000   1.002E+00   0.000E+00  -1.720E-03
 807  9.78225095   0.705  -2.12805   3.51983   6.84881   2.05710   0.00000   1.002E+00   0.000E+00  -1.719E-03
 808  9.78328220   0.705  -2.12800   3.51983   6.84879   2.05703   0.00000   1.002E+00   0.000E+00  -1.718E-03
 809  9.78431100   0.705  -2.12795   3.51983   6.84877   2.05696   0.00000   1.002E+00   0.000E+00  -1.716E-03
 810  9.78533737   0.705  -2.12790   3.51983   6.84876   2.05689   0.00000   1.002E+00   0.000E+00  -1.715E-03
 811  9.78636132   0.705  -2.12785   3.51983   6.84874   2.05682   0.00000   1.002E+00   0.000E+00  -1.713E-03
 812  9.78738286   0.705  -2.12780   3.51983   6.84872   2.05675   0.00000   1.002E+00   0.000E+00  -1.712E-03
 813  9.78840200   0.705  -2.12775   3.51983   6.84870   2.05667   0.00000   1.002E+00   0.000E+00  -1.710E-03
 814  9.78941876   0.705  -2.12770   3.51983   6.84869   2.05660   0.00000   1.002E+00   0.000E+00  -1.708E-03
 815  9.79043314   0.705  -2.12765   3.51983   6.84867   2.05654   0.00000   1.002E+00   0.000E+00  -1.706E-03
 816  9.79144516   0.705  -2.12761   3.51983   6.84865   2.05647   0.00000   1.002E+00   0.000E+00  -1.704E-03
 817  9.79245483   0.705  -2.12756   3.51983   6.84863   2.05640   0.00000   1.002E+00   0.000E+00  -1.702E-03
 818  9.79346215   0.705  -2.12751   3.51983   6.84861   2.05633   0.00000   1.002E+00   0.000E+00  -1.700E-03
 819  9.79446714   0.705  -2.12746   3.51983   6.84860   2.05626   0.00000   1.002E+00   0.000E+00  -1.697E-03
 820  9.79546982   0.705  -2.12741   3.51983   6.84858   2.05619   0.00000   1.002E+00   0.000E+00  -1.695E-03
 821  9.79647018   0.705  -2.12736   3.51983   6.84856   2.05612   0.00000   1.002E+00   0.000E+00  -1.693E-03
 822  9.79746825   0.705  -2.12732   3.51983   6.84854   2.05605   0.00000   1.002E+00   0.000E+00  -1.691E-03
 823  9.79846402   0.705  -2.12727   3.51983   6.84852   2.05598   0.00000   1.002E+00   0.000E+00  -1.689E-03
 824  9.79945752   0.705  -2.12722   3.51983   6.84851   2.05591   0.00000   1.002E+00   0.000E+00  -1.687E-03
 825  9.80044875   0.705  -2.12717   3.51983   6.84849   2.05584   0.00000   1.002E+00   0.000E+00  -1.685E-03
 826  9.80143772   0.705  -2.12712   3.51983   6.84847   2.05577   0.00000   1.002E+00   0.000E+00  -1.682E-03
 827  9.80242445   0.705  -2.12707   3.51983   6.84845   2.05570   0.00000   1.002E+00   0.000E+00  -1.680E-03
 828  9.80340894   0.705  -2.12703   3.51983   6.84843   2.05563   0.00000   1.002E+00   0.000E+00  -1.678E-03
 829  9.80439120   0.705  -2.12698   3.51983   6.84842   2.05556   0.00000   1.002E+00   0.000E+00  -1.676E-03
 830  9.80537125   0.705  -2.12693   3.51983   6.84840   2.05549   0.00000   1.002E+00   0.000E+00  -1.674E-03
 831  9.80634909   0.705  -2.12688   3.51983   6.84838   2.05542   0.00000   1.002E+00   0.000E+00  -1.672E-03
 832  9.80732473   0.705  -2.12683   3.51983   6.84837   2.05535   0.00000   1.002E+00   0.000E+00  -1.669E-03
 833  9.80829819   0.705  -2.12679   3.51983   6.84835   2.05528   0.00000   1.002E+00   0.000E+00  -1.667E-03
 834  9.80926947   0.705  -2.12674   3.51983   6.84833   2.05521   0.00000   1.002E+00   0.000E+00  -1.665E-03
 835  9.81023858   0.705  -2.12669   3.51984   6.84831   2.05514   0.00000   1.002E+00   0.000E+00  -1.663E-03
 836  9.81120553   0.705  -2.12664   3.51984   6.84830   2.05507   0.00000   1.002E+00   0.000E+00  -1.661E-03
 837  9.81217034   0.705  -2.12659   3.51984   6.84828   2.05501   0.00000   1.002E+00   0.000E+00  -1.659E-03
 838  9.81313301   0.705  -2.12654   3.51984   6.84826   2.05494   0.00000   1.002E+00   0.000E+00  -1.656E-03
 839  9.81409354   0.705  -2.12650   3.51984   6.84824   2.05487   0.00000   1.002E+00   0.000E+00  -1.654E-03
 840  9.81505196   0.705  -2.12645   3.51984   6.84823   2.05480   0.00000   1.002E+00   0.000E+00  -1.652E-03
 841  9.81600827   0.705  -2.12640   3.51984   6.84821   2.05473   0.00000   1.002E+00   0.000E+00  -1.650E-03
 842  9.81696248   0.705  -2.12635   3.51984   6.84819   2.05466   0.00000   1.002E+00   0.000E+00  -1.649E-03
 843  9.81791459   0.705  -2.12630   3.51984   6.84818   2.05459   0.00000   1.002E+00   0.000E+00  -1.647E-03
 844  9.81886462   0.705  -2.12626   3.51984   6.84816   2.05453   0.00000   1.002E+00   0.000E+00  -1.646E-03
 845  9.81981258   0.705  -2.12621   3.51984   6.84814   2.05446   0.00000   1.002E+00   0.000E+00  -1.644E-03
 846  9.82075848   0.705  -2.12616   3.51984   6.84812   2.05439   0.00000   1.002E+00   0.000E+00  -1.643E-03
 847  9.82170232   0.705  -2.12611   3.51984   6.84811   2.05432   0.00000   1.002E+00   0.000E+00  -1.641E-03
 848  9.82264411   0.705  -2.12607   3.51984   6.84809   2.05426   0.00000   1.002E+00   0.000E+00  -1.640E-03
 849  9.82358386   0.705  -2.12602   3.51984   6.84807   2.05419   0.00000   1.002E+00   0.000E+00  -1.638E-03
 850  9.82452158   0.705  -2.12597   3.51984   6.84805   2.05412   0.00000   1.002E+00   0.000E+00  -1.637E-03
 851  9.82545729   0.705  -2.12592   3.51984   6.84804   2.05405   0.00000   1.002E+00   0.000E+00  -1.636E-03
 852  9.82639098   0.705  -2.12588   3.51984   6.84802   2.05398   0.00000   1.002E+00   0.000E+00  -1.634E-03
 853  9.82732267   0.705  -2.12583   3.51984   6.84800   2.05392   0.00000   1.002E+00   0.000E+00  -1.633E-03
 854  9.82825236   0.705  -2.12578   3.51984   6.84799   2.05385   0.00000   1.002E+00   0.000E+00  -1.631E-03
 855  9.82918007   0.705  -2.12573   3.51984   6.84797   2.05378   0.00000   1.002E+00   0.000E+00  -1.630E-03
 856  9.83010580   0.705  -2.12569   3.51984   6.84795   2.05372   0.00000   1.002E+00   0.000E+00  -1.628E-03
 857  9.83102957   0.705  -2.12564   3.51984   6.84793   2.05365   0.00000   1.002E+00   0.000E+00  -1.625E-03
 858  9.83195137   0.705  -2.12559   3.51984   6.84792   2.05358   0.00000   1.002E+00   0.000E+00  -1.623E-03
 859  9.83287122   0.705  -2.12555   3.51984   6.84790   2.05352   0.00000   1.002E+00   0.000E+00  -1.621E-03
 860  9.83378912   0.705  -2.12550   3.51984   6.84789   2.05345   0.00000   1.002E+00   0.000E+00  -1.619E-03
 861  9.83470509   0.705  -2.12545   3.51984   6.84787   2.05338   0.00000   1.002E+00   0.000E+00  -1.617E-03
 862  9.83561913   0.705  -2.12541   3.51985   6.84785   2.05332   0.00000   1.002E+00   0.000E+00  -1.615E-03
 863  9.83653125   0.705  -2.12536   3.51985   6.84784   2.05325   0.00000   1.002E+00   0.000E+00  -1.612E-03
 864  9.83744146   0.705  -2.12531   3.51985   6.84782   2.05319   0.00000   1.002E+00   0.000E+00  -1.610E-03
 865  9.83834977   0.705  -2.12527   3.51985   6.84780   2.05312   0.00000   1.002E+00   0.000E+00  -1.608E-03
 866  9.83925618   0.705  -2.12522   3.51985   6.84779   2.05305   0.00000   1.002E+00   0.000E+00  -1.606E-03
 867  9.84016070   0.705  -2.12517   3.51985   6.84777   2.05299   0.00000   1.002E+00   0.000E+00  -1.604E-03
 868  9.84106335   0.705  -2.12513   3.51985   6.84775   2.05292   0.00000   1.002E+00   0.000E+00  -1.602E-03
 869  9.84196412   0.705  -2.12508   3.51985   6.84774   2.05285   0.00000   1.002E+00   0.000E+00  -1.599E-03
 870  9.84286302   0.705  -2.12503   3.51985   6.84772   2.05279   0.00000   1.002E+00   0.000E+00  -1.597E-03
 871  9.84376007   0.705  -2.12499   3.51985   6.84770   2.05272   0.00000   1.002E+00   0.000E+00  -1.595E-03
 872  9.84465527   0.705  -2.12494   3.51985   6.84768   2.05266   0.00000   1.002E+00   0.000E+00  -1.593E-03
 873  9.84554863   0.705  -2.12490   3.51985   6.84767   2.05259   0.00000   1.002E+00   0.000E+00  -1.591E-03
 874  9.84644016   0.705  -2.12485   3.51985   6.84765   2.05253   0.00000   1.002E+00   0.000E+00  -1.589E-03
 875  9.84732985   0.705  -2.12480   3.51985   6.84763   2.05246   0.00000   1.002E+00   0.000E+00  -1.587E-03
 876  9.84821773   0.705  -2.12476   3.51986   6.84762   2.05240   0.00000   1.002E+00   0.000E+00  -1.584E-03
 877  9.84910380   0.705  -2.12471   3.51986   6.84760   2.05233   0.00000   1.002E+00   0.000E+00  -1.582E-03
 878  9.84998807   0.705  -2.12466   3.51986   6.84758   2.05227   0.00000   1.002E+00   0.000E+00  -1.580E-03
 879  9.85087053   0.705  -2.12462   3.51986   6.84756   2.05220   0.00000   1.002E+00   0.000E+00  -1.578E-03
 880  9.85175121   0.705  -2.12457   3.51986   6.84755   2.05213   0.00000   1.002E+00   0.000E+00  -1.576E-03
 881  9.85263011   0.705  -2.12453   3.51986   6.84753   2.05207   0.00000   1.002E+00   0.000E+00  -1.574E-03
 882  9.85350723   0.705  -2.12448   3.51986   6.84751   2.05200   0.00000   1.002E+00   0.000E+00  -1.571E-03
 883  9.85438258   0.705  -2.12443   3.51986   6.84749   2.05194   0.00000   1.002E+00   0.000E+00  -1.569E-03
 884  9.85525617   0.705  -2.12439   3.51986   6.84748   2.05187   0.00000   1.002E+00   0.000E+00  -1.567E-03
 885  9.85612801   0.705  -2.12435   3.51986   6.84746   2.05181   0.00000   1.002E+00   0.000E+00  -1.565E-03
 886  9.85699810   0.705  -2.12430   3.51986   6.84745   2.05174   0.00000   1.002E+00   0.000E+00  -1.563E-03
 887  9.85786645   0.705  -2.12426   3.51986   6.84743   2.05168   0.00000   1.002E+00   0.000E+00  -1.561E-03
 888  9.85873307   0.705  -2.12421   3.51986   6.84742   2.05161   0.00000   1.002E+00   0.000E+00  -1.558E-03
 889  9.85959796   0.705  -2.12417   3.51986   6.84740   2.05155   0.00000   1.002E+00   0.000E+00  -1.556E-03
 890  9.86046114   0.705  -2.12412   3.51986   6.84738   2.05148   0.00000   1.002E+00   0.000E+00  -1.554E-03
 891  9.86132260   0.705  -2.12408   3.51986   6.84737   2.05142   0.00000   1.002E+00   0.000E+00  -1.552E-03
 892  9.86218236   0.705  -2.12403   3.51986   6.84735   2.05135   0.00000   1.002E+00   0.000E+00  -1.550E-03
 893  9.86304041   0.705  -2.12399   3.51986   6.84734   2.05129   0.00000   1.002E+00   0.000E+00  -1.548E-03
 894  9.86389678   0.705  -2.12394   3.51986   6.84732   2.05123   0.00000   1.002E+00   0.000E+00  -1.546E-03
 895  9.86475146   0.705  -2.12390   3.51986   6.84730   2.05116   0.00000   1.002E+00   0.000E+00  -1.543E-03
 896  9.86560446   0.705  -2.12385   3.51986   6.84729   2.05110   0.00000   1.002E+00   0.000E+00  -1.541E-03
 897  9.86645579   0.705  -2.12381   3.51986   6.84727   2.05103   0.00000   1.002E+00   0.000E+00  -1.539E-03
 898  9.86730546   0.705  -2.12377   3.51986   6.84726   2.05097   0.00000   1.002E+00   0.000E+00  -1.537E-03
 899  9.86815346   0.705  -2.12372   3.51986   6.84724   2.05090   0.00000   1.002E+00   0.000E+00  -1.535E-03
 900  9.86899981   0.705  -2.12368   3.51986   6.84723   2.05084   0.00000   1.002E+00   0.000E+00  -1.533E-03
 901  9.86984452   0.705  -2.12363   3.51986   6.84721   2.05078   0.00000   1.002E+00   0.000E+00  -1.530E-03
 902  9.87068759   0.705  -2.12359   3.51986   6.84719   2.05071   0.00000   1.002E+00   0.000E+00  -1.528E-03
 903  9.87152902   0.705  -2.12354   3.51986   6.84718   2.05065   0.00000   1.002E+00   0.000E+00  -1.526E-03
 904  9.87236883   0.705  -2.12350   3.51987   6.84716   2.05059   0.00000   1.002E+00   0.000E+00  -1.524E-03
 905  9.87320701   0.705  -2.12345   3.51987   6.84715   2.05052   0.00000   1.002E+00   0.000E+00  -1.522E-03
 906  9.87404358   0.705  -2.12341   3.51987   6.84713   2.05046   0.00000   1.002E+00   0.000E+00  -1.520E-03
 907  9.87487854   0.704  -2.12336   3.51987   6.84711   2.05040   0.00000   1.002E+00   0.000E+00  -1.517E-03
 908  9.87571190   0.704  -2.12332   3.51987   6.84710   2.05033   0.00000   1.002E+00   0.000E+00  -1.515E-03
 909  9.87654367   0.704  -2.12327   3.51987   6.84708   2.05027   0.00000   1.002E+00   0.000E+00  -1.513E-03
 910  9.87737384   0.704  -2.12323   3.51987   6.84707   2.05021   0.00000   1.002E+00   0.000E+00  -1.511E-03
 911  9.87820243   0.704  -2.12319   3.51987   6.84705   2.05014   0.00000   1.002E+00   0.000E+00  -1.509E-03
 912  9.87902944   0.704  -2.12314   3.51987   6.84704   2.05008   0.00000   1.002E+00   0.000E+00  -1.507E-03
 913  9.87985488   0.704  -2.12310   3.51987   6.84702   2.05002   0.00000   1.002E+00   0.000E+00  -1.504E-03
 914  9.88067876   0.704  -2.12305   3.51987   6.84700   2.04996   0.00000   1.002E+00   0.000E+00  -1.502E-03
 915  9.88150107   0.704  -2.12301   3.51987   6.84699   2.04989   0.00000   1.002E+00   0.000E+00  -1.500E-03
 916  9.88232183   0.704  -2.12297   3.51987   6.84697   2.04983   0.00000   1.002E+00   0.000E+00  -1.498E-03
 917  9.88314105   0.704  -2.12292   3.51987   6.84696   2.04977   0.00000   1.002E+00   0.000E+00  -1.496E-03
 918  9.88395872   0.704  -2.12288   3.51987   6.84694   2.04971   0.00000   1.001E+00   0.000E+00  -1.494E-03
 919  9.88477485   0.704  -2.12283   3.51987   6.84692   2.04964   0.00000   1.001E+00   0.000E+00  -1.492E-03
 920  9.88558945   0.704  -2.12279   3.51987   6.84691   2.04958   0.00000   1.001E+00   0.000E+00  -1.489E-03
 921  9.88640253   0.704  -2.12275   3.51987   6.84689   2.04952   0.00000   1.001E+00   0.000E+00  -1.487E-03
 922  9.88721409   0.704  -2.12270   3.51987   6.84688   2.04946   0.00000   1.001E+00   0.000E+00  -1.485E-03
 923  9.88802413   0.704  -2.12266   3.51987   6.84686   2.04939   0.00000   1.001E+00   0.000E+00  -1.483E-03
 924  9.88883267   0.704  -2.12261   3.51987   6.84685   2.04933   0.00000   1.001E+00   0.000E+00  -1.481E-03
 925  9.88963970   0.704  -2.12257   3.51987   6.84683   2.04927   0.00000   1.001E+00   0.000E+00  -1.479E-03
 926  9.89044524   0.704  -2.12253   3.51987   6.84681   2.04921   0.00000   1.001E+00   0.000E+00  -1.478E-03
 927  9.89124928   0.704  -2.12248   3.51987   6.84680   2.04915   0.00000   1.001E+00   0.000E+00  -1.476E-03
 928  9.89205184   0.704  -2.12244   3.51987   6.84678   2.04909   0.00000   1.001E+00   0.000E+00  -1.475E-03
 929  9.89285292   0.704  -2.12240   3.51987   6.84677   2.04902   0.00000   1.001E+00   0.000E+00  -1.473E-03
 930  9.89365253   0.704  -2.12235   3.51987   6.84675   2.04896   0.00000   1.001E+00   0.000E+00  -1.472E-03
 931  9.89445066   0.704  -2.12231   3.51987   6.84673   2.04890   0.00000   1.001E+00   0.000E+00  -1.470E-03
 932  9.89524733   0.704  -2.12227   3.51988   6.84672   2.04884   0.00000   1.001E+00   0.000E+00  -1.469E-03
 933  9.89604255   0.704  -2.12223   3.51988   6.84670   2.04878   0.00000   1.001E+00   0.000E+00  -1.468E-03
 934  9.89683630   0.704  -2.12218   3.51988   6.84669   2.04872   0.00000   1.001E+00   0.000E+00  -1.466E-03
 935  9.89762861   0.704  -2.12214   3.51988   6.84667   2.04866   0.00000   1.001E+00   0.000E+00  -1.465E-03
 936  9.89841948   0.704  -2.12210   3.51988   6.84666   2.04860   0.00000   1.001E+00   0.000E+00  -1.463E-03
 937  9.89920891   0.704  -2.12205   3.51988   6.84664   2.04853   0.00000   1.001E+00   0.000E+00  -1.462E-03
 938  9.89999691   0.704  -2.12201   3.51988   6.84662   2.04847   0.00000   1.001E+00   0.000E+00  -1.460E-03
 939  9.90078348   0.704  -2.12197   3.51988   6.84661   2.04841   0.00000   1.001E+00   0.000E+00  -1.458E-03
 940  9.90156863   0.704  -2.12192   3.51988   6.84659   2.04835   0.00000   1.001E+00   0.000E+00  -1.456E-03
 941  9.90235236   0.704  -2.12188   3.51988   6.84658   2.04829   0.00000   1.001E+00   0.000E+00  -1.454E-03
 942  9.90313468   0.704  -2.12184   3.51988   6.84656   2.04823   0.00000   1.001E+00   0.000E+00  -1.452E-03
 943  9.90391559   0.704  -2.12180   3.51988   6.84655   2.04817   0.00000   1.001E+00   0.000E+00  -1.450E-03
 944  9.90469511   0.704  -2.12175   3.51988   6.84653   2.04811   0.00000   1.001E+00   0.000E+00  -1.448E-03
 945  9.90547322   0.704  -2.12171   3.51988   6.84652   2.04805   0.00000   1.001E+00   0.000E+00  -1.445E-03
 946  9.90624994   0.704  -2.12167   3.51988   6.84650   2.04799   0.00000   1.001E+00   0.000E+00  -1.443E-03
 947  9.90702528   0.704  -2.12163   3.51988   6.84649   2.04793   0.00000   1.001E+00   0.000E+00  -1.441E-03
 948  9.90779924   0.704  -2.12158   3.51988   6.84647   2.04787   0.00000   1.001E+00   0.000E+00  -1.439E-03
 949  9.90857181   0.704  -2.12154   3.51988   6.84646   2.04781   0.00000   1.001E+00   0.000E+00  -1.437E-03
 950  9.90934302   0.704  -2.12150   3.51988   6.84644   2.04775   0.00000   1.001E+00   0.000E+00  -1.435E-03
 951  9.91011286   0.704  -2.12146   3.51988   6.84643   2.04769   0.00000   1.001E+00   0.000E+00  -1.432E-03
 952  9.91088134   0.704  -2.12141   3.51988   6.84641   2.04763   0.00000   1.001E+00   0.000E+00  -1.430E-03
 953  9.91164846   0.704  -2.12137   3.51988   6.84640   2.04757   0.00000   1.001E+00   0.000E+00  -1.428E-03
 954  9.91241422   0.704  -2.12133   3.51988   6.84638   2.04751   0.00000   1.001E+00   0.000E+00  -1.426E-03
 955  9.91317864   0.704  -2.12129   3.51988   6.84637   2.04745   0.00000   1.001E+00   0.000E+00  -1.424E-03
 956  9.91394172   0.704  -2.12125   3.51988   6.84635   2.04739   0.00000   1.001E+00   0.000E+00  -1.422E-03
 957  9.91470345   0.704  -2.12121   3.51988   6.84634   2.04733   0.00000   1.001E+00   0.000E+00  -1.419E-03
 958  9.91546386   0.704  -2.12116   3.51988   6.84633   2.04727   0.00000   1.001E+00   0.000E+00  -1.417E-03
 959  9.91622293   0.704  -2.12112   3.51988   6.84631   2.04721   0.00000   1.001E+00   0.000E+00  -1.415E-03
 960  9.91698068   0.704  -2.12108   3.51989   6.84630   2.04715   0.00000   1.001E+00   0.000E+00  -1.413E-03
 961  9.91773711   0.704  -2.12104   3.51989   6.84628   2.04709   0.00000   1.001E+00   0.000E+00  -1.411E-03
 962  9.91849223   0.704  -2.12100   3.51989   6.84627   2.04704   0.00000   1.001E+00   0.000E+00  -1.409E-03
 963  9.91924603   0.704  -2.12096   3.51989   6.84625   2.04698   0.00000   1.001E+00   0.000E+00  -1.406E-03
 964  9.91999853   0.704  -2.12091   3.51989   6.84624   2.04692   0.00000   1.001E+00   0.000E+00  -1.404E-03
 965  9.92074973   0.704  -2.12087   3.51989   6.84622   2.04686   0.00000   1.001E+00   0.000E+00  -1.402E-03
 966  9.92149963   0.704  -2.12083   3.51989   6.84621   2.04680   0.00000   1.001E+00   0.000E+00  -1.400E-03
 967  9.92224824   0.704  -2.12079   3.51989   6.84619   2.04674   0.00000   1.001E+00   0.000E+00  -1.399E-03
 968  9.92299556   0.704  -2.12075   3.51989   6.84618   2.04668   0.00000   1.001E+00   0.000E+00  -1.397E-03
 969  9.92374159   0.704  -2.12071   3.51989   6.84616   2.04662   0.00000   1.001E+00   0.000E+00  -1.396E-03
 970  9.92448635   0.704  -2.12067   3.51989   6.84615   2.04657   0.00000   1.001E+00   0.000E+00  -1.394E-03
 971  9.92522983   0.704  -2.12062   3.51989   6.84613   2.04651   0.00000   1.001E+00   0.000E+00  -1.393E-03
 972  9.92597204   0.704  -2.12058   3.51989   6.84612   2.04645   0.00000   1.001E+00   0.000E+00  -1.391E-03
 973  9.92671298   0.704  -2.12054   3.51990   6.84610   2.04639   0.00000   1.001E+00   0.000E+00  -1.390E-03
 974  9.92745266   0.704  -2.12050   3.51990   6.84609   2.04633   0.00000   1.001E+00   0.000E+00  -1.388E-03
 975  9.92819109   0.704  -2.12046   3.51990   6.84607   2.04627   0.00000   1.001E+00   0.000E+00  -1.387E-03
 976  9.92892826   0.704  -2.12042   3.51990   6.84606   2.04622   0.00000   1.001E+00   0.000E+00  -1.386E-03
 977  9.92966418   0.704  -2.12038   3.51990   6.84604   2.04616   0.00000   1.001E+00   0.000E+00  -1.384E-03
 978  9.93039886   0.704  -2.12034   3.51990   6.84603   2.04610   0.00000   1.001E+00   0.000E+00  -1.383E-03
 979  9.93113229   0.704  -2.12030   3.51990   6.84601   2.04604   0.00000   1.001E+00   0.000E+00  -1.381E-03
 980  9.93186449   0.704  -2.12026   3.51990   6.84600   2.04598   0.00000   1.001E+00   0.000E+00  -1.380E-03
 981  9.93259546   0.704  -2.12022   3.51990   6.84598   2.04593   0.00000   1.001E+00   0.000E+00  -1.378E-03
 982  9.93332520   0.704  -2.12017   3.51990   6.84597   2.04587   0.00000   1.001E+00   0.000E+00  -1.375E-03
 983  9.93405371   0.704  -2.12013   3.51990   6.84596   2.04581   0.00000   1.001E+00   0.000E+00  -1.373E-03
 984  9.93478101   0.704  -2.12009   3.51990   6.84594   2.04575   0.00000   1.001E+00   0.000E+00  -1.371E-03
 985  9.93550709   0.704  -2.12005   3.51990   6.84593   2.04570   0.00000   1.001E+00   0.000E+00  -1.369E-03
 986  9.93623196   0.704  -2.12001   3.51990   6.84591   2.04564   0.00000   1.001E+00   0.000E+00  -1.367E-03
 987  9.93695562   0.704  -2.11997   3.51990   6.84590   2.04558   0.00000   1.001E+00   0.000E+00  -1.365E-03
 988  9.93767807   0.704  -2.11993   3.51990   6.84588   2.04552   0.00000   1.001E+00   0.000E+00  -1.362E-03
 989  9.93839933   0.704  -2.11989   3.51990   6.84587   2.04546   0.00000   1.001E+00   0.000E+00  -1.360E-03
 990  9.93911939   0.704  -2.11985   3.51990   6.84585   2.04541   0.00000   1.001E+00   0.000E+00  -1.358E-03
 991  9.93983825   0.704  -2.11981   3.51990   6.84584   2.04535   0.00000   1.001E+00   0.000E+00  -1.356E-03
 992  9.94055593   0.704  -2.11977   3.51990   6.84583   2.04529   0.00000   1.001E+00   0.000E+00  -1.354E-03
 993  9.94127243   0.704  -2.11973   3.51990   6.84581   2.04523   0.00000   1.001E+00   0.000E+00  -1.352E-03
 994  9.94198775   0.704  -2.11969   3.51990   6.84580   2.04518   0.00000   1.001E+00   0.000E+00  -1.349E-03
 995  9.94270189   0.704  -2.11965   3.51990   6.84578   2.04512   0.00000   1.001E+00   0.000E+00  -1.346E-03
 996  9.94341485   0.704  -2.11961   3.51990   6.84577   2.04507   0.00000   1.001E+00   0.000E+00  -1.344E-03
 997  9.94412665   0.704  -2.11957   3.51990   6.84576   2.04501   0.00000   1.001E+00   0.000E+00  -1.341E-03
 998  9.94483729   0.704  -2.11954   3.51990   6.84574   2.04496   0.00000   1.001E+00   0.000E+00  -1.338E-03
 999  9.94554676   0.704  -2.11950   3.51990   6.84573   2.04490   0.00000   1.001E+00   0.000E+00  -1.335E-03
1000  9.94625507   0.704  -2.11946   3.51990   6.84571   2.04484   0.00000   1.001E+00   0.000E+00  -1.332E-03
1001  9.94696224   0.704  -2.11942   3.51991   6.84570   2.04479   0.00000   1.001E+00   0.000E+00  -1.329E-03
1002  9.94766825   0.704  -2.11938   3.51991   6.84569   2.04473   0.00000   1.001E+00   0.000E+00  -1.326E-03
1003  9.94837312   0.704  -2.11934   3.51991   6.84567   2.04468   0.00000   1.001E+00   0.000E+00  -1.323E-03
1004  9.94907684   0.704  -2.11930   3.51991   6.84566   2.04462   0.00000   1.001E+00   0.000E+00  -1.321E-03
1005  9.94977943   0.704  -2.11926   3.51991   6.84565   2.04457   0.00000   1.001E+00   0.000E+00  -1.318E-03
1006  9.95048088   0.704  -2.11922   3.51991   6.84563   2.04451   0.00000   1.001E+00   0.000E+00  -1.315E-03
1007  9.95118120   0.704  -2.11919   3.51991   6.84562   2.04446   0.00000   1.001E+00   0.000E+00  -1.312E-03
1008  9.95188039   0.704  -2.11915   3.51991   6.84561   2.04440   0.00000   1.001E+00   0.000E+00  -1.309E-03
1009  9.95257846   0.704  -2.11911   3.51991   6.84559   2.04435   0.00000   1.001E+00   0.000E+00  -1.307E-03
1010  9.95327541   0.704  -2.11907   3.51991   6.84558   2.04429   0.00000   1.001E+00   0.000E+00  -1.305E-03
1011  9.95397124   0.704  -2.11903   3.51991   6.84556   2.04424   0.00000   1.001E+00   0.000E+00  -1.303E-03
1012  9.95466596   0.704  -2.11899   3.51991   6.84555   2.04419   0.00000   1.001E+00   0.000E+00  -1.301E-03
1013  9.95535957   0.704  -2.11895   3.51991   6.84554   2.04413   0.00000   1.001E+00   0.000E+00  -1.298E-03
1014  9.95605208   0.704  -2.11891   3.51991   6.84552   2.04408   0.00000   1.001E+00   0.000E+00  -1.296E-03
1015  9.95674348   0.704  -2.11887   3.51991   6.84551   2.04402   0.00000   1.001E+00   0.000E+00  -1.294E-03
1016  9.95743378   0.704  -2.11884   3.51991   6.84550   2.04397   0.00000   1.001E+00   0.000E+00  -1.292E-03
1017  9.95812299   0.704  -2.11880   3.51991   6.84548   2.04392   0.00000   1.001E+00   0.000E+00  -1.290E-03
1018  9.95881110   0.704  -2.11876   3.51991   6.84547   2.04386   0.00000   1.001E+00   0.000E+00  -1.288E-03
1019  9.95949813   0.703  -2.11872   3.51991   6.84545   2.04381   0.00000   1.001E+00   0.000E+00  -1.286E-03
1020  9.96018407   0.703  -2.11868   3.51991   6.84544   2.04375   0.00000   1.001E+00   0.000E+00  -1.283E-03
1021  9.96086893   0.703  -2.11864   3.51991   6.84543   2.04370   0.00000   1.001E+00   0.000E+00  -1.281E-03
1022  9.96155271   0.703  -2.11860   3.51991   6.84541   2.04365   0.00000   1.001E+00   0.000E+00  -1.279E-03
1023  9.96223542   0.703  -2.11857   3.51991   6.84540   2.04359   0.00000   1.001E+00   0.000E+00  -1.278E-03
1024  9.96291705   0.703  -2.11853   3.51991   6.84539   2.04354   0.00000   1.001E+00   0.000E+00  -1.276E-03
1025  9.96359762   0.703  -2.11849   3.51991   6.84538   2.04348   0.00000   1.001E+00   0.000E+00  -1.275E-03
1026  9.96427712   0.703  -2.11845   3.51991   6.84536   2.04343   0.00000   1.001E+00   0.000E+00  -1.274E-03
1027  9.96495556   0.703  -2.11842   3.51991   6.84535   2.04338   0.00000   1.001E+00   0.000E+00  -1.272E-03
1028  9.96563294   0.703  -2.11838   3.51991   6.84534   2.04332   0.00000   1.001E+00   0.000E+00  -1.271E-03
1029  9.96630927   0.703  -2.11834   3.51992   6.84532   2.04327   0.00000   1.001E+00   0.000E+00  -1.269E-03
1030  9.96698454   0.703  -2.11830   3.51992   6.84531   2.04321   0.00000   1.001E+00   0.000E+00  -1.268E-03
1031  9.96765877   0.703  -2.11827   3.51992   6.84530   2.04316   0.00000   1.001E+00   0.000E+00  -1.266E-03
1032  9.96833195   0.703  -2.11823   3.51992   6.84528   2.04311   0.00000   1.001E+00   0.000E+00  -1.265E-03
1033  9.96900409   0.703  -2.11819   3.51992   6.84527   2.04305   0.00000   1.001E+00   0.000E+00  -1.264E-03
1034  9.96967519   0.703  -2.11815   3.51992   6.84526   2.04300   0.00000   1.001E+00   0.000E+00  -1.262E-03
1035  9.97034526   0.703  -2.11812   3.51992   6.84525   2.04294   0.00000   1.001E+00   0.000E+00  -1.261E-03
1036  9.97101429   0.703  -2.11808   3.51992   6.84523   2.04289   0.00000   1.001E+00   0.000E+00  -1.259E-03
1037  9.97168230   0.703  -2.11804   3.51992   6.84522   2.04284   0.00000   1.001E+00   0.000E+00  -1.258E-03
1038  9.97234928   0.703  -2.11800   3.51992   6.84521   2.04278   0.00000   1.001E+00   0.000E+00  -1.256E-03
1039  9.97301523   0.703  -2.11797   3.51992   6.84519   2.04273   0.00000   1.001E+00   0.000E+00  -1.255E-03
1040  9.97368017   0.703  -2.11793   3.51992   6.84518   2.04268   0.00000   1.001E+00   0.000E+00  -1.253E-03
1041  9.97434409   0.703  -2.11789   3.51992   6.84517   2.04262   0.00000   1.001E+00   0.000E+00  -1.252E-03
1042  9.97500700   0.703  -2.11785   3.51992   6.84516   2.04257   0.00000   1.001E+00   0.000E+00  -1.251E-03
1043  9.97566889   0.703  -2.11782   3.51993   6.84514   2.04252   0.00000   1.001E+00   0.000E+00  -1.249E-03
1044  9.97632978   0.703  -2.11778   3.51993   6.84513   2.04246   0.00000   1.001E+00   0.000E+00  -1.248E-03
1045  9.97698967   0.703  -2.11774   3.51993   6.84512   2.04241   0.00000   1.001E+00   0.000E+00  -1.246E-03
1046  9.97764855   0.703  -2.11770   3.51993   6.84510   2.04236   0.00000   1.001E+00   0.000E+00  -1.245E-03
1047  9.97830644   0.703  -2.11767   3.51993   6.84509   2.04230   0.00000   1.001E+00   0.000E+00  -1.243E-03
1048  9.97896333   0.703  -2.11763   3.51993   6.84508   2.04225   0.00000   1.001E+00   0.000E+00  -1.242E-03
1049  9.97961923   0.703  -2.11759   3.51993   6.84506   2.04220   0.00000   1.001E+00   0.000E+00  -1.240E-03
1050  9.98027414   0.703  -2.11756   3.51993   6.84505   2.04215   0.00000   1.001E+00   0.000E+00  -1.239E-03
1051  9.98092806   0.703  -2.11752   3.51993   6.84504   2.04209   0.00000   1.001E+00   0.000E+00  -1.238E-03
1052  9.98158100   0.703  -2.11748   3.51993   6.84503   2.04204   0.00000   1.001E+00   0.000E+00  -1.236E-03
1053  9.98223296   0.703  -2.11745   3.51993   6.84501   2.04199   0.00000   1.001E+00   0.000E+00  -1.235E-03
1054  9.98288394   0.703  -2.11741   3.51993   6.84500   2.04194   0.00000   1.001E+00   0.000E+00  -1.233E-03
1055  9.98353395   0.703  -2.11737   3.51993   6.84499   2.04189   0.00000   1.001E+00   0.000E+00  -1.232E-03
1056  9.98418299   0.703  -2.11734   3.51993   6.84497   2.04183   0.00000   1.001E+00   0.000E+00  -1.230E-03
1057  9.98483106   0.703  -2.11730   3.51993   6.84496   2.04178   0.00000   1.001E+00   0.000E+00  -1.229E-03
1058  9.98547816   0.703  -2.11726   3.51993   6.84495   2.04173   0.00000   1.001E+00   0.000E+00  -1.228E-03
1059  9.98612430   0.703  -2.11722   3.51993   6.84493   2.04168   0.00000   1.001E+00   0.000E+00  -1.226E-03
1060  9.98676948   0.703  -2.11719   3.51993   6.84492   2.04163   0.00000   1.001E+00   0.000E+00  -1.225E-03
1061  9.98741370   0.703  -2.11715   3.51993   6.84491   2.04158   0.00000   1.001E+00   0.000E+00  -1.223E-03
1062  9.98805697   0.703  -2.11711   3.51993   6.84490   2.04152   0.00000   1.001E+00   0.000E+00  -1.222E-03
1063  9.98869929   0.703  -2.11708   3.51993   6.84488   2.04147   0.00000   1.001E+00   0.000E+00  -1.220E-03
1064  9.98934066   0.703  -2.11704   3.51993   6.84487   2.04142   0.00000   1.001E+00   0.000E+00  -1.218E-03
1065  9.98998108   0.703  -2.11701   3.51993   6.84486   2.04137   0.00000   1.001E+00   0.000E+00  -1.216E-03
1066  9.99062056   0.703  -2.11697   3.51993   6.84485   2.04132   0.00000   1.001E+00   0.000E+00  -1.214E-03
1067  9.99125910   0.703  -2.11693   3.51993   6.84483   2.04126   0.00000   1.001E+00   0.000E+00  -1.212E-03
1068  9.99189670   0.703  -2.11690   3.51993   6.84482   2.04121   0.00000   1.001E+00   0.000E+00  -1.210E-03
1069  9.99253337   0.703  -2.11686   3.51993   6.84481   2.04116   0.00000   1.001E+00   0.000E+00  -1.208E-03
1070  9.99316911   0.703  -2.11683   3.51993   6.84480   2.04111   0.00000   1.001E+00   0.000E+00  -1.205E-03
1071  9.99380391   0.703  -2.11679   3.51994   6.84478   2.04106   0.00000   1.001E+00   0.000E+00  -1.203E-03
1072  9.99443779   0.703  -2.11675   3.51994   6.84477   2.04100   0.00000   1.001E+00   0.000E+00  -1.201E-03
1073  9.99507075   0.703  -2.11672   3.51994   6.84476   2.04095   0.00000   1.001E+00   0.000E+00  -1.199E-03
1074  9.99570279   0.703  -2.11668   3.51994   6.84475   2.04090   0.00000   1.001E+00   0.000E+00  -1.197E-03
1075  9.99633390   0.703  -2.11665   3.51994   6.84474   2.04085   0.00000   1.001E+00   0.000E+00  -1.195E-03
1076  9.99696410   0.703  -2.11661   3.51994   6.84472   2.04080   0.00000   1.001E+00   0.000E+00  -1.192E-03
1077  9.99759339   0.703  -2.11657   3.51994   6.84471   2.04075   0.00000   1.001E+00   0.000E+00  -1.190E-03
1078  9.99822177   0.703  -2.11654   3.51994   6.84470   2.04070   0.00000   1.001E+00   0.000E+00  -1.189E-03
1079  9.99884924   0.703  -2.11650   3.51994   6.84469   2.04064   0.00000   1.001E+00   0.000E+00  -1.187E-03
1080  9.99947580   0.703  -2.11647   3.51994   6.84467   2.04059   0.00000   1.001E+00   0.000E+00  -1.186E-03
1081 10.00010146   0.703  -2.11643   3.51994   6.84466   2.04054   0.00000   1.001E+00   0.000E+00  -1.184E-03
1082 10.00072622   0.703  -2.11639   3.51994   6.84465   2.04049   0.00000   1.001E+00   0.000E+00  -1.183E-03
1083 10.00135009   0.703  -2.11636   3.51994   6.84463   2.04044   0.00000   1.001E+00   0.000E+00  -1.182E-03
1084 10.00197306   0.703  -2.11632   3.51994   6.84462   2.04039   0.00000   1.001E+00   0.000E+00  -1.180E-03
1085 10.00259513   0.703  -2.11629   3.51994   6.84461   2.04034   0.00000   1.001E+00   0.000E+00  -1.179E-03
1086 10.00321632   0.703  -2.11625   3.51994   6.84459   2.04029   0.00000   1.001E+00   0.000E+00  -1.177E-03
1087 10.00383662   0.703  -2.11621   3.51994   6.84458   2.04024   0.00000   1.001E+00   0.000E+00  -1.176E-03
1088 10.00445603   0.703  -2.11618   3.51994   6.84457   2.04019   0.00000   1.001E+00   0.000E+00  -1.174E-03
1089 10.00507457   0.703  -2.11614   3.51994   6.84456   2.04014   0.00000   1.001E+00   0.000E+00  -1.173E-03
1090 10.00569222   0.703  -2.11611   3.51994   6.84454   2.04009   0.00000   1.001E+00   0.000E+00  -1.171E-03
1091 10.00630900   0.703  -2.11607   3.51994   6.84453   2.04004   0.00000   1.001E+00   0.000E+00  -1.170E-03
