 # M = 0.55 Mo, Y = 0.2700, Z = 2.00000E-02, alpha = 1.68, X_D = 2.0E-05
 # Solar Mixture: Asplund et al. (2005)         
 # ------------------------------------------------------------------------------------------------------------
 # NMD   LOG AGE    Xc      LOG L     LOG TE    LOG Tc   LOG RHOc    M-CC       L-PP       L-CNO       L-GRA
 #        (yr)              (Lo)        (K)       (K)   (gr/cm^3)    (Mo)        (L)         (L)         (L)
 # ------------------------------------------------------------------------------------------------------------
   1  4.94069447   0.710   0.46463   3.59531   6.08024  -0.98113   0.00000   8.850E-01   0.000E+00   1.150E-01
   2  5.07014397   0.710   0.45636   3.59528   6.08417  -0.96932   0.00000   8.829E-01   0.000E+00   1.171E-01
   3  5.16973812   0.710   0.44867   3.59525   6.08781  -0.95837   0.00000   8.851E-01   0.000E+00   1.149E-01
   4  5.25069961   0.710   0.44139   3.59522   6.09126  -0.94800   0.00000   8.903E-01   0.000E+00   1.097E-01
   5  5.31891356   0.710   0.43450   3.59519   6.09453  -0.93820   0.00000   8.944E-01   0.000E+00   1.057E-01
   6  5.37785345   0.710   0.42801   3.59516   6.09759  -0.92900   0.00000   8.973E-01   0.000E+00   1.029E-01
   7  5.42974184   0.710   0.42152   3.59512   6.10065  -0.91980   0.00000   9.002E-01   0.000E+00   1.001E-01
   8  5.47608713   0.710   0.41515   3.59508   6.10364  -0.91081   0.00000   9.003E-01   0.000E+00   1.000E-01
   9  5.51796014   0.710   0.40884   3.59504   6.10661  -0.90190   0.00000   8.993E-01   0.000E+00   1.009E-01
  10  5.55614857   0.710   0.40252   3.59499   6.10957  -0.89298   0.00000   8.983E-01   0.000E+00   1.017E-01
  11  5.59124875   0.710   0.39601   3.59495   6.11262  -0.88382   0.00000   8.957E-01   0.000E+00   1.043E-01
  12  5.62372299   0.710   0.38940   3.59490   6.11572  -0.87453   0.00000   8.922E-01   0.000E+00   1.078E-01
  13  5.65393701   0.710   0.38279   3.59485   6.11881  -0.86523   0.00000   8.888E-01   0.000E+00   1.112E-01
  14  5.68218506   0.710   0.37582   3.59480   6.12206  -0.85547   0.00000   8.836E-01   0.000E+00   1.164E-01
  15  5.70870743   0.710   0.36848   3.59473   6.12547  -0.84523   0.00000   8.766E-01   0.000E+00   1.234E-01
  16  5.73370289   0.710   0.36113   3.59466   6.12888  -0.83499   0.00000   8.697E-01   0.000E+00   1.303E-01
  17  5.75733770   0.710   0.35327   3.59458   6.13253  -0.82403   0.00000   8.605E-01   0.000E+00   1.395E-01
  18  5.77975240   0.710   0.34481   3.59449   6.13645  -0.81225   0.00000   8.488E-01   0.000E+00   1.512E-01
  19  5.80106679   0.710   0.33635   3.59440   6.14037  -0.80047   0.00000   8.370E-01   0.000E+00   1.630E-01
  20  5.82138386   0.710   0.32675   3.59429   6.14480  -0.78715   0.00000   8.199E-01   0.000E+00   1.801E-01
  21  5.84079279   0.710   0.31675   3.59417   6.14940  -0.77331   0.00000   8.008E-01   0.000E+00   1.992E-01
  22  5.85937131   0.710   0.30602   3.59404   6.15433  -0.75851   0.00000   7.779E-01   0.000E+00   2.221E-01
  23  5.87718755   0.710   0.29408   3.59387   6.15978  -0.74212   0.00000   7.484E-01   0.000E+00   2.516E-01
  24  5.89430163   0.710   0.28135   3.59368   6.16560  -0.72465   0.00000   7.133E-01   0.000E+00   2.867E-01
  25  5.91076678   0.710   0.26730   3.59348   6.17203  -0.70536   0.00000   6.691E-01   0.000E+00   3.309E-01
  26  5.92663044   0.710   0.25164   3.59322   6.17912  -0.68405   0.00000   6.141E-01   0.000E+00   3.859E-01
  27  5.94193500   0.710   0.23474   3.59293   6.18674  -0.66113   0.00000   5.501E-01   0.000E+00   4.499E-01
  28  5.95671854   0.710   0.21628   3.59261   6.19505  -0.63612   0.00000   4.744E-01   0.000E+00   5.256E-01
  29  5.97101536   0.710   0.19616   3.59222   6.20408  -0.60901   0.00000   3.899E-01   0.000E+00   6.101E-01
  30  5.98485650   0.710   0.17479   3.59178   6.21366  -0.58029   0.00000   3.025E-01   0.000E+00   6.975E-01
  31  5.99827011   0.710   0.15258   3.59130   6.22351  -0.55069   0.00000   2.214E-01   0.000E+00   7.786E-01
  32  6.01128180   0.710   0.13012   3.59080   6.23346  -0.52086   0.00000   1.533E-01   0.000E+00   8.467E-01
  33  6.02391497   0.710   0.10790   3.59026   6.24326  -0.49146   0.00000   1.005E-01   0.000E+00   8.995E-01
  34  6.03619102   0.710   0.08628   3.58972   6.25278  -0.46290   0.00000   6.259E-02   0.000E+00   9.374E-01
  35  6.04812959   0.710   0.06549   3.58918   6.26186  -0.43564   0.00000   3.766E-02   0.000E+00   9.623E-01
  36  6.05974873   0.710   0.04571   3.58864   6.27048  -0.40976   0.00000   2.350E-02   0.000E+00   9.765E-01
  37  6.07106509   0.710   0.02692   3.58812   6.27860  -0.38535   0.00000   1.558E-02   0.000E+00   9.844E-01
  38  6.08209406   0.710   0.00909   3.58761   6.28628  -0.36226   0.00000   1.028E-02   0.000E+00   9.897E-01
  39  6.09284987   0.710  -0.00785   3.58711   6.29356  -0.34038   0.00000   7.021E-03   0.000E+00   9.930E-01
  40  6.10334572   0.710  -0.02403   3.58662   6.30049  -0.31957   0.00000   4.640E-03   0.000E+00   9.954E-01
  41  6.11359388   0.710  -0.03947   3.58615   6.30708  -0.29972   0.00000   3.000E-03   0.000E+00   9.970E-01
  42  6.15080406   0.710  -0.09233   3.58445   6.32954  -0.23215   0.00000   1.972E-04   0.000E+00   9.998E-01
  43  6.18507616   0.710  -0.13759   3.58295   6.34870  -0.17455   0.00000   0.000E+00   0.000E+00   1.000E+00
  44  6.21684041   0.710  -0.17700   3.58163   6.36536  -0.12441   0.00000   0.000E+00   0.000E+00   1.000E+00
  45  6.24643892   0.710  -0.21194   3.58047   6.38014  -0.07993   0.00000   0.000E+00   0.000E+00   1.000E+00
  46  6.27414827   0.710  -0.24319   3.57943   6.39338  -0.04010   0.00000   0.000E+00   0.000E+00   1.000E+00
  47  6.30019521   0.710  -0.27144   3.57850   6.40537  -0.00401   0.00000   0.000E+00   0.000E+00   1.000E+00
  48  6.32476797   0.710  -0.29722   3.57768   6.41637   0.02908   0.00000   0.000E+00   0.000E+00   1.000E+00
  49  6.34802453   0.710  -0.32104   3.57692   6.42654   0.05970   0.00000   0.000E+00   0.000E+00   1.000E+00
  50  6.37009874   0.710  -0.34291   3.57624   6.43591   0.08791   0.00000   0.000E+00   0.000E+00   1.000E+00
  51  6.39110503   0.710  -0.36323   3.57563   6.44467   0.11426   0.00000   0.000E+00   0.000E+00   1.000E+00
  52  6.41114198   0.710  -0.38228   3.57507   6.45288   0.13900   0.00000   0.000E+00   0.000E+00   1.000E+00
  53  6.43029511   0.710  -0.40015   3.57456   6.46062   0.16230   0.00000   0.000E+00   0.000E+00   1.000E+00
  54  6.44863912   0.710  -0.41702   3.57407   6.46793   0.18433   0.00000   0.000E+00   0.000E+00   1.000E+00
  55  6.46623960   0.710  -0.43297   3.57362   6.47486   0.20519   0.00000   0.000E+00   0.000E+00   1.000E+00
  56  6.48315448   0.710  -0.44798   3.57321   6.48140   0.22489   0.00000   0.000E+00   0.000E+00   1.000E+00
  57  6.49943519   0.710  -0.46229   3.57282   6.48764   0.24371   0.00000   0.000E+00   0.000E+00   1.000E+00
  58  6.51512756   0.710  -0.47601   3.57244   6.49363   0.26177   0.00000   0.000E+00   0.000E+00   1.000E+00
  59  6.53027264   0.710  -0.48916   3.57209   6.49938   0.27909   0.00000   0.000E+00   0.000E+00   1.000E+00
  60  6.54490731   0.710  -0.50155   3.57177   6.50481   0.29547   0.00000   0.000E+00   0.000E+00   1.000E+00
  61  6.55906487   0.710  -0.51358   3.57145   6.51009   0.31137   0.00000   0.000E+00   0.000E+00   1.000E+00
  62  6.57277544   0.710  -0.52515   3.57115   6.51516   0.32667   0.00000   0.000E+00   0.000E+00   1.000E+00
  63  6.58606638   0.710  -0.53616   3.57087   6.52000   0.34125   0.00000   0.000E+00   0.000E+00   1.000E+00
  64  6.59896262   0.710  -0.54697   3.57059   6.52476   0.35559   0.00000   0.000E+00   0.000E+00   1.000E+00
  65  6.61148692   0.710  -0.55717   3.57032   6.52924   0.36909   0.00000   0.000E+00   0.000E+00   1.000E+00
  66  6.62366015   0.710  -0.56724   3.57006   6.53367   0.38244   0.00000   0.000E+00   0.000E+00   1.000E+00
  67  6.63550145   0.710  -0.57679   3.56982   6.53788   0.39512   0.00000   0.000E+00   0.000E+00   1.000E+00
  68  6.64702844   0.710  -0.58620   3.56959   6.54203   0.40762   0.00000   0.000E+00   0.000E+00   1.000E+00
  69  6.65825738   0.710  -0.59518   3.56936   6.54598   0.41955   0.00000   0.000E+00   0.000E+00   1.000E+00
  70  6.66920328   0.710  -0.60408   3.56913   6.54991   0.43138   0.00000   0.000E+00   0.000E+00   1.000E+00
  71  6.67988008   0.710  -0.61250   3.56892   6.55362   0.44258   0.00000   0.000E+00   0.000E+00   1.000E+00
  72  6.69030068   0.710  -0.62092   3.56872   6.55733   0.45379   0.00000   0.000E+00   0.000E+00   1.000E+00
  73  6.70047709   0.710  -0.62888   3.56852   6.56084   0.46437   0.00000   0.000E+00   0.000E+00   1.000E+00
  74  6.71042050   0.710  -0.63678   3.56832   6.56433   0.47490   0.00000   0.000E+00   0.000E+00   1.000E+00
  75  6.72014134   0.710  -0.64443   3.56813   6.56771   0.48508   0.00000   0.000E+00   0.000E+00   1.000E+00
  76  6.72964935   0.710  -0.65185   3.56794   6.57099   0.49497   0.00000   0.000E+00   0.000E+00   1.000E+00
  77  6.73895365   0.710  -0.65927   3.56776   6.57426   0.50485   0.00000   0.000E+00   0.000E+00   1.000E+00
  78  6.74806279   0.710  -0.66624   3.56758   6.57734   0.51413   0.00000   0.000E+00   0.000E+00   1.000E+00
  79  6.75698479   0.710  -0.67321   3.56741   6.58041   0.52342   0.00000   0.000E+00   0.000E+00   1.000E+00
  80  6.76572718   0.710  -0.68005   3.56724   6.58343   0.53253   0.00000   0.000E+00   0.000E+00   1.000E+00
  81  6.77429705   0.710  -0.68658   3.56708   6.58632   0.54125   0.00000   0.000E+00   0.000E+00   1.000E+00
  82  6.78270108   0.710  -0.69311   3.56692   6.58921   0.54998   0.00000   0.000E+00   0.000E+00   1.000E+00
  83  6.79094557   0.710  -0.69947   3.56676   6.59202   0.55846   0.00000   0.000E+00   0.000E+00   1.000E+00
  84  6.79903646   0.710  -0.70562   3.56661   6.59474   0.56666   0.00000   0.000E+00   0.000E+00   1.000E+00
  85  6.80697937   0.710  -0.71176   3.56646   6.59745   0.57485   0.00000   0.000E+00   0.000E+00   1.000E+00
  86  6.81477962   0.710  -0.71775   3.56632   6.60011   0.58286   0.00000   0.000E+00   0.000E+00   1.000E+00
  87  6.82244223   0.710  -0.72351   3.56618   6.60266   0.59056   0.00000   0.000E+00   0.000E+00   1.000E+00
  88  6.82997199   0.710  -0.72926   3.56604   6.60521   0.59826   0.00000   0.000E+00   0.000E+00   1.000E+00
  89  6.83737342   0.710  -0.73497   3.56590   6.60774   0.60590   0.00000   0.000E+00   0.000E+00   1.000E+00
  90  6.84465082   0.710  -0.74037   3.56577   6.61014   0.61314   0.00000   0.000E+00   0.000E+00   1.000E+00
  91  6.85180829   0.710  -0.74578   3.56564   6.61253   0.62038   0.00000   0.000E+00   0.000E+00   1.000E+00
  92  6.85884970   0.710  -0.75118   3.56552   6.61493   0.62762   0.00000   0.000E+00   0.000E+00   1.000E+00
  93  6.86577876   0.710  -0.75636   3.56539   6.61723   0.63457   0.00000   0.000E+00   0.000E+00   1.000E+00
  94  6.87259901   0.710  -0.76143   3.56527   6.61948   0.64137   0.00000   0.000E+00   0.000E+00   1.000E+00
  95  6.87931381   0.710  -0.76649   3.56516   6.62173   0.64817   0.00000   0.000E+00   0.000E+00   1.000E+00
  96  6.88592636   0.710  -0.77156   3.56504   6.62398   0.65497   0.00000   0.000E+00   0.000E+00   1.000E+00
  97  6.89243975   0.710  -0.77632   3.56493   6.62607   0.66141   0.00000   0.000E+00   0.000E+00   1.000E+00
  98  6.89885688   0.710  -0.78107   3.56482   6.62815   0.66783   0.00000   0.000E+00   0.000E+00   1.000E+00
  99  6.90518058   0.710  -0.78582   3.56471   6.63023   0.67425   0.00000   0.000E+00   0.000E+00   1.000E+00
 100  6.91141352   0.710  -0.79057   3.56460   6.63231   0.68067   0.00000   0.000E+00   0.000E+00   1.000E+00
 101  6.91755826   0.710  -0.79502   3.56450   6.63421   0.68676   0.00000   0.000E+00   0.000E+00   1.000E+00
 102  6.92361728   0.710  -0.79948   3.56440   6.63611   0.69286   0.00000   0.000E+00   0.000E+00   1.000E+00
 103  6.92959293   0.710  -0.80393   3.56429   6.63802   0.69895   0.00000   0.000E+00   0.000E+00   1.000E+00
 104  6.93548747   0.710  -0.80838   3.56419   6.63992   0.70504   0.00000   0.000E+00   0.000E+00   1.000E+00
 105  6.94130308   0.710  -0.81261   3.56410   6.64169   0.71089   0.00000   0.000E+00   0.000E+00   1.000E+00
 106  6.94704184   0.710  -0.81678   3.56401   6.64343   0.71668   0.00000   0.000E+00   0.000E+00   1.000E+00
 107  6.95270575   0.710  -0.82095   3.56392   6.64517   0.72247   0.00000   0.000E+00   0.000E+00   1.000E+00
 108  6.95829675   0.710  -0.82513   3.56382   6.64692   0.72825   0.00000   0.000E+00   0.000E+00   1.000E+00
 109  6.96381669   0.710  -0.82922   3.56373   6.64861   0.73395   0.00000   0.000E+00   0.000E+00   1.000E+00
 110  6.96926734   0.710  -0.83312   3.56365   6.65021   0.73945   0.00000   0.000E+00   0.000E+00   1.000E+00
 111  6.97465043   0.710  -0.83703   3.56356   6.65180   0.74494   0.00000   0.000E+00   0.000E+00   1.000E+00
 112  6.97996762   0.710  -0.84093   3.56348   6.65340   0.75044   0.00000   0.000E+00   0.000E+00   1.000E+00
 113  6.98522049   0.710  -0.84483   3.56339   6.65499   0.75593   0.00000   0.000E+00   0.000E+00   1.000E+00
 114  6.99041059   0.710  -0.84861   3.56331   6.65652   0.76129   0.00000   0.000E+00   0.000E+00   1.000E+00
 115  6.99553939   0.710  -0.85227   3.56323   6.65799   0.76651   0.00000   0.000E+00   0.000E+00   1.000E+00
 116  7.00060833   0.710  -0.85593   3.56315   6.65945   0.77173   0.00000   0.000E+00   0.000E+00   1.000E+00
 117  7.00561879   0.710  -0.85958   3.56308   6.66092   0.77695   0.00000   0.000E+00   0.000E+00   1.000E+00
 118  7.01057211   0.710  -0.86324   3.56300   6.66238   0.78217   0.00000   0.000E+00   0.000E+00   1.000E+00
 119  7.01546956   0.710  -0.86681   3.56292   6.66380   0.78729   0.00000   6.941E-05   0.000E+00   9.999E-01
 120  7.02031240   0.710  -0.87022   3.56285   6.66515   0.79225   0.00000   2.523E-04   0.000E+00   9.997E-01
 121  7.02510184   0.710  -0.87363   3.56278   6.66649   0.79721   0.00000   4.351E-04   0.000E+00   9.996E-01
 122  7.02983903   0.710  -0.87705   3.56272   6.66784   0.80218   0.00000   6.180E-04   0.000E+00   9.994E-01
 123  7.03452511   0.710  -0.88046   3.56265   6.66918   0.80714   0.00000   8.008E-04   0.000E+00   9.992E-01
 124  7.03916116   0.710  -0.88388   3.56258   6.67053   0.81210   0.00000   9.837E-04   0.000E+00   9.990E-01
 125  7.04374825   0.710  -0.88708   3.56251   6.67178   0.81684   0.00000   1.000E-03   0.000E+00   9.990E-01
 126  7.04828739   0.710  -0.89027   3.56245   6.67301   0.82155   0.00000   1.000E-03   0.000E+00   9.990E-01
 127  7.05277958   0.710  -0.89346   3.56239   6.67425   0.82627   0.00000   1.000E-03   0.000E+00   9.990E-01
 128  7.05722578   0.710  -0.89664   3.56233   6.67549   0.83099   0.00000   1.000E-03   0.000E+00   9.990E-01
 129  7.06162692   0.710  -0.89983   3.56227   6.67673   0.83571   0.00000   1.000E-03   0.000E+00   9.990E-01
 130  7.06598391   0.710  -0.90301   3.56221   6.67796   0.84041   0.00000   1.000E-03   0.000E+00   9.990E-01
 131  7.07029762   0.710  -0.90598   3.56215   6.67910   0.84489   0.00000   1.000E-03   0.000E+00   9.990E-01
 132  7.07456890   0.710  -0.90895   3.56210   6.68025   0.84937   0.00000   1.000E-03   0.000E+00   9.990E-01
 133  7.07879859   0.710  -0.91192   3.56204   6.68139   0.85386   0.00000   1.000E-03   0.000E+00   9.990E-01
 134  7.08298748   0.710  -0.91490   3.56198   6.68254   0.85834   0.00000   1.000E-03   0.000E+00   9.990E-01
 135  7.08713635   0.710  -0.91787   3.56193   6.68368   0.86282   0.00000   1.000E-03   0.000E+00   9.990E-01
 136  7.09124596   0.710  -0.92084   3.56187   6.68482   0.86730   0.00000   1.000E-03   0.000E+00   9.990E-01
 137  7.09531705   0.710  -0.92366   3.56182   6.68590   0.87160   0.00000   1.000E-03   0.000E+00   9.990E-01
 138  7.09935033   0.710  -0.92643   3.56177   6.68695   0.87586   0.00000   1.000E-03   0.000E+00   9.990E-01
 139  7.10334650   0.710  -0.92920   3.56172   6.68801   0.88012   0.00000   1.000E-03   0.000E+00   9.990E-01
 140  7.10730623   0.710  -0.93197   3.56167   6.68907   0.88438   0.00000   1.000E-03   0.000E+00   9.990E-01
 141  7.11123018   0.710  -0.93475   3.56163   6.69012   0.88864   0.00000   1.000E-03   0.000E+00   9.990E-01
 142  7.11511900   0.710  -0.93752   3.56158   6.69118   0.89289   0.00000   1.000E-03   0.000E+00   9.990E-01
 143  7.11897330   0.710  -0.94028   3.56153   6.69223   0.89714   0.00000   1.000E-03   0.000E+00   9.990E-01
 144  7.12279370   0.710  -0.94286   3.56148   6.69321   0.90119   0.00000   1.000E-03   0.000E+00   9.990E-01
 145  7.12658079   0.710  -0.94543   3.56144   6.69418   0.90523   0.00000   1.000E-03   0.000E+00   9.990E-01
 146  7.13033513   0.710  -0.94801   3.56140   6.69516   0.90928   0.00000   1.000E-03   0.000E+00   9.990E-01
 147  7.13405730   0.710  -0.95059   3.56136   6.69614   0.91333   0.00000   1.000E-03   0.000E+00   9.990E-01
 148  7.13774784   0.710  -0.95316   3.56131   6.69712   0.91737   0.00000   1.000E-03   0.000E+00   9.990E-01
 149  7.14140728   0.710  -0.95574   3.56127   6.69810   0.92142   0.00000   1.000E-03   0.000E+00   9.990E-01
 150  7.14503614   0.710  -0.95832   3.56123   6.69908   0.92547   0.00000   1.000E-03   0.000E+00   9.990E-01
 151  7.14863493   0.710  -0.96074   3.56119   6.69999   0.92934   0.00000   1.107E-03   0.000E+00   9.989E-01
 152  7.15220415   0.710  -0.96314   3.56115   6.70090   0.93319   0.00000   1.236E-03   0.000E+00   9.988E-01
 153  7.15574427   0.710  -0.96554   3.56111   6.70180   0.93703   0.00000   1.365E-03   0.000E+00   9.986E-01
 154  7.15925577   0.710  -0.96793   3.56108   6.70271   0.94087   0.00000   1.494E-03   0.000E+00   9.985E-01
 155  7.16273910   0.710  -0.97033   3.56104   6.70362   0.94471   0.00000   1.623E-03   0.000E+00   9.984E-01
 156  7.16619472   0.710  -0.97273   3.56100   6.70452   0.94855   0.00000   1.751E-03   0.000E+00   9.982E-01
 157  7.16962306   0.710  -0.97512   3.56096   6.70543   0.95239   0.00000   1.880E-03   0.000E+00   9.981E-01
 158  7.17302454   0.710  -0.97751   3.56093   6.70633   0.95622   0.00000   2.000E-03   0.000E+00   9.980E-01
 159  7.17639959   0.710  -0.97973   3.56090   6.70717   0.95987   0.00000   2.000E-03   0.000E+00   9.980E-01
 160  7.17974862   0.710  -0.98195   3.56086   6.70800   0.96352   0.00000   2.000E-03   0.000E+00   9.980E-01
 161  7.18307201   0.710  -0.98417   3.56083   6.70884   0.96717   0.00000   2.000E-03   0.000E+00   9.980E-01
 162  7.18637017   0.710  -0.98639   3.56080   6.70968   0.97082   0.00000   2.000E-03   0.000E+00   9.980E-01
 163  7.18964347   0.710  -0.98862   3.56077   6.71052   0.97447   0.00000   2.000E-03   0.000E+00   9.980E-01
 164  7.19289228   0.710  -0.99084   3.56073   6.71135   0.97812   0.00000   2.000E-03   0.000E+00   9.980E-01
 165  7.19611697   0.710  -0.99306   3.56070   6.71219   0.98177   0.00000   2.000E-03   0.000E+00   9.980E-01
 166  7.19931790   0.710  -0.99528   3.56067   6.71303   0.98542   0.00000   2.000E-03   0.000E+00   9.980E-01
 167  7.20249540   0.710  -0.99738   3.56064   6.71382   0.98893   0.00000   2.081E-03   0.000E+00   9.979E-01
 168  7.20564982   0.710  -0.99944   3.56062   6.71460   0.99240   0.00000   2.192E-03   0.000E+00   9.978E-01
 169  7.20878150   0.710  -1.00150   3.56059   6.71538   0.99587   0.00000   2.303E-03   0.000E+00   9.977E-01
 170  7.21189076   0.710  -1.00356   3.56056   6.71615   0.99934   0.00000   2.414E-03   0.000E+00   9.976E-01
 171  7.21497791   0.710  -1.00562   3.56054   6.71693   1.00281   0.00000   2.525E-03   0.000E+00   9.975E-01
 172  7.21804328   0.710  -1.00768   3.56051   6.71771   1.00628   0.00000   2.636E-03   0.000E+00   9.974E-01
 173  7.22108715   0.710  -1.00973   3.56049   6.71848   1.00975   0.00000   2.747E-03   0.000E+00   9.973E-01
 174  7.22410985   0.710  -1.01179   3.56046   6.71926   1.01321   0.00000   2.858E-03   0.000E+00   9.971E-01
 175  7.22711165   0.710  -1.01385   3.56044   6.72004   1.01668   0.00000   2.969E-03   0.000E+00   9.970E-01
 176  7.23009285   0.710  -1.01580   3.56041   6.72077   1.02003   0.00000   3.000E-03   0.000E+00   9.970E-01
 177  7.23305372   0.710  -1.01770   3.56039   6.72149   1.02332   0.00000   3.000E-03   0.000E+00   9.970E-01
 178  7.23599454   0.710  -1.01960   3.56037   6.72221   1.02661   0.00000   3.000E-03   0.000E+00   9.970E-01
 179  7.23891558   0.710  -1.02151   3.56035   6.72293   1.02991   0.00000   3.000E-03   0.000E+00   9.970E-01
 180  7.24181710   0.710  -1.02341   3.56033   6.72365   1.03320   0.00000   3.000E-03   0.000E+00   9.970E-01
 181  7.24469937   0.710  -1.02531   3.56031   6.72437   1.03650   0.00000   3.000E-03   0.000E+00   9.970E-01
 182  7.24756264   0.710  -1.02722   3.56028   6.72509   1.03979   0.00000   3.000E-03   0.000E+00   9.970E-01
 183  7.25040715   0.710  -1.02912   3.56026   6.72581   1.04309   0.00000   3.000E-03   0.000E+00   9.970E-01
 184  7.25323316   0.710  -1.03102   3.56024   6.72654   1.04638   0.00000   3.000E-03   0.000E+00   9.970E-01
 185  7.25604089   0.710  -1.03292   3.56022   6.72726   1.04968   0.00000   3.001E-03   0.000E+00   9.970E-01
 186  7.25883059   0.710  -1.03468   3.56020   6.72793   1.05280   0.00000   3.098E-03   0.000E+00   9.969E-01
 187  7.26160248   0.710  -1.03643   3.56018   6.72860   1.05593   0.00000   3.195E-03   0.000E+00   9.968E-01
 188  7.26435679   0.710  -1.03818   3.56017   6.72927   1.05906   0.00000   3.292E-03   0.000E+00   9.967E-01
 189  7.26709375   0.710  -1.03994   3.56015   6.72994   1.06219   0.00000   3.389E-03   0.000E+00   9.966E-01
 190  7.26981356   0.710  -1.04169   3.56013   6.73061   1.06532   0.00000   3.486E-03   0.000E+00   9.965E-01
 191  7.27251645   0.710  -1.04344   3.56012   6.73128   1.06845   0.00000   3.583E-03   0.000E+00   9.964E-01
 192  7.27520262   0.710  -1.04520   3.56010   6.73195   1.07157   0.00000   3.680E-03   0.000E+00   9.963E-01
 193  7.27787227   0.710  -1.04695   3.56008   6.73262   1.07470   0.00000   3.777E-03   0.000E+00   9.962E-01
 194  7.28052562   0.710  -1.04871   3.56006   6.73329   1.07783   0.00000   3.874E-03   0.000E+00   9.961E-01
 195  7.28316285   0.710  -1.05046   3.56005   6.73396   1.08096   0.00000   3.971E-03   0.000E+00   9.960E-01
 196  7.28578417   0.710  -1.05212   3.56003   6.73460   1.08398   0.00000   4.065E-03   0.000E+00   9.959E-01
 197  7.28838976   0.710  -1.05373   3.56002   6.73523   1.08694   0.00000   4.156E-03   0.000E+00   9.958E-01
 198  7.29097981   0.710  -1.05535   3.56001   6.73585   1.08991   0.00000   4.248E-03   0.000E+00   9.958E-01
 199  7.29355450   0.710  -1.05696   3.56000   6.73648   1.09288   0.00000   4.340E-03   0.000E+00   9.957E-01
 200  7.29611402   0.710  -1.05858   3.55998   6.73711   1.09585   0.00000   4.432E-03   0.000E+00   9.956E-01
 201  7.29865855   0.710  -1.06019   3.55997   6.73774   1.09882   0.00000   4.523E-03   0.000E+00   9.955E-01
 202  7.30118825   0.710  -1.06181   3.55996   6.73836   1.10179   0.00000   4.615E-03   0.000E+00   9.954E-01
 203  7.30370331   0.710  -1.06342   3.55995   6.73899   1.10476   0.00000   4.707E-03   0.000E+00   9.953E-01
 204  7.30620388   0.710  -1.06504   3.55994   6.73962   1.10773   0.00000   4.799E-03   0.000E+00   9.952E-01
 205  7.30869013   0.710  -1.06666   3.55992   6.74024   1.11069   0.00000   4.891E-03   0.000E+00   9.951E-01
 206  7.31116224   0.710  -1.06827   3.55991   6.74087   1.11366   0.00000   4.982E-03   0.000E+00   9.950E-01
 207  7.31362035   0.710  -1.06978   3.55990   6.74146   1.11651   0.00000   5.070E-03   0.000E+00   9.949E-01
 208  7.31606463   0.710  -1.07127   3.55989   6.74205   1.11933   0.00000   5.157E-03   0.000E+00   9.948E-01
 209  7.31849523   0.710  -1.07276   3.55989   6.74264   1.12215   0.00000   5.244E-03   0.000E+00   9.948E-01
 210  7.32091230   0.710  -1.07425   3.55988   6.74323   1.12497   0.00000   5.331E-03   0.000E+00   9.947E-01
 211  7.32331599   0.710  -1.07573   3.55987   6.74381   1.12779   0.00000   5.418E-03   0.000E+00   9.946E-01
 212  7.32570645   0.710  -1.07722   3.55986   6.74440   1.13061   0.00000   5.505E-03   0.000E+00   9.945E-01
 213  7.32808383   0.710  -1.07871   3.55985   6.74499   1.13343   0.00000   5.592E-03   0.000E+00   9.944E-01
 214  7.33044826   0.710  -1.08020   3.55984   6.74557   1.13625   0.00000   5.679E-03   0.000E+00   9.943E-01
 215  7.33279989   0.710  -1.08168   3.55983   6.74616   1.13907   0.00000   5.766E-03   0.000E+00   9.942E-01
 216  7.33513885   0.710  -1.08317   3.55982   6.74675   1.14189   0.00000   5.853E-03   0.000E+00   9.941E-01
 217  7.33746529   0.710  -1.08466   3.55982   6.74733   1.14471   0.00000   5.940E-03   0.000E+00   9.941E-01
 218  7.33977933   0.710  -1.08611   3.55981   6.74791   1.14749   0.00000   6.050E-03   0.000E+00   9.939E-01
 219  7.34208110   0.710  -1.08748   3.55980   6.74846   1.15017   0.00000   6.215E-03   0.000E+00   9.938E-01
 220  7.34437074   0.710  -1.08885   3.55980   6.74901   1.15285   0.00000   6.380E-03   0.000E+00   9.936E-01
 221  7.34664838   0.710  -1.09022   3.55979   6.74957   1.15553   0.00000   6.545E-03   0.000E+00   9.935E-01
 222  7.34891412   0.710  -1.09159   3.55979   6.75012   1.15821   0.00000   6.710E-03   0.000E+00   9.933E-01
 223  7.35116811   0.710  -1.09296   3.55978   6.75067   1.16089   0.00000   6.875E-03   0.000E+00   9.931E-01
 224  7.35341047   0.710  -1.09433   3.55978   6.75122   1.16357   0.00000   7.039E-03   0.000E+00   9.930E-01
 225  7.35564130   0.710  -1.09570   3.55977   6.75177   1.16626   0.00000   7.204E-03   0.000E+00   9.928E-01
 226  7.35786073   0.710  -1.09707   3.55977   6.75233   1.16894   0.00000   7.369E-03   0.000E+00   9.926E-01
 227  7.36006888   0.710  -1.09844   3.55976   6.75288   1.17162   0.00000   7.534E-03   0.000E+00   9.925E-01
 228  7.36226586   0.710  -1.09981   3.55976   6.75343   1.17430   0.00000   7.699E-03   0.000E+00   9.923E-01
 229  7.36445178   0.710  -1.10118   3.55975   6.75398   1.17698   0.00000   7.863E-03   0.000E+00   9.921E-01
 230  7.36662675   0.710  -1.10253   3.55975   6.75453   1.17964   0.00000   8.013E-03   0.000E+00   9.920E-01
 231  7.36879089   0.710  -1.10378   3.55975   6.75505   1.18218   0.00000   8.092E-03   0.000E+00   9.919E-01
 232  7.37094429   0.710  -1.10504   3.55975   6.75557   1.18473   0.00000   8.170E-03   0.000E+00   9.918E-01
 233  7.37308707   0.710  -1.10629   3.55975   6.75609   1.18728   0.00000   8.248E-03   0.000E+00   9.918E-01
 234  7.37521933   0.710  -1.10755   3.55974   6.75661   1.18982   0.00000   8.326E-03   0.000E+00   9.917E-01
 235  7.37734117   0.710  -1.10881   3.55974   6.75713   1.19237   0.00000   8.404E-03   0.000E+00   9.916E-01
 236  7.37945270   0.710  -1.11006   3.55974   6.75764   1.19492   0.00000   8.483E-03   0.000E+00   9.915E-01
 237  7.38155400   0.710  -1.11132   3.55974   6.75816   1.19746   0.00000   8.561E-03   0.000E+00   9.914E-01
 238  7.38364520   0.710  -1.11257   3.55974   6.75868   1.20001   0.00000   8.639E-03   0.000E+00   9.914E-01
 239  7.38572636   0.710  -1.11383   3.55974   6.75920   1.20255   0.00000   8.717E-03   0.000E+00   9.913E-01
 240  7.38779761   0.710  -1.11509   3.55973   6.75972   1.20510   0.00000   8.795E-03   0.000E+00   9.912E-01
 241  7.38985902   0.710  -1.11634   3.55973   6.76024   1.20765   0.00000   8.874E-03   0.000E+00   9.911E-01
 242  7.39191069   0.710  -1.11760   3.55973   6.76076   1.21019   0.00000   8.952E-03   0.000E+00   9.910E-01
 243  7.39395272   0.710  -1.11881   3.55973   6.76127   1.21269   0.00000   9.086E-03   0.000E+00   9.909E-01
 244  7.39598519   0.710  -1.11996   3.55973   6.76176   1.21512   0.00000   9.308E-03   0.000E+00   9.907E-01
 245  7.39800819   0.710  -1.12112   3.55974   6.76225   1.21754   0.00000   9.531E-03   0.000E+00   9.905E-01
 246  7.40002182   0.710  -1.12227   3.55974   6.76274   1.21997   0.00000   9.753E-03   0.000E+00   9.902E-01
 247  7.40202615   0.710  -1.12342   3.55974   6.76323   1.22240   0.00000   9.976E-03   0.000E+00   9.900E-01
 248  7.40402127   0.710  -1.12457   3.55974   6.76372   1.22482   0.00000   1.020E-02   0.000E+00   9.898E-01
 249  7.40600727   0.710  -1.12572   3.55974   6.76422   1.22725   0.00000   1.042E-02   0.000E+00   9.896E-01
 250  7.40798423   0.710  -1.12687   3.55975   6.76471   1.22967   0.00000   1.064E-02   0.000E+00   9.894E-01
 251  7.40995223   0.710  -1.12803   3.55975   6.76520   1.23210   0.00000   1.087E-02   0.000E+00   9.891E-01
 252  7.41191135   0.710  -1.12918   3.55975   6.76569   1.23452   0.00000   1.109E-02   0.000E+00   9.889E-01
 253  7.41386167   0.710  -1.13033   3.55975   6.76618   1.23695   0.00000   1.131E-02   0.000E+00   9.887E-01
 254  7.41580327   0.710  -1.13148   3.55976   6.76667   1.23937   0.00000   1.153E-02   0.000E+00   9.885E-01
 255  7.41773624   0.710  -1.13263   3.55976   6.76716   1.24180   0.00000   1.176E-02   0.000E+00   9.882E-01
 256  7.41966064   0.710  -1.13378   3.55976   6.76765   1.24423   0.00000   1.198E-02   0.000E+00   9.880E-01
 257  7.42157654   0.710  -1.13485   3.55977   6.76812   1.24654   0.00000   1.213E-02   0.000E+00   9.879E-01
 258  7.42348404   0.710  -1.13590   3.55977   6.76858   1.24884   0.00000   1.227E-02   0.000E+00   9.877E-01
 259  7.42538319   0.710  -1.13696   3.55978   6.76905   1.25115   0.00000   1.241E-02   0.000E+00   9.876E-01
 260  7.42727407   0.710  -1.13801   3.55978   6.76951   1.25345   0.00000   1.255E-02   0.000E+00   9.874E-01
 261  7.42915676   0.710  -1.13907   3.55979   6.76997   1.25576   0.00000   1.269E-02   0.000E+00   9.873E-01
 262  7.43103132   0.710  -1.14012   3.55979   6.77043   1.25806   0.00000   1.283E-02   0.000E+00   9.872E-01
 263  7.43289782   0.710  -1.14117   3.55980   6.77090   1.26037   0.00000   1.298E-02   0.000E+00   9.870E-01
 264  7.43475633   0.710  -1.14223   3.55980   6.77136   1.26267   0.00000   1.312E-02   0.000E+00   9.869E-01
 265  7.43660693   0.710  -1.14328   3.55981   6.77182   1.26497   0.00000   1.326E-02   0.000E+00   9.867E-01
 266  7.43844967   0.710  -1.14434   3.55982   6.77228   1.26728   0.00000   1.340E-02   0.000E+00   9.866E-01
 267  7.44028463   0.710  -1.14539   3.55982   6.77275   1.26958   0.00000   1.354E-02   0.000E+00   9.865E-01
 268  7.44211187   0.710  -1.14645   3.55983   6.77321   1.27189   0.00000   1.368E-02   0.000E+00   9.863E-01
 269  7.44393145   0.710  -1.14750   3.55983   6.77367   1.27419   0.00000   1.382E-02   0.000E+00   9.862E-01
 270  7.44574344   0.710  -1.14856   3.55984   6.77413   1.27650   0.00000   1.396E-02   0.000E+00   9.860E-01
 271  7.44754790   0.710  -1.14954   3.55985   6.77458   1.27872   0.00000   1.415E-02   0.000E+00   9.858E-01
 272  7.44934490   0.710  -1.15051   3.55985   6.77503   1.28092   0.00000   1.435E-02   0.000E+00   9.856E-01
 273  7.45113449   0.710  -1.15147   3.55986   6.77547   1.28312   0.00000   1.455E-02   0.000E+00   9.854E-01
 274  7.45291673   0.710  -1.15243   3.55987   6.77591   1.28533   0.00000   1.475E-02   0.000E+00   9.852E-01
 275  7.45469170   0.710  -1.15339   3.55988   6.77636   1.28753   0.00000   1.495E-02   0.000E+00   9.850E-01
 276  7.45645943   0.710  -1.15436   3.55989   6.77680   1.28973   0.00000   1.516E-02   0.000E+00   9.848E-01
 277  7.45822000   0.710  -1.15532   3.55989   6.77724   1.29193   0.00000   1.536E-02   0.000E+00   9.846E-01
 278  7.45997347   0.710  -1.15628   3.55990   6.77769   1.29413   0.00000   1.556E-02   0.000E+00   9.844E-01
 279  7.46171988   0.710  -1.15724   3.55991   6.77813   1.29633   0.00000   1.576E-02   0.000E+00   9.842E-01
 280  7.46345929   0.710  -1.15821   3.55992   6.77857   1.29853   0.00000   1.596E-02   0.000E+00   9.840E-01
 281  7.46519177   0.710  -1.15917   3.55993   6.77902   1.30073   0.00000   1.616E-02   0.000E+00   9.838E-01
 282  7.46691737   0.710  -1.16013   3.55993   6.77946   1.30293   0.00000   1.636E-02   0.000E+00   9.836E-01
 283  7.46863613   0.710  -1.16109   3.55994   6.77990   1.30514   0.00000   1.656E-02   0.000E+00   9.834E-01
 284  7.47034812   0.710  -1.16206   3.55995   6.78035   1.30734   0.00000   1.676E-02   0.000E+00   9.832E-01
 285  7.47205339   0.710  -1.16302   3.55996   6.78079   1.30954   0.00000   1.696E-02   0.000E+00   9.830E-01
 286  7.47375199   0.710  -1.16391   3.55997   6.78122   1.31165   0.00000   1.721E-02   0.000E+00   9.828E-01
 287  7.47544397   0.710  -1.16479   3.55998   6.78164   1.31375   0.00000   1.747E-02   0.000E+00   9.825E-01
 288  7.47712938   0.710  -1.16566   3.55999   6.78206   1.31584   0.00000   1.772E-02   0.000E+00   9.823E-01
 289  7.47880828   0.710  -1.16654   3.56000   6.78248   1.31794   0.00000   1.798E-02   0.000E+00   9.820E-01
 290  7.48048071   0.710  -1.16742   3.56002   6.78290   1.32003   0.00000   1.824E-02   0.000E+00   9.818E-01
 291  7.48214673   0.710  -1.16829   3.56003   6.78332   1.32213   0.00000   1.849E-02   0.000E+00   9.815E-01
 292  7.48380638   0.710  -1.16917   3.56004   6.78375   1.32422   0.00000   1.875E-02   0.000E+00   9.813E-01
 293  7.48545972   0.710  -1.17004   3.56005   6.78417   1.32632   0.00000   1.900E-02   0.000E+00   9.810E-01
 294  7.48710678   0.710  -1.17092   3.56006   6.78459   1.32841   0.00000   1.926E-02   0.000E+00   9.807E-01
 295  7.48874762   0.710  -1.17180   3.56007   6.78501   1.33051   0.00000   1.952E-02   0.000E+00   9.805E-01
 296  7.49038228   0.710  -1.17267   3.56008   6.78543   1.33260   0.00000   1.977E-02   0.000E+00   9.802E-01
 297  7.49201081   0.710  -1.17355   3.56010   6.78585   1.33470   0.00000   2.003E-02   0.000E+00   9.800E-01
 298  7.49363326   0.710  -1.17443   3.56011   6.78627   1.33679   0.00000   2.029E-02   0.000E+00   9.797E-01
 299  7.49524968   0.710  -1.17530   3.56012   6.78670   1.33889   0.00000   2.054E-02   0.000E+00   9.795E-01
 300  7.49686009   0.710  -1.17618   3.56013   6.78712   1.34098   0.00000   2.080E-02   0.000E+00   9.792E-01
 301  7.49846456   0.710  -1.17704   3.56014   6.78753   1.34306   0.00000   2.106E-02   0.000E+00   9.789E-01
 302  7.50006312   0.710  -1.17783   3.56016   6.78794   1.34506   0.00000   2.137E-02   0.000E+00   9.786E-01
 303  7.50165582   0.710  -1.17863   3.56017   6.78834   1.34705   0.00000   2.167E-02   0.000E+00   9.783E-01
 304  7.50324270   0.710  -1.17942   3.56019   6.78874   1.34905   0.00000   2.198E-02   0.000E+00   9.780E-01
 305  7.50482380   0.710  -1.18022   3.56020   6.78915   1.35105   0.00000   2.228E-02   0.000E+00   9.777E-01
 306  7.50639917   0.710  -1.18102   3.56021   6.78955   1.35304   0.00000   2.259E-02   0.000E+00   9.774E-01
 307  7.50796885   0.710  -1.18181   3.56023   6.78996   1.35504   0.00000   2.289E-02   0.000E+00   9.771E-01
 308  7.50953287   0.710  -1.18261   3.56024   6.79036   1.35704   0.00000   2.320E-02   0.000E+00   9.768E-01
 309  7.51109127   0.710  -1.18340   3.56026   6.79076   1.35903   0.00000   2.351E-02   0.000E+00   9.765E-01
 310  7.51264411   0.710  -1.18420   3.56027   6.79117   1.36103   0.00000   2.381E-02   0.000E+00   9.762E-01
 311  7.51419141   0.710  -1.18500   3.56028   6.79157   1.36303   0.00000   2.412E-02   0.000E+00   9.759E-01
 312  7.51573323   0.710  -1.18579   3.56030   6.79197   1.36502   0.00000   2.442E-02   0.000E+00   9.756E-01
 313  7.51726958   0.710  -1.18659   3.56031   6.79238   1.36702   0.00000   2.473E-02   0.000E+00   9.753E-01
 314  7.51880052   0.710  -1.18738   3.56033   6.79278   1.36902   0.00000   2.503E-02   0.000E+00   9.750E-01
 315  7.52032608   0.710  -1.18818   3.56034   6.79318   1.37101   0.00000   2.534E-02   0.000E+00   9.747E-01
 316  7.52184631   0.710  -1.18897   3.56035   6.79359   1.37301   0.00000   2.564E-02   0.000E+00   9.744E-01
 317  7.52336123   0.710  -1.18977   3.56037   6.79399   1.37501   0.00000   2.595E-02   0.000E+00   9.741E-01
 318  7.52487088   0.710  -1.19050   3.56038   6.79438   1.37693   0.00000   2.624E-02   0.000E+00   9.738E-01
 319  7.52637530   0.710  -1.19122   3.56040   6.79477   1.37883   0.00000   2.653E-02   0.000E+00   9.735E-01
 320  7.52787454   0.710  -1.19194   3.56042   6.79515   1.38073   0.00000   2.682E-02   0.000E+00   9.732E-01
 321  7.52936861   0.710  -1.19266   3.56043   6.79554   1.38263   0.00000   2.711E-02   0.000E+00   9.729E-01
 322  7.53085756   0.710  -1.19338   3.56045   6.79592   1.38453   0.00000   2.740E-02   0.000E+00   9.726E-01
 323  7.53234142   0.710  -1.19409   3.56047   6.79631   1.38644   0.00000   2.770E-02   0.000E+00   9.723E-01
 324  7.53382023   0.710  -1.19481   3.56049   6.79670   1.38834   0.00000   2.799E-02   0.000E+00   9.720E-01
 325  7.53529402   0.710  -1.19553   3.56050   6.79708   1.39024   0.00000   2.828E-02   0.000E+00   9.717E-01
 326  7.53676283   0.710  -1.19625   3.56052   6.79747   1.39214   0.00000   2.857E-02   0.000E+00   9.714E-01
 327  7.53822669   0.710  -1.19697   3.56054   6.79786   1.39404   0.00000   2.886E-02   0.000E+00   9.711E-01
 328  7.53968563   0.710  -1.19769   3.56055   6.79824   1.39594   0.00000   2.915E-02   0.000E+00   9.708E-01
 329  7.54113968   0.710  -1.19840   3.56057   6.79863   1.39785   0.00000   2.944E-02   0.000E+00   9.706E-01
 330  7.54258889   0.710  -1.19912   3.56059   6.79902   1.39975   0.00000   2.973E-02   0.000E+00   9.703E-01
 331  7.54403327   0.710  -1.19984   3.56060   6.79940   1.40165   0.00000   3.002E-02   0.000E+00   9.700E-01
 332  7.54547286   0.710  -1.20056   3.56062   6.79979   1.40355   0.00000   3.031E-02   0.000E+00   9.697E-01
 333  7.54690770   0.710  -1.20128   3.56064   6.80018   1.40545   0.00000   3.061E-02   0.000E+00   9.694E-01
 334  7.54833782   0.710  -1.20200   3.56065   6.80056   1.40735   0.00000   3.090E-02   0.000E+00   9.691E-01
 335  7.54976324   0.710  -1.20267   3.56067   6.80094   1.40920   0.00000   3.121E-02   0.000E+00   9.688E-01
 336  7.55118399   0.710  -1.20331   3.56069   6.80131   1.41101   0.00000   3.155E-02   0.000E+00   9.685E-01
 337  7.55260012   0.710  -1.20396   3.56071   6.80168   1.41282   0.00000   3.188E-02   0.000E+00   9.681E-01
 338  7.55401164   0.710  -1.20461   3.56073   6.80205   1.41463   0.00000   3.221E-02   0.000E+00   9.678E-01
 339  7.55541859   0.710  -1.20525   3.56075   6.80243   1.41645   0.00000   3.255E-02   0.000E+00   9.675E-01
 340  7.55682099   0.710  -1.20590   3.56077   6.80280   1.41826   0.00000   3.288E-02   0.000E+00   9.671E-01
 341  7.55821888   0.710  -1.20655   3.56079   6.80317   1.42007   0.00000   3.321E-02   0.000E+00   9.668E-01
 342  7.55961229   0.710  -1.20719   3.56081   6.80354   1.42188   0.00000   3.355E-02   0.000E+00   9.665E-01
 343  7.56100124   0.710  -1.20784   3.56083   6.80391   1.42369   0.00000   3.388E-02   0.000E+00   9.661E-01
 344  7.56238576   0.710  -1.20849   3.56085   6.80428   1.42550   0.00000   3.421E-02   0.000E+00   9.658E-01
 345  7.56376588   0.710  -1.20913   3.56087   6.80466   1.42732   0.00000   3.455E-02   0.000E+00   9.655E-01
 346  7.56514164   0.710  -1.20978   3.56089   6.80503   1.42913   0.00000   3.488E-02   0.000E+00   9.651E-01
 347  7.56651304   0.710  -1.21042   3.56091   6.80540   1.43094   0.00000   3.521E-02   0.000E+00   9.648E-01
 348  7.56788013   0.710  -1.21107   3.56093   6.80577   1.43275   0.00000   3.555E-02   0.000E+00   9.645E-01
 349  7.56924293   0.710  -1.21172   3.56095   6.80614   1.43456   0.00000   3.588E-02   0.000E+00   9.641E-01
 350  7.57060147   0.710  -1.21236   3.56097   6.80651   1.43637   0.00000   3.621E-02   0.000E+00   9.638E-01
 351  7.57195577   0.710  -1.21301   3.56099   6.80688   1.43819   0.00000   3.655E-02   0.000E+00   9.635E-01
 352  7.57330585   0.710  -1.21366   3.56101   6.80726   1.44000   0.00000   3.688E-02   0.000E+00   9.631E-01
 353  7.57465176   0.710  -1.21426   3.56103   6.80762   1.44175   0.00000   3.727E-02   0.000E+00   9.627E-01
 354  7.57599351   0.710  -1.21484   3.56106   6.80798   1.44348   0.00000   3.770E-02   0.000E+00   9.623E-01
 355  7.57733112   0.710  -1.21542   3.56108   6.80833   1.44520   0.00000   3.812E-02   0.000E+00   9.619E-01
 356  7.57866463   0.710  -1.21599   3.56110   6.80869   1.44693   0.00000   3.854E-02   0.000E+00   9.615E-01
 357  7.57999406   0.710  -1.21657   3.56112   6.80905   1.44865   0.00000   3.897E-02   0.000E+00   9.610E-01
 358  7.58131942   0.710  -1.21715   3.56115   6.80940   1.45038   0.00000   3.939E-02   0.000E+00   9.606E-01
 359  7.58264076   0.710  -1.21773   3.56117   6.80976   1.45210   0.00000   3.982E-02   0.000E+00   9.602E-01
 360  7.58395809   0.710  -1.21830   3.56119   6.81012   1.45383   0.00000   4.024E-02   0.000E+00   9.598E-01
 361  7.58527143   0.710  -1.21888   3.56121   6.81048   1.45556   0.00000   4.066E-02   0.000E+00   9.593E-01
 362  7.58658082   0.710  -1.21946   3.56123   6.81083   1.45728   0.00000   4.109E-02   0.000E+00   9.589E-01
 363  7.58788627   0.710  -1.22004   3.56126   6.81119   1.45901   0.00000   4.151E-02   0.000E+00   9.585E-01
 364  7.58918780   0.710  -1.22061   3.56128   6.81155   1.46073   0.00000   4.194E-02   0.000E+00   9.581E-01
 365  7.59048545   0.710  -1.22119   3.56130   6.81191   1.46246   0.00000   4.236E-02   0.000E+00   9.576E-01
 366  7.59177923   0.710  -1.22177   3.56132   6.81226   1.46418   0.00000   4.278E-02   0.000E+00   9.572E-01
 367  7.59306917   0.710  -1.22235   3.56135   6.81262   1.46591   0.00000   4.321E-02   0.000E+00   9.568E-01
 368  7.59435529   0.710  -1.22293   3.56137   6.81298   1.46763   0.00000   4.363E-02   0.000E+00   9.564E-01
 369  7.59563761   0.710  -1.22350   3.56139   6.81333   1.46936   0.00000   4.406E-02   0.000E+00   9.559E-01
 370  7.59691616   0.710  -1.22408   3.56141   6.81369   1.47108   0.00000   4.448E-02   0.000E+00   9.555E-01
 371  7.59819095   0.710  -1.22466   3.56143   6.81405   1.47281   0.00000   4.490E-02   0.000E+00   9.551E-01
 372  7.59946202   0.710  -1.22519   3.56146   6.81440   1.47447   0.00000   4.535E-02   0.000E+00   9.546E-01
 373  7.60072937   0.710  -1.22570   3.56148   6.81474   1.47611   0.00000   4.581E-02   0.000E+00   9.542E-01
 374  7.60199303   0.710  -1.22621   3.56151   6.81509   1.47775   0.00000   4.626E-02   0.000E+00   9.537E-01
 375  7.60325303   0.710  -1.22672   3.56153   6.81543   1.47939   0.00000   4.672E-02   0.000E+00   9.533E-01
 376  7.60450939   0.710  -1.22723   3.56156   6.81578   1.48104   0.00000   4.717E-02   0.000E+00   9.528E-01
 377  7.60576212   0.710  -1.22775   3.56158   6.81612   1.48268   0.00000   4.763E-02   0.000E+00   9.524E-01
 378  7.60701125   0.710  -1.22826   3.56161   6.81647   1.48432   0.00000   4.808E-02   0.000E+00   9.519E-01
 379  7.60825679   0.710  -1.22877   3.56163   6.81681   1.48596   0.00000   4.854E-02   0.000E+00   9.515E-01
 380  7.60949877   0.710  -1.22928   3.56166   6.81716   1.48761   0.00000   4.899E-02   0.000E+00   9.510E-01
 381  7.61073722   0.710  -1.22980   3.56168   6.81750   1.48925   0.00000   4.945E-02   0.000E+00   9.506E-01
 382  7.61197214   0.710  -1.23031   3.56171   6.81785   1.49089   0.00000   4.990E-02   0.000E+00   9.501E-01
 383  7.61320355   0.710  -1.23082   3.56173   6.81819   1.49253   0.00000   5.036E-02   0.000E+00   9.496E-01
 384  7.61443149   0.710  -1.23133   3.56176   6.81854   1.49417   0.00000   5.081E-02   0.000E+00   9.492E-01
 385  7.61565596   0.710  -1.23185   3.56178   6.81888   1.49582   0.00000   5.127E-02   0.000E+00   9.487E-01
 386  7.61687700   0.710  -1.23236   3.56181   6.81923   1.49746   0.00000   5.172E-02   0.000E+00   9.483E-01
 387  7.61809460   0.710  -1.23287   3.56183   6.81957   1.49910   0.00000   5.218E-02   0.000E+00   9.478E-01
 388  7.61930881   0.710  -1.23338   3.56186   6.81992   1.50074   0.00000   5.263E-02   0.000E+00   9.474E-01
 389  7.62051963   0.710  -1.23390   3.56188   6.82026   1.50239   0.00000   5.309E-02   0.000E+00   9.469E-01
 390  7.62172708   0.710  -1.23441   3.56191   6.82061   1.50403   0.00000   5.354E-02   0.000E+00   9.465E-01
 391  7.62293119   0.710  -1.23492   3.56193   6.82095   1.50567   0.00000   5.400E-02   0.000E+00   9.460E-01
 392  7.63402115   0.710  -1.23913   3.56219   6.82406   1.52025   0.00000   5.896E-02   0.000E+00   9.410E-01
 393  7.64483497   0.710  -1.24335   3.56244   6.82718   1.53483   0.00000   6.392E-02   0.000E+00   9.361E-01
 394  7.65538604   0.710  -1.24713   3.56272   6.83022   1.54883   0.00000   6.903E-02   0.000E+00   9.310E-01
 395  7.66568686   0.710  -1.25079   3.56300   6.83324   1.56266   0.00000   7.419E-02   0.000E+00   9.258E-01
 396  7.67574900   0.710  -1.25421   3.56329   6.83622   1.57617   0.00000   7.980E-02   0.000E+00   9.202E-01
 397  7.68558328   0.710  -1.25734   3.56359   6.83915   1.58928   0.00000   8.594E-02   0.000E+00   9.141E-01
 398  7.69519979   0.710  -1.26047   3.56388   6.84208   1.60238   0.00000   9.209E-02   0.000E+00   9.079E-01
 399  7.70460798   0.710  -1.26310   3.56421   6.84493   1.61474   0.00000   9.872E-02   0.000E+00   9.013E-01
 400  7.71381666   0.710  -1.26573   3.56453   6.84778   1.62709   0.00000   1.053E-01   0.000E+00   8.947E-01
 401  7.72283414   0.710  -1.26814   3.56486   6.85060   1.63911   0.00000   1.125E-01   0.000E+00   8.875E-01
 402  7.73166818   0.710  -1.27030   3.56521   6.85337   1.65072   0.00000   1.202E-01   0.000E+00   8.798E-01
 403  7.74032610   0.710  -1.27245   3.56555   6.85614   1.66232   0.00000   1.280E-01   0.000E+00   8.720E-01
 404  7.74881479   0.710  -1.27426   3.56591   6.85885   1.67336   0.00000   1.362E-01   0.000E+00   8.638E-01
 405  7.75714074   0.710  -1.27596   3.56627   6.86154   1.68421   0.00000   1.446E-01   0.000E+00   8.554E-01
 406  7.76531007   0.710  -1.27766   3.56664   6.86423   1.69505   0.00000   1.530E-01   0.000E+00   8.470E-01
 407  7.77332856   0.710  -1.27898   3.56702   6.86685   1.70521   0.00000   1.619E-01   0.000E+00   8.381E-01
 408  7.78120168   0.710  -1.28025   3.56739   6.86946   1.71529   0.00000   1.708E-01   0.000E+00   8.292E-01
 409  7.78893461   0.710  -1.28152   3.56777   6.87207   1.72536   0.00000   1.797E-01   0.000E+00   8.203E-01
 410  7.79653226   0.710  -1.28245   3.56817   6.87462   1.73475   0.00000   1.896E-01   0.000E+00   8.104E-01
 411  7.80399927   0.710  -1.28332   3.56856   6.87714   1.74403   0.00000   1.997E-01   0.000E+00   8.003E-01
 412  7.81134007   0.710  -1.28419   3.56896   6.87967   1.75331   0.00000   2.098E-01   0.000E+00   7.902E-01
 413  7.81855885   0.710  -1.28482   3.56936   6.88215   1.76203   0.00000   2.204E-01   0.000E+00   7.796E-01
 414  7.82565959   0.710  -1.28533   3.56977   6.88459   1.77050   0.00000   2.313E-01   0.000E+00   7.687E-01
 415  7.83264611   0.710  -1.28585   3.57017   6.88704   1.77897   0.00000   2.422E-01   0.000E+00   7.578E-01
 416  7.83952201   0.710  -1.28626   3.57058   6.88945   1.78713   0.00000   2.533E-01   0.000E+00   7.467E-01
 417  7.84629074   0.710  -1.28646   3.57100   6.89181   1.79477   0.00000   2.648E-01   0.000E+00   7.352E-01
 418  7.85295559   0.710  -1.28667   3.57141   6.89417   1.80241   0.00000   2.763E-01   0.000E+00   7.237E-01
 419  7.85951971   0.710  -1.28688   3.57183   6.89653   1.81005   0.00000   2.878E-01   0.000E+00   7.122E-01
 420  7.86598609   0.710  -1.28687   3.57225   6.89881   1.81692   0.00000   3.000E-01   0.000E+00   7.000E-01
 421  7.87235760   0.710  -1.28683   3.57266   6.90107   1.82370   0.00000   3.123E-01   0.000E+00   6.877E-01
 422  7.87863698   0.710  -1.28679   3.57308   6.90334   1.83048   0.00000   3.246E-01   0.000E+00   6.754E-01
 423  7.88482687   0.710  -1.28671   3.57350   6.90558   1.83705   0.00000   3.370E-01   0.000E+00   6.630E-01
 424  7.89092977   0.710  -1.28650   3.57390   6.90775   1.84292   0.00000   3.495E-01   0.000E+00   6.502E-01
 425  7.89694809   0.710  -1.28629   3.57431   6.90992   1.84880   0.00000   3.620E-01   0.000E+00   6.375E-01
 426  7.90288415   0.710  -1.28608   3.57472   6.91208   1.85468   0.00000   3.745E-01   0.000E+00   6.247E-01
 427  7.90874018   0.710  -1.28584   3.57512   6.91421   1.86026   0.00000   3.872E-01   0.000E+00   6.118E-01
 428  7.91451828   0.710  -1.28553   3.57551   6.91627   1.86521   0.00000   4.005E-01   0.000E+00   5.988E-01
 429  7.92022052   0.710  -1.28522   3.57590   6.91832   1.87016   0.00000   4.137E-01   0.000E+00   5.858E-01
 430  7.92584887   0.710  -1.28491   3.57629   6.92037   1.87512   0.00000   4.270E-01   0.000E+00   5.728E-01
 431  7.93140520   0.710  -1.28460   3.57667   6.92241   1.87998   0.00000   4.403E-01   0.000E+00   5.597E-01
 432  7.93689134   0.710  -1.28429   3.57703   6.92434   1.88394   0.00000   4.537E-01   0.000E+00   5.463E-01
 433  7.94230904   0.710  -1.28398   3.57739   6.92626   1.88790   0.00000   4.672E-01   0.000E+00   5.328E-01
 434  7.94765999   0.710  -1.28367   3.57775   6.92819   1.89187   0.00000   4.807E-01   0.000E+00   5.193E-01
 435  7.95294581   0.710  -1.28336   3.57811   6.93011   1.89583   0.00000   4.941E-01   0.000E+00   5.059E-01
 436  7.95816807   0.710  -1.28310   3.57844   6.93198   1.89927   0.00000   5.076E-01   0.000E+00   4.924E-01
 437  7.96332828   0.710  -1.28288   3.57875   6.93379   1.90215   0.00000   5.211E-01   0.000E+00   4.789E-01
 438  7.96842790   0.710  -1.28267   3.57905   6.93560   1.90503   0.00000   5.346E-01   0.000E+00   4.654E-01
 439  7.97346832   0.710  -1.28246   3.57936   6.93741   1.90791   0.00000   5.481E-01   0.000E+00   4.519E-01
 440  7.97845093   0.710  -1.28225   3.57967   6.93921   1.91079   0.00000   5.616E-01   0.000E+00   4.384E-01
 441  7.98337701   0.710  -1.28210   3.57995   6.94100   1.91331   0.00002   5.751E-01   0.000E+00   4.249E-01
 442  7.98824784   0.710  -1.28211   3.58019   6.94273   1.91498   0.00009   5.889E-01   0.000E+00   4.111E-01
 443  7.99306465   0.710  -1.28212   3.58042   6.94446   1.91665   0.00017   6.026E-01   0.000E+00   3.974E-01
 444  7.99782863   0.709  -1.28213   3.58066   6.94618   1.91832   0.00024   6.163E-01   0.000E+00   3.837E-01
 445  8.00254091   0.709  -1.28214   3.58089   6.94791   1.91999   0.00031   6.300E-01   0.000E+00   3.700E-01
 446  8.00720261   0.709  -1.28214   3.58112   6.94964   1.92166   0.00039   6.438E-01   0.000E+00   3.562E-01
 447  8.01181480   0.709  -1.28224   3.58133   6.95128   1.92302   0.00073   6.575E-01   0.000E+00   3.425E-01
 448  8.01637852   0.709  -1.28260   3.58146   6.95263   1.92349   0.00186   6.713E-01   0.000E+00   3.287E-01
 449  8.02089479   0.709  -1.28295   3.58160   6.95399   1.92396   0.00298   6.852E-01   0.000E+00   3.148E-01
 450  8.02536457   0.709  -1.28331   3.58173   6.95535   1.92443   0.00411   6.990E-01   0.000E+00   3.010E-01
 451  8.02978882   0.709  -1.28367   3.58186   6.95671   1.92490   0.00524   7.128E-01   0.000E+00   2.872E-01
 452  8.03416845   0.709  -1.28403   3.58199   6.95807   1.92537   0.00637   7.266E-01   0.000E+00   2.734E-01
 453  8.03850436   0.709  -1.28438   3.58212   6.95942   1.92584   0.00750   7.404E-01   0.000E+00   2.596E-01
 454  8.04279740   0.709  -1.28474   3.58225   6.96078   1.92631   0.00863   7.543E-01   0.000E+00   2.457E-01
 455  8.04704843   0.709  -1.28530   3.58232   6.96182   1.92625   0.01008   7.680E-01   0.000E+00   2.320E-01
 456  8.05125824   0.709  -1.28591   3.58238   6.96277   1.92605   0.01160   7.818E-01   0.000E+00   2.182E-01
 457  8.05542764   0.709  -1.28652   3.58243   6.96373   1.92586   0.01313   7.956E-01   0.000E+00   2.044E-01
 458  8.05955739   0.709  -1.28713   3.58248   6.96469   1.92567   0.01466   8.093E-01   0.000E+00   1.907E-01
 459  8.06364824   0.709  -1.28775   3.58254   6.96564   1.92547   0.01619   8.231E-01   0.000E+00   1.769E-01
 460  8.06770092   0.709  -1.28840   3.58257   6.96660   1.92482   0.01830   8.423E-01   6.372E-05   1.577E-01
 461  8.07171613   0.709  -1.28923   3.58254   6.96756   1.92245   0.02263   8.819E-01   3.688E-04   1.177E-01
 462  8.07569455   0.709  -1.29006   3.58250   6.96852   1.92008   0.02696   9.216E-01   6.738E-04   7.773E-02
 463  8.07963686   0.709  -1.29088   3.58246   6.96947   1.91771   0.03129   9.612E-01   9.788E-04   3.777E-02
 464  8.08354371   0.709  -1.29193   3.58236   6.97014   1.91459   0.03542   9.983E-01   1.000E-03   7.847E-04
 465  8.08741572   0.709  -1.29299   3.58226   6.97079   1.91140   0.03954   1.035E+00   1.000E-03  -3.598E-02
 466  8.09125352   0.709  -1.29417   3.58213   6.97129   1.90809   0.04313   1.066E+00   1.000E-03  -6.675E-02
 467  8.09505770   0.709  -1.29546   3.58198   6.97166   1.90467   0.04625   1.091E+00   1.000E-03  -9.187E-02
 468  8.09882885   0.709  -1.29687   3.58179   6.97193   1.90128   0.04858   1.110E+00   1.000E-03  -1.104E-01
 469  8.10256753   0.709  -1.29837   3.58159   6.97213   1.89794   0.05046   1.125E+00   1.000E-03  -1.248E-01
 470  8.10627430   0.709  -1.30001   3.58137   6.97222   1.89472   0.05219   1.133E+00   1.000E-03  -1.336E-01
 471  8.10994970   0.709  -1.30173   3.58113   6.97226   1.89161   0.05406   1.139E+00   1.000E-03  -1.396E-01
 472  8.11359426   0.709  -1.30352   3.58088   6.97222   1.88859   0.05499   1.145E+00   1.000E-03  -1.451E-01
 473  8.11720849   0.709  -1.30539   3.58062   6.97214   1.88571   0.05499   1.147E+00   1.000E-03  -1.476E-01
 474  8.12079289   0.709  -1.30733   3.58034   6.97200   1.88306   0.05499   1.143E+00   1.000E-03  -1.439E-01
 475  8.12434794   0.709  -1.30932   3.58005   6.97183   1.88061   0.05499   1.139E+00   1.000E-03  -1.398E-01
 476  8.12787413   0.709  -1.31135   3.57976   6.97163   1.87835   0.05444   1.135E+00   1.000E-03  -1.351E-01
 477  8.13137193   0.709  -1.31340   3.57947   6.97140   1.87627   0.05265   1.130E+00   1.000E-03  -1.308E-01
 478  8.13484177   0.709  -1.31545   3.57918   6.97115   1.87437   0.05265   1.125E+00   1.000E-03  -1.259E-01
 479  8.13828411   0.709  -1.31747   3.57889   6.97089   1.87262   0.05196   1.121E+00   1.000E-03  -1.215E-01
 480  8.14169938   0.709  -1.31944   3.57860   6.97062   1.87103   0.05031   1.115E+00   1.000E-03  -1.165E-01
 481  8.14508801   0.709  -1.32135   3.57832   6.97034   1.86959   0.05031   1.111E+00   1.000E-03  -1.115E-01
 482  8.14845039   0.709  -1.32321   3.57805   6.97006   1.86827   0.04957   1.107E+00   1.000E-03  -1.067E-01
 483  8.15178695   0.709  -1.32499   3.57779   6.96977   1.86708   0.04738   1.102E+00   1.000E-03  -1.021E-01
 484  8.15509807   0.709  -1.32670   3.57754   6.96949   1.86601   0.04731   1.097E+00   1.000E-03  -9.751E-02
 485  8.15838413   0.709  -1.32833   3.57730   6.96920   1.86505   0.04656   1.092E+00   1.000E-03  -9.303E-02
 486  8.16164552   0.709  -1.32985   3.57707   6.96892   1.86420   0.04496   1.088E+00   1.000E-03  -8.864E-02
 487  8.16488259   0.709  -1.33126   3.57685   6.96865   1.86345   0.04446   1.084E+00   1.000E-03  -8.431E-02
 488  8.16809572   0.709  -1.33258   3.57665   6.96837   1.86278   0.04394   1.079E+00   1.000E-03  -8.007E-02
 489  8.17128525   0.709  -1.33381   3.57646   6.96811   1.86217   0.04253   1.075E+00   1.000E-03  -7.596E-02
 490  8.17445153   0.709  -1.33490   3.57629   6.96786   1.86168   0.04241   1.072E+00   1.000E-03  -7.200E-02
 491  8.17759489   0.709  -1.33593   3.57613   6.96761   1.86122   0.04214   1.068E+00   1.000E-03  -6.814E-02
 492  8.18071566   0.709  -1.33682   3.57598   6.96738   1.86084   0.04119   1.064E+00   1.000E-03  -6.447E-02
 493  8.18381416   0.709  -1.33764   3.57585   6.96716   1.86050   0.04031   1.060E+00   8.048E-04  -6.092E-02
 494  8.18689072   0.709  -1.33834   3.57573   6.96694   1.86023   0.03952   1.057E+00   3.566E-04  -5.751E-02
 495  8.18994563   0.709  -1.33900   3.57561   6.96673   1.85998   0.03890   1.053E+00   0.000E+00  -5.417E-02
 496  8.19297921   0.709  -1.33949   3.57552   6.96655   1.85981   0.03890   1.051E+00   0.000E+00  -5.108E-02
 497  8.19599174   0.709  -1.33998   3.57544   6.96636   1.85965   0.03890   1.048E+00   0.000E+00  -4.800E-02
 498  8.19898352   0.709  -1.34039   3.57536   6.96619   1.85951   0.03875   1.045E+00   0.000E+00  -4.512E-02
 499  8.20195483   0.709  -1.34065   3.57530   6.96604   1.85944   0.03831   1.042E+00   0.000E+00  -4.263E-02
 500  8.20490595   0.709  -1.34090   3.57525   6.96589   1.85937   0.03788   1.040E+00   0.000E+00  -4.014E-02
 501  8.20783715   0.709  -1.34116   3.57519   6.96574   1.85930   0.03744   1.037E+00   0.000E+00  -3.765E-02
 502  8.21074870   0.709  -1.34135   3.57514   6.96561   1.85925   0.03705   1.034E+00   0.000E+00  -3.536E-02
 503  8.21364086   0.709  -1.34140   3.57512   6.96550   1.85925   0.03677   1.033E+00   0.000E+00  -3.355E-02
 504  8.21651389   0.709  -1.34144   3.57510   6.96540   1.85925   0.03648   1.031E+00   0.000E+00  -3.174E-02
 505  8.21936804   0.709  -1.34148   3.57507   6.96529   1.85925   0.03619   1.029E+00   0.000E+00  -2.994E-02
 506  8.22220355   0.709  -1.34152   3.57505   6.96519   1.85925   0.03590   1.027E+00   0.000E+00  -2.813E-02
 507  8.22502067   0.709  -1.34157   3.57503   6.96508   1.85925   0.03562   1.025E+00   0.000E+00  -2.632E-02
 508  8.22781963   0.709  -1.34158   3.57501   6.96499   1.85926   0.03535   1.024E+00   0.000E+00  -2.467E-02
 509  8.23060067   0.709  -1.34149   3.57501   6.96493   1.85928   0.03516   1.023E+00   0.000E+00  -2.359E-02
 510  8.23336402   0.709  -1.34140   3.57501   6.96487   1.85931   0.03496   1.022E+00   0.000E+00  -2.252E-02
 511  8.23610989   0.709  -1.34131   3.57501   6.96481   1.85933   0.03477   1.021E+00   0.000E+00  -2.145E-02
 512  8.23883851   0.709  -1.34123   3.57501   6.96475   1.85936   0.03458   1.020E+00   0.000E+00  -2.037E-02
 513  8.24155009   0.709  -1.34114   3.57500   6.96469   1.85939   0.03438   1.019E+00   0.000E+00  -1.930E-02
 514  8.24424485   0.709  -1.34105   3.57500   6.96463   1.85941   0.03419   1.018E+00   0.000E+00  -1.822E-02
 515  8.24692299   0.709  -1.34096   3.57500   6.96456   1.85944   0.03400   1.017E+00   0.000E+00  -1.715E-02
 516  8.24958472   0.709  -1.34087   3.57500   6.96450   1.85947   0.03380   1.016E+00   0.000E+00  -1.607E-02
 517  8.25223023   0.709  -1.34078   3.57500   6.96445   1.85949   0.03363   1.015E+00   0.000E+00  -1.506E-02
 518  8.25485973   0.709  -1.34067   3.57501   6.96442   1.85950   0.03363   1.014E+00   0.000E+00  -1.459E-02
 519  8.25747340   0.709  -1.34056   3.57501   6.96439   1.85951   0.03363   1.014E+00   0.000E+00  -1.413E-02
 520  8.26007144   0.709  -1.34045   3.57502   6.96436   1.85953   0.03363   1.013E+00   0.000E+00  -1.367E-02
 521  8.26265402   0.709  -1.34034   3.57503   6.96433   1.85954   0.03363   1.013E+00   0.000E+00  -1.321E-02
 522  8.26522134   0.709  -1.34023   3.57503   6.96430   1.85955   0.03363   1.012E+00   0.000E+00  -1.274E-02
 523  8.26777357   0.709  -1.34012   3.57504   6.96427   1.85956   0.03363   1.012E+00   0.000E+00  -1.228E-02
 524  8.27031089   0.709  -1.34001   3.57505   6.96424   1.85957   0.03363   1.011E+00   0.000E+00  -1.182E-02
 525  8.27283347   0.709  -1.33990   3.57505   6.96421   1.85958   0.03363   1.011E+00   0.000E+00  -1.136E-02
 526  8.27534149   0.709  -1.33979   3.57506   6.96418   1.85960   0.03363   1.010E+00   0.000E+00  -1.089E-02
 527  8.27783510   0.709  -1.33968   3.57507   6.96415   1.85961   0.03363   1.010E+00   0.000E+00  -1.043E-02
 528  8.28031448   0.709  -1.33957   3.57507   6.96413   1.85962   0.03363   1.009E+00   0.000E+00  -9.968E-03
 529  8.28277978   0.709  -1.33946   3.57508   6.96410   1.85963   0.03363   1.009E+00   0.000E+00  -9.506E-03
 530  8.28523117   0.709  -1.33935   3.57509   6.96407   1.85964   0.03363   1.008E+00   0.000E+00  -9.043E-03
 531  8.28766880   0.709  -1.33925   3.57509   6.96404   1.85964   0.03360   1.008E+00   0.000E+00  -8.735E-03
 532  8.29009282   0.709  -1.33918   3.57510   6.96403   1.85961   0.03352   1.008E+00   0.000E+00  -8.649E-03
 533  8.29250339   0.709  -1.33911   3.57510   6.96401   1.85959   0.03344   1.008E+00   0.000E+00  -8.562E-03
 534  8.29490065   0.709  -1.33904   3.57510   6.96400   1.85957   0.03335   1.008E+00   0.000E+00  -8.476E-03
 535  8.29728475   0.709  -1.33898   3.57511   6.96398   1.85954   0.03327   1.008E+00   0.000E+00  -8.390E-03
 536  8.29965584   0.709  -1.33891   3.57511   6.96396   1.85952   0.03319   1.008E+00   0.000E+00  -8.304E-03
 537  8.30201405   0.709  -1.33884   3.57511   6.96395   1.85949   0.03311   1.008E+00   0.000E+00  -8.218E-03
 538  8.30435952   0.709  -1.33877   3.57512   6.96393   1.85947   0.03303   1.008E+00   0.000E+00  -8.131E-03
 539  8.30669240   0.709  -1.33870   3.57512   6.96392   1.85944   0.03295   1.008E+00   0.000E+00  -8.045E-03
 540  8.30901281   0.709  -1.33863   3.57513   6.96390   1.85942   0.03287   1.007E+00   0.000E+00  -7.959E-03
 541  8.31132089   0.709  -1.33856   3.57513   6.96388   1.85939   0.03279   1.007E+00   0.000E+00  -7.873E-03
 542  8.31361677   0.709  -1.33849   3.57513   6.96387   1.85937   0.03271   1.007E+00   0.000E+00  -7.787E-03
 543  8.31590057   0.709  -1.33842   3.57514   6.96385   1.85934   0.03263   1.007E+00   0.000E+00  -7.701E-03
 544  8.31817243   0.709  -1.33835   3.57514   6.96384   1.85932   0.03255   1.007E+00   0.000E+00  -7.614E-03
 545  8.32043247   0.709  -1.33828   3.57515   6.96382   1.85929   0.03247   1.007E+00   0.000E+00  -7.528E-03
 546  8.32268080   0.709  -1.33822   3.57515   6.96380   1.85927   0.03239   1.007E+00   0.000E+00  -7.442E-03
 547  8.32491756   0.709  -1.33815   3.57515   6.96379   1.85924   0.03231   1.007E+00   0.000E+00  -7.356E-03
 548  8.32714285   0.709  -1.33808   3.57516   6.96377   1.85922   0.03223   1.007E+00   0.000E+00  -7.270E-03
 549  8.32935680   0.709  -1.33802   3.57516   6.96376   1.85919   0.03216   1.007E+00   0.000E+00  -7.201E-03
 550  8.33155952   0.709  -1.33800   3.57516   6.96374   1.85915   0.03211   1.007E+00   0.000E+00  -7.172E-03
 551  8.33375113   0.708  -1.33797   3.57516   6.96373   1.85912   0.03207   1.007E+00   0.000E+00  -7.144E-03
 552  8.33593173   0.708  -1.33794   3.57516   6.96371   1.85908   0.03203   1.007E+00   0.000E+00  -7.115E-03
 553  8.33810143   0.708  -1.33792   3.57516   6.96370   1.85904   0.03198   1.007E+00   0.000E+00  -7.086E-03
 554  8.34026035   0.708  -1.33789   3.57516   6.96368   1.85901   0.03194   1.007E+00   0.000E+00  -7.058E-03
 555  8.34240860   0.708  -1.33786   3.57516   6.96367   1.85897   0.03190   1.007E+00   0.000E+00  -7.029E-03
 556  8.34454626   0.708  -1.33784   3.57516   6.96366   1.85894   0.03186   1.007E+00   0.000E+00  -7.000E-03
 557  8.34667346   0.708  -1.33781   3.57516   6.96364   1.85890   0.03181   1.007E+00   0.000E+00  -6.971E-03
 558  8.34879029   0.708  -1.33778   3.57516   6.96363   1.85886   0.03177   1.007E+00   0.000E+00  -6.943E-03
 559  8.35089685   0.708  -1.33776   3.57516   6.96361   1.85883   0.03173   1.007E+00   0.000E+00  -6.914E-03
 560  8.35299324   0.708  -1.33773   3.57516   6.96360   1.85879   0.03168   1.007E+00   0.000E+00  -6.885E-03
 561  8.35507957   0.708  -1.33770   3.57516   6.96358   1.85876   0.03164   1.007E+00   0.000E+00  -6.856E-03
 562  8.35715591   0.708  -1.33768   3.57516   6.96357   1.85872   0.03160   1.007E+00   0.000E+00  -6.828E-03
 563  8.35922238   0.708  -1.33765   3.57515   6.96355   1.85868   0.03155   1.006E+00   0.000E+00  -6.799E-03
 564  8.36127906   0.708  -1.33762   3.57515   6.96354   1.85865   0.03151   1.006E+00   0.000E+00  -6.770E-03
 565  8.36332605   0.708  -1.33760   3.57515   6.96353   1.85861   0.03147   1.006E+00   0.000E+00  -6.742E-03
 566  8.36536343   0.708  -1.33757   3.57515   6.96351   1.85858   0.03142   1.006E+00   0.000E+00  -6.713E-03
 567  8.36739130   0.708  -1.33754   3.57515   6.96350   1.85854   0.03138   1.006E+00   0.000E+00  -6.684E-03
 568  8.36940975   0.708  -1.33752   3.57515   6.96348   1.85850   0.03134   1.006E+00   0.000E+00  -6.655E-03
 569  8.37141886   0.708  -1.33749   3.57515   6.96347   1.85847   0.03129   1.006E+00   0.000E+00  -6.627E-03
 570  8.37341871   0.708  -1.33746   3.57515   6.96345   1.85843   0.03125   1.006E+00   0.000E+00  -6.598E-03
 571  8.37540940   0.708  -1.33744   3.57515   6.96344   1.85839   0.03121   1.006E+00   0.000E+00  -6.569E-03
 572  8.37739101   0.708  -1.33741   3.57515   6.96343   1.85836   0.03117   1.006E+00   0.000E+00  -6.540E-03
 573  8.37936362   0.708  -1.33739   3.57515   6.96341   1.85832   0.03112   1.006E+00   0.000E+00  -6.512E-03
 574  8.38132730   0.708  -1.33736   3.57515   6.96340   1.85829   0.03108   1.006E+00   0.000E+00  -6.483E-03
 575  8.38328215   0.708  -1.33733   3.57515   6.96338   1.85825   0.03104   1.006E+00   0.000E+00  -6.454E-03
 576  8.38522824   0.708  -1.33731   3.57515   6.96337   1.85821   0.03099   1.006E+00   0.000E+00  -6.427E-03
 577  8.38716565   0.708  -1.33730   3.57515   6.96335   1.85818   0.03092   1.006E+00   0.000E+00  -6.410E-03
 578  8.38909445   0.708  -1.33729   3.57515   6.96334   1.85815   0.03085   1.006E+00   0.000E+00  -6.393E-03
 579  8.39101472   0.708  -1.33728   3.57514   6.96333   1.85812   0.03078   1.006E+00   0.000E+00  -6.377E-03
 580  8.39292654   0.708  -1.33727   3.57514   6.96331   1.85809   0.03072   1.006E+00   0.000E+00  -6.360E-03
 581  8.39482999   0.708  -1.33726   3.57514   6.96330   1.85806   0.03065   1.006E+00   0.000E+00  -6.343E-03
 582  8.39672512   0.708  -1.33726   3.57514   6.96328   1.85802   0.03058   1.006E+00   0.000E+00  -6.326E-03
 583  8.39861202   0.708  -1.33725   3.57514   6.96327   1.85799   0.03051   1.006E+00   0.000E+00  -6.309E-03
 584  8.40049076   0.708  -1.33724   3.57513   6.96325   1.85796   0.03044   1.006E+00   0.000E+00  -6.292E-03
 585  8.40236141   0.708  -1.33723   3.57513   6.96324   1.85793   0.03037   1.006E+00   0.000E+00  -6.275E-03
 586  8.40422403   0.708  -1.33722   3.57513   6.96323   1.85790   0.03031   1.006E+00   0.000E+00  -6.258E-03
 587  8.40607870   0.708  -1.33721   3.57513   6.96321   1.85786   0.03024   1.006E+00   0.000E+00  -6.241E-03
 588  8.40792548   0.708  -1.33720   3.57513   6.96320   1.85783   0.03017   1.006E+00   0.000E+00  -6.224E-03
 589  8.40976444   0.708  -1.33719   3.57512   6.96318   1.85780   0.03010   1.006E+00   0.000E+00  -6.207E-03
 590  8.41159565   0.708  -1.33718   3.57512   6.96317   1.85777   0.03003   1.006E+00   0.000E+00  -6.190E-03
 591  8.41341917   0.708  -1.33718   3.57512   6.96315   1.85774   0.02997   1.006E+00   0.000E+00  -6.173E-03
 592  8.41523506   0.708  -1.33717   3.57512   6.96314   1.85770   0.02990   1.006E+00   0.000E+00  -6.156E-03
 593  8.41704340   0.708  -1.33716   3.57512   6.96313   1.85767   0.02983   1.006E+00   0.000E+00  -6.139E-03
 594  8.41884423   0.708  -1.33715   3.57511   6.96311   1.85764   0.02976   1.006E+00   0.000E+00  -6.122E-03
 595  8.42063763   0.708  -1.33714   3.57511   6.96310   1.85761   0.02969   1.006E+00   0.000E+00  -6.105E-03
 596  8.42242366   0.708  -1.33713   3.57511   6.96308   1.85758   0.02962   1.006E+00   0.000E+00  -6.089E-03
 597  8.42420236   0.708  -1.33712   3.57511   6.96307   1.85754   0.02956   1.005E+00   0.000E+00  -6.072E-03
 598  8.42597382   0.708  -1.33711   3.57511   6.96305   1.85751   0.02949   1.005E+00   0.000E+00  -6.055E-03
 599  8.42773807   0.708  -1.33711   3.57510   6.96304   1.85748   0.02942   1.005E+00   0.000E+00  -6.038E-03
 600  8.42949519   0.708  -1.33710   3.57510   6.96303   1.85745   0.02935   1.005E+00   0.000E+00  -6.021E-03
 601  8.43124523   0.708  -1.33709   3.57510   6.96301   1.85742   0.02928   1.005E+00   0.000E+00  -6.004E-03
 602  8.43298825   0.708  -1.33708   3.57510   6.96300   1.85739   0.02921   1.005E+00   0.000E+00  -5.987E-03
 603  8.43472429   0.708  -1.33707   3.57510   6.96298   1.85735   0.02915   1.005E+00   0.000E+00  -5.970E-03
 604  8.43645343   0.708  -1.33706   3.57509   6.96297   1.85732   0.02908   1.005E+00   0.000E+00  -5.953E-03
 605  8.43817571   0.708  -1.33705   3.57509   6.96295   1.85729   0.02901   1.005E+00   0.000E+00  -5.936E-03
 606  8.43989118   0.708  -1.33704   3.57509   6.96294   1.85726   0.02894   1.005E+00   0.000E+00  -5.919E-03
 607  8.44159991   0.708  -1.33703   3.57509   6.96293   1.85723   0.02887   1.005E+00   0.000E+00  -5.902E-03
 608  8.44330194   0.708  -1.33703   3.57509   6.96291   1.85719   0.02881   1.005E+00   0.000E+00  -5.885E-03
 609  8.44499732   0.708  -1.33702   3.57508   6.96290   1.85716   0.02874   1.005E+00   0.000E+00  -5.868E-03
 610  8.44668611   0.708  -1.33701   3.57508   6.96288   1.85713   0.02867   1.005E+00   0.000E+00  -5.851E-03
 611  8.44836836   0.708  -1.33700   3.57508   6.96287   1.85710   0.02860   1.005E+00   0.000E+00  -5.834E-03
 612  8.45004412   0.708  -1.33699   3.57508   6.96286   1.85707   0.02853   1.005E+00   0.000E+00  -5.817E-03
 613  8.45171344   0.708  -1.33698   3.57508   6.96284   1.85703   0.02846   1.005E+00   0.000E+00  -5.800E-03
 614  8.45337636   0.708  -1.33697   3.57508   6.96283   1.85700   0.02840   1.005E+00   0.000E+00  -5.784E-03
 615  8.45503295   0.708  -1.33696   3.57507   6.96281   1.85697   0.02833   1.005E+00   0.000E+00  -5.767E-03
 616  8.45668324   0.708  -1.33696   3.57507   6.96280   1.85694   0.02826   1.005E+00   0.000E+00  -5.750E-03
 617  8.45832728   0.708  -1.33695   3.57507   6.96278   1.85691   0.02819   1.005E+00   0.000E+00  -5.732E-03
 618  8.45996512   0.708  -1.33694   3.57507   6.96277   1.85689   0.02811   1.005E+00   0.000E+00  -5.712E-03
 619  8.46159680   0.708  -1.33693   3.57507   6.96276   1.85688   0.02803   1.005E+00   0.000E+00  -5.693E-03
 620  8.46322238   0.708  -1.33692   3.57506   6.96274   1.85686   0.02795   1.005E+00   0.000E+00  -5.674E-03
 621  8.46484190   0.708  -1.33692   3.57506   6.96273   1.85684   0.02787   1.005E+00   0.000E+00  -5.654E-03
 622  8.46645540   0.708  -1.33691   3.57506   6.96271   1.85682   0.02779   1.005E+00   0.000E+00  -5.635E-03
 623  8.46806293   0.708  -1.33690   3.57506   6.96270   1.85680   0.02771   1.005E+00   0.000E+00  -5.616E-03
 624  8.46966453   0.708  -1.33689   3.57506   6.96269   1.85679   0.02763   1.005E+00   0.000E+00  -5.597E-03
 625  8.47126025   0.708  -1.33689   3.57506   6.96267   1.85677   0.02755   1.005E+00   0.000E+00  -5.577E-03
 626  8.47285012   0.708  -1.33688   3.57505   6.96266   1.85675   0.02748   1.005E+00   0.000E+00  -5.558E-03
 627  8.47443419   0.708  -1.33687   3.57505   6.96264   1.85673   0.02740   1.005E+00   0.000E+00  -5.539E-03
 628  8.47601251   0.708  -1.33686   3.57505   6.96263   1.85671   0.02732   1.005E+00   0.000E+00  -5.519E-03
 629  8.47758512   0.708  -1.33686   3.57505   6.96262   1.85670   0.02724   1.005E+00   0.000E+00  -5.500E-03
 630  8.47915204   0.708  -1.33685   3.57505   6.96260   1.85668   0.02716   1.005E+00   0.000E+00  -5.481E-03
 631  8.48071334   0.708  -1.33684   3.57505   6.96259   1.85666   0.02708   1.005E+00   0.000E+00  -5.461E-03
 632  8.48226904   0.708  -1.33683   3.57504   6.96258   1.85664   0.02700   1.005E+00   0.000E+00  -5.442E-03
 633  8.48381919   0.708  -1.33683   3.57504   6.96256   1.85662   0.02692   1.005E+00   0.000E+00  -5.423E-03
 634  8.48536383   0.708  -1.33682   3.57504   6.96255   1.85661   0.02684   1.005E+00   0.000E+00  -5.403E-03
 635  8.48690299   0.708  -1.33681   3.57504   6.96253   1.85659   0.02677   1.005E+00   0.000E+00  -5.384E-03
 636  8.48843672   0.708  -1.33680   3.57504   6.96252   1.85657   0.02669   1.005E+00   0.000E+00  -5.365E-03
 637  8.48996505   0.708  -1.33680   3.57504   6.96251   1.85655   0.02661   1.005E+00   0.000E+00  -5.345E-03
 638  8.49148802   0.708  -1.33679   3.57503   6.96249   1.85653   0.02653   1.005E+00   0.000E+00  -5.326E-03
 639  8.49300567   0.708  -1.33678   3.57503   6.96248   1.85652   0.02645   1.005E+00   0.000E+00  -5.307E-03
 640  8.49451803   0.708  -1.33677   3.57503   6.96246   1.85650   0.02637   1.005E+00   0.000E+00  -5.287E-03
 641  8.49602514   0.708  -1.33677   3.57503   6.96245   1.85648   0.02629   1.005E+00   0.000E+00  -5.268E-03
 642  8.49752705   0.708  -1.33676   3.57503   6.96244   1.85646   0.02621   1.005E+00   0.000E+00  -5.249E-03
 643  8.49902377   0.708  -1.33675   3.57503   6.96242   1.85644   0.02613   1.005E+00   0.000E+00  -5.230E-03
 644  8.50051536   0.708  -1.33674   3.57503   6.96241   1.85643   0.02606   1.005E+00   0.000E+00  -5.210E-03
 645  8.50200184   0.708  -1.33674   3.57502   6.96239   1.85641   0.02598   1.005E+00   0.000E+00  -5.191E-03
 646  8.50348325   0.708  -1.33673   3.57502   6.96238   1.85639   0.02590   1.005E+00   0.000E+00  -5.172E-03
 647  8.50495962   0.707  -1.33672   3.57502   6.96237   1.85637   0.02582   1.005E+00   0.000E+00  -5.152E-03
 648  8.50643100   0.707  -1.33671   3.57502   6.96235   1.85635   0.02574   1.004E+00   0.000E+00  -5.133E-03
 649  8.50789740   0.707  -1.33671   3.57502   6.96234   1.85634   0.02566   1.004E+00   0.000E+00  -5.114E-03
 650  8.50935887   0.707  -1.33670   3.57502   6.96232   1.85632   0.02558   1.004E+00   0.000E+00  -5.094E-03
 651  8.51081544   0.707  -1.33669   3.57501   6.96231   1.85630   0.02550   1.004E+00   0.000E+00  -5.075E-03
 652  8.51226714   0.707  -1.33668   3.57501   6.96230   1.85628   0.02542   1.004E+00   0.000E+00  -5.056E-03
 653  8.51371400   0.707  -1.33668   3.57501   6.96228   1.85626   0.02535   1.004E+00   0.000E+00  -5.036E-03
 654  8.51515606   0.707  -1.33667   3.57501   6.96227   1.85625   0.02527   1.004E+00   0.000E+00  -5.017E-03
 655  8.51659334   0.707  -1.33666   3.57501   6.96226   1.85623   0.02519   1.004E+00   0.000E+00  -4.998E-03
 656  8.51802589   0.707  -1.33665   3.57501   6.96224   1.85621   0.02511   1.004E+00   0.000E+00  -4.978E-03
 657  8.51945372   0.707  -1.33665   3.57500   6.96223   1.85619   0.02503   1.004E+00   0.000E+00  -4.959E-03
 658  8.52087688   0.707  -1.33664   3.57500   6.96221   1.85617   0.02495   1.004E+00   0.000E+00  -4.940E-03
 659  8.52229539   0.707  -1.33663   3.57500   6.96220   1.85616   0.02487   1.004E+00   0.000E+00  -4.920E-03
 660  8.52370928   0.707  -1.33662   3.57500   6.96219   1.85614   0.02479   1.004E+00   0.000E+00  -4.901E-03
 661  8.52511858   0.707  -1.33662   3.57500   6.96217   1.85612   0.02471   1.004E+00   0.000E+00  -4.882E-03
 662  8.52652332   0.707  -1.33661   3.57500   6.96216   1.85610   0.02464   1.004E+00   0.000E+00  -4.863E-03
 663  8.52792354   0.707  -1.33660   3.57499   6.96214   1.85608   0.02456   1.004E+00   0.000E+00  -4.843E-03
 664  8.52931925   0.707  -1.33659   3.57499   6.96213   1.85607   0.02448   1.004E+00   0.000E+00  -4.824E-03
 665  8.53071049   0.707  -1.33659   3.57499   6.96212   1.85605   0.02440   1.004E+00   0.000E+00  -4.805E-03
 666  8.53209729   0.707  -1.33658   3.57499   6.96210   1.85603   0.02432   1.004E+00   0.000E+00  -4.785E-03
 667  8.53347968   0.707  -1.33657   3.57499   6.96209   1.85601   0.02424   1.004E+00   0.000E+00  -4.766E-03
 668  8.53485768   0.707  -1.33656   3.57499   6.96207   1.85599   0.02416   1.004E+00   0.000E+00  -4.747E-03
 669  8.53623132   0.707  -1.33656   3.57498   6.96206   1.85598   0.02408   1.004E+00   0.000E+00  -4.727E-03
 670  8.53760063   0.707  -1.33655   3.57498   6.96205   1.85596   0.02400   1.004E+00   0.000E+00  -4.708E-03
 671  8.53896564   0.707  -1.33654   3.57498   6.96203   1.85594   0.02393   1.004E+00   0.000E+00  -4.689E-03
 672  8.54032637   0.707  -1.33653   3.57498   6.96202   1.85592   0.02385   1.004E+00   0.000E+00  -4.669E-03
 673  8.54168285   0.707  -1.33653   3.57498   6.96200   1.85590   0.02377   1.004E+00   0.000E+00  -4.650E-03
 674  8.54303510   0.707  -1.33652   3.57498   6.96199   1.85589   0.02369   1.004E+00   0.000E+00  -4.631E-03
 675  8.54438316   0.707  -1.33651   3.57497   6.96198   1.85587   0.02361   1.004E+00   0.000E+00  -4.611E-03
 676  8.54572705   0.707  -1.33650   3.57497   6.96196   1.85585   0.02353   1.004E+00   0.000E+00  -4.592E-03
 677  8.54706679   0.707  -1.33649   3.57497   6.96195   1.85583   0.02345   1.004E+00   0.000E+00  -4.573E-03
 678  8.54840241   0.707  -1.33649   3.57497   6.96194   1.85582   0.02338   1.004E+00   0.000E+00  -4.559E-03
 679  8.54973394   0.707  -1.33648   3.57497   6.96192   1.85580   0.02332   1.004E+00   0.000E+00  -4.556E-03
 680  8.55106140   0.707  -1.33647   3.57497   6.96191   1.85579   0.02326   1.004E+00   0.000E+00  -4.553E-03
 681  8.55238481   0.707  -1.33647   3.57496   6.96189   1.85577   0.02320   1.004E+00   0.000E+00  -4.550E-03
 682  8.55370420   0.707  -1.33646   3.57496   6.96188   1.85576   0.02314   1.004E+00   0.000E+00  -4.547E-03
 683  8.55501959   0.707  -1.33645   3.57496   6.96186   1.85575   0.02308   1.004E+00   0.000E+00  -4.544E-03
 684  8.55633101   0.707  -1.33644   3.57496   6.96185   1.85573   0.02302   1.004E+00   0.000E+00  -4.541E-03
 685  8.55763849   0.707  -1.33644   3.57496   6.96183   1.85572   0.02296   1.004E+00   0.000E+00  -4.538E-03
 686  8.55894204   0.707  -1.33643   3.57496   6.96182   1.85570   0.02290   1.004E+00   0.000E+00  -4.535E-03
 687  8.56024169   0.707  -1.33642   3.57496   6.96180   1.85569   0.02284   1.004E+00   0.000E+00  -4.531E-03
 688  8.56153746   0.707  -1.33641   3.57495   6.96179   1.85568   0.02278   1.004E+00   0.000E+00  -4.528E-03
 689  8.56282938   0.707  -1.33641   3.57495   6.96178   1.85566   0.02272   1.004E+00   0.000E+00  -4.525E-03
 690  8.56411746   0.707  -1.33640   3.57495   6.96176   1.85565   0.02266   1.004E+00   0.000E+00  -4.522E-03
 691  8.56540174   0.707  -1.33639   3.57495   6.96175   1.85563   0.02260   1.004E+00   0.000E+00  -4.519E-03
 692  8.56668223   0.707  -1.33638   3.57495   6.96173   1.85562   0.02254   1.004E+00   0.000E+00  -4.516E-03
 693  8.56795895   0.707  -1.33638   3.57495   6.96172   1.85561   0.02248   1.004E+00   0.000E+00  -4.513E-03
 694  8.56923193   0.707  -1.33637   3.57495   6.96170   1.85559   0.02242   1.004E+00   0.000E+00  -4.510E-03
 695  8.57050120   0.707  -1.33636   3.57494   6.96169   1.85558   0.02236   1.004E+00   0.000E+00  -4.507E-03
 696  8.57176676   0.707  -1.33635   3.57494   6.96167   1.85556   0.02230   1.004E+00   0.000E+00  -4.504E-03
 697  8.57302865   0.707  -1.33635   3.57494   6.96166   1.85555   0.02224   1.004E+00   0.000E+00  -4.501E-03
 698  8.57428688   0.707  -1.33634   3.57494   6.96164   1.85554   0.02218   1.004E+00   0.000E+00  -4.498E-03
 699  8.57554147   0.707  -1.33633   3.57494   6.96163   1.85552   0.02212   1.004E+00   0.000E+00  -4.495E-03
 700  8.57679245   0.707  -1.33632   3.57494   6.96162   1.85551   0.02206   1.004E+00   0.000E+00  -4.492E-03
 701  8.57803984   0.707  -1.33632   3.57493   6.96160   1.85549   0.02200   1.004E+00   0.000E+00  -4.489E-03
 702  8.57928366   0.707  -1.33631   3.57493   6.96159   1.85548   0.02194   1.004E+00   0.000E+00  -4.486E-03
 703  8.58052392   0.707  -1.33630   3.57493   6.96157   1.85547   0.02188   1.004E+00   0.000E+00  -4.483E-03
 704  8.58176065   0.707  -1.33629   3.57493   6.96156   1.85545   0.02182   1.004E+00   0.000E+00  -4.480E-03
 705  8.58299387   0.707  -1.33629   3.57493   6.96154   1.85544   0.02176   1.004E+00   0.000E+00  -4.476E-03
 706  8.58422360   0.707  -1.33628   3.57493   6.96153   1.85542   0.02170   1.004E+00   0.000E+00  -4.473E-03
 707  8.58544986   0.707  -1.33627   3.57493   6.96151   1.85541   0.02164   1.004E+00   0.000E+00  -4.470E-03
 708  8.58667266   0.707  -1.33626   3.57492   6.96150   1.85540   0.02158   1.004E+00   0.000E+00  -4.467E-03
 709  8.58789203   0.707  -1.33626   3.57492   6.96149   1.85538   0.02152   1.004E+00   0.000E+00  -4.464E-03
 710  8.58910799   0.707  -1.33625   3.57492   6.96147   1.85537   0.02146   1.004E+00   0.000E+00  -4.461E-03
 711  8.59032055   0.707  -1.33624   3.57492   6.96146   1.85535   0.02140   1.004E+00   0.000E+00  -4.458E-03
 712  8.59152974   0.707  -1.33624   3.57492   6.96144   1.85534   0.02134   1.004E+00   0.000E+00  -4.455E-03
 713  8.59273556   0.707  -1.33623   3.57492   6.96143   1.85533   0.02128   1.004E+00   0.000E+00  -4.452E-03
 714  8.59393805   0.707  -1.33622   3.57491   6.96141   1.85531   0.02122   1.004E+00   0.000E+00  -4.449E-03
 715  8.59513722   0.707  -1.33621   3.57491   6.96140   1.85530   0.02116   1.004E+00   0.000E+00  -4.446E-03
 716  8.59633309   0.707  -1.33621   3.57491   6.96138   1.85528   0.02110   1.004E+00   0.000E+00  -4.443E-03
 717  8.59752567   0.707  -1.33620   3.57491   6.96137   1.85527   0.02104   1.004E+00   0.000E+00  -4.440E-03
 718  8.59871499   0.707  -1.33619   3.57491   6.96135   1.85526   0.02098   1.004E+00   0.000E+00  -4.437E-03
 719  8.59990106   0.707  -1.33618   3.57491   6.96134   1.85524   0.02092   1.004E+00   0.000E+00  -4.434E-03
 720  8.60108390   0.707  -1.33618   3.57491   6.96133   1.85523   0.02086   1.004E+00   0.000E+00  -4.431E-03
 721  8.60226352   0.707  -1.33617   3.57490   6.96131   1.85521   0.02080   1.004E+00   0.000E+00  -4.428E-03
 722  8.60343995   0.707  -1.33616   3.57490   6.96130   1.85520   0.02074   1.004E+00   0.000E+00  -4.425E-03
 723  8.60461320   0.707  -1.33615   3.57490   6.96128   1.85519   0.02068   1.004E+00   0.000E+00  -4.421E-03
 724  8.60578329   0.707  -1.33615   3.57490   6.96127   1.85517   0.02062   1.004E+00   0.000E+00  -4.418E-03
 725  8.60695024   0.707  -1.33614   3.57490   6.96125   1.85516   0.02056   1.004E+00   0.000E+00  -4.415E-03
 726  8.60811406   0.707  -1.33613   3.57490   6.96124   1.85514   0.02050   1.004E+00   0.000E+00  -4.412E-03
 727  8.60927477   0.707  -1.33612   3.57489   6.96122   1.85513   0.02044   1.004E+00   0.000E+00  -4.409E-03
 728  8.61043239   0.707  -1.33612   3.57489   6.96121   1.85512   0.02038   1.004E+00   0.000E+00  -4.406E-03
 729  8.61158693   0.707  -1.33611   3.57489   6.96119   1.85510   0.02032   1.004E+00   0.000E+00  -4.403E-03
 730  8.61273840   0.707  -1.33610   3.57489   6.96118   1.85509   0.02026   1.004E+00   0.000E+00  -4.400E-03
 731  8.61388683   0.707  -1.33609   3.57489   6.96117   1.85507   0.02020   1.004E+00   0.000E+00  -4.397E-03
 732  8.61503224   0.707  -1.33609   3.57489   6.96115   1.85506   0.02014   1.004E+00   0.000E+00  -4.394E-03
 733  8.61617463   0.707  -1.33608   3.57489   6.96114   1.85505   0.02008   1.004E+00   0.000E+00  -4.391E-03
 734  8.61731402   0.707  -1.33607   3.57488   6.96112   1.85503   0.02002   1.004E+00   0.000E+00  -4.388E-03
 735  8.61845043   0.707  -1.33606   3.57488   6.96111   1.85502   0.01996   1.004E+00   0.000E+00  -4.385E-03
 736  8.61958388   0.707  -1.33606   3.57488   6.96109   1.85501   0.01990   1.004E+00   0.000E+00  -4.382E-03
 737  8.62071437   0.707  -1.33605   3.57488   6.96108   1.85499   0.01985   1.004E+00   0.000E+00  -4.379E-03
 738  8.62184193   0.707  -1.33604   3.57488   6.96106   1.85498   0.01979   1.004E+00   0.000E+00  -4.376E-03
 739  8.62296658   0.707  -1.33603   3.57488   6.96105   1.85496   0.01973   1.004E+00   0.000E+00  -4.373E-03
 740  8.62408831   0.707  -1.33603   3.57487   6.96104   1.85495   0.01967   1.004E+00   0.000E+00  -4.370E-03
 741  8.62520716   0.706  -1.33602   3.57487   6.96102   1.85494   0.01961   1.004E+00   0.000E+00  -4.366E-03
 742  8.62632313   0.706  -1.33601   3.57487   6.96101   1.85492   0.01955   1.004E+00   0.000E+00  -4.363E-03
 743  8.62743624   0.706  -1.33601   3.57487   6.96099   1.85491   0.01949   1.004E+00   0.000E+00  -4.360E-03
 744  8.62854650   0.706  -1.33600   3.57487   6.96098   1.85489   0.01943   1.004E+00   0.000E+00  -4.357E-03
 745  8.62965394   0.706  -1.33599   3.57487   6.96096   1.85488   0.01937   1.004E+00   0.000E+00  -4.354E-03
 746  8.63075855   0.706  -1.33598   3.57487   6.96095   1.85487   0.01931   1.004E+00   0.000E+00  -4.351E-03
 747  8.63186037   0.706  -1.33598   3.57486   6.96093   1.85485   0.01925   1.004E+00   0.000E+00  -4.348E-03
 748  8.63295939   0.706  -1.33597   3.57486   6.96092   1.85484   0.01919   1.004E+00   0.000E+00  -4.345E-03
 749  8.63405565   0.706  -1.33596   3.57486   6.96090   1.85482   0.01913   1.004E+00   0.000E+00  -4.342E-03
 750  8.63514914   0.706  -1.33595   3.57486   6.96089   1.85481   0.01907   1.004E+00   0.000E+00  -4.339E-03
 751  8.63623988   0.706  -1.33595   3.57486   6.96088   1.85480   0.01901   1.004E+00   0.000E+00  -4.336E-03
 752  8.63732790   0.706  -1.33594   3.57486   6.96086   1.85478   0.01895   1.004E+00   0.000E+00  -4.333E-03
 753  8.63841319   0.706  -1.33593   3.57485   6.96085   1.85477   0.01889   1.004E+00   0.000E+00  -4.330E-03
 754  8.63949578   0.706  -1.33592   3.57485   6.96083   1.85475   0.01883   1.004E+00   0.000E+00  -4.327E-03
 755  8.64057568   0.706  -1.33592   3.57485   6.96082   1.85474   0.01877   1.004E+00   0.000E+00  -4.324E-03
 756  8.64165289   0.706  -1.33591   3.57485   6.96080   1.85473   0.01871   1.004E+00   0.000E+00  -4.321E-03
 757  8.64272745   0.706  -1.33590   3.57485   6.96079   1.85471   0.01865   1.004E+00   0.000E+00  -4.318E-03
 758  8.64379935   0.706  -1.33589   3.57485   6.96077   1.85470   0.01859   1.004E+00   0.000E+00  -4.315E-03
 759  8.64486861   0.706  -1.33589   3.57485   6.96076   1.85468   0.01853   1.004E+00   0.000E+00  -4.311E-03
 760  8.64593525   0.706  -1.33588   3.57484   6.96074   1.85467   0.01847   1.004E+00   0.000E+00  -4.308E-03
 761  8.64699927   0.706  -1.33587   3.57484   6.96073   1.85466   0.01841   1.004E+00   0.000E+00  -4.305E-03
 762  8.64806069   0.706  -1.33586   3.57484   6.96072   1.85464   0.01835   1.004E+00   0.000E+00  -4.302E-03
 763  8.64911952   0.706  -1.33586   3.57484   6.96070   1.85463   0.01829   1.004E+00   0.000E+00  -4.299E-03
 764  8.65017578   0.706  -1.33585   3.57484   6.96069   1.85461   0.01823   1.004E+00   0.000E+00  -4.296E-03
 765  8.65122948   0.706  -1.33584   3.57484   6.96067   1.85460   0.01817   1.004E+00   0.000E+00  -4.293E-03
 766  8.65228062   0.706  -1.33583   3.57484   6.96066   1.85459   0.01811   1.004E+00   0.000E+00  -4.290E-03
 767  8.65332923   0.706  -1.33583   3.57483   6.96064   1.85457   0.01805   1.004E+00   0.000E+00  -4.287E-03
 768  8.65437531   0.706  -1.33582   3.57483   6.96063   1.85456   0.01799   1.004E+00   0.000E+00  -4.284E-03
 769  8.65541888   0.706  -1.33581   3.57483   6.96061   1.85454   0.01793   1.004E+00   0.000E+00  -4.281E-03
 770  8.65645995   0.706  -1.33581   3.57483   6.96060   1.85453   0.01788   1.004E+00   0.000E+00  -4.279E-03
 771  8.65749853   0.706  -1.33580   3.57483   6.96059   1.85452   0.01784   1.004E+00   0.000E+00  -4.278E-03
 772  8.65853463   0.706  -1.33579   3.57483   6.96057   1.85450   0.01779   1.004E+00   0.000E+00  -4.276E-03
 773  8.65956826   0.706  -1.33579   3.57482   6.96056   1.85449   0.01775   1.004E+00   0.000E+00  -4.275E-03
 774  8.66059944   0.706  -1.33578   3.57482   6.96054   1.85448   0.01771   1.004E+00   0.000E+00  -4.274E-03
 775  8.66162817   0.706  -1.33577   3.57482   6.96053   1.85446   0.01766   1.004E+00   0.000E+00  -4.272E-03
 776  8.66265448   0.706  -1.33577   3.57482   6.96052   1.85445   0.01762   1.004E+00   0.000E+00  -4.271E-03
 777  8.66367837   0.706  -1.33576   3.57482   6.96050   1.85444   0.01758   1.004E+00   0.000E+00  -4.269E-03
 778  8.66469984   0.706  -1.33575   3.57482   6.96049   1.85443   0.01754   1.004E+00   0.000E+00  -4.268E-03
 779  8.66571892   0.706  -1.33575   3.57482   6.96047   1.85441   0.01749   1.004E+00   0.000E+00  -4.267E-03
 780  8.66673562   0.706  -1.33574   3.57481   6.96046   1.85440   0.01745   1.004E+00   0.000E+00  -4.265E-03
 781  8.66774994   0.706  -1.33573   3.57481   6.96044   1.85439   0.01741   1.004E+00   0.000E+00  -4.264E-03
 782  8.66876190   0.706  -1.33573   3.57481   6.96043   1.85437   0.01736   1.004E+00   0.000E+00  -4.262E-03
 783  8.66977150   0.706  -1.33572   3.57481   6.96042   1.85436   0.01732   1.004E+00   0.000E+00  -4.261E-03
 784  8.67077876   0.706  -1.33571   3.57481   6.96040   1.85435   0.01728   1.004E+00   0.000E+00  -4.260E-03
 785  8.67178370   0.706  -1.33571   3.57481   6.96039   1.85433   0.01723   1.004E+00   0.000E+00  -4.258E-03
 786  8.67278631   0.706  -1.33570   3.57480   6.96037   1.85432   0.01719   1.004E+00   0.000E+00  -4.257E-03
 787  8.67378661   0.706  -1.33570   3.57480   6.96036   1.85431   0.01715   1.004E+00   0.000E+00  -4.256E-03
 788  8.67478462   0.706  -1.33569   3.57480   6.96035   1.85429   0.01710   1.004E+00   0.000E+00  -4.254E-03
 789  8.67578033   0.706  -1.33568   3.57480   6.96033   1.85428   0.01706   1.004E+00   0.000E+00  -4.253E-03
 790  8.67677377   0.706  -1.33568   3.57480   6.96032   1.85427   0.01702   1.004E+00   0.000E+00  -4.251E-03
 791  8.67776494   0.706  -1.33567   3.57480   6.96030   1.85425   0.01698   1.004E+00   0.000E+00  -4.250E-03
 792  8.67875386   0.706  -1.33566   3.57480   6.96029   1.85424   0.01693   1.004E+00   0.000E+00  -4.249E-03
 793  8.67974052   0.706  -1.33566   3.57479   6.96028   1.85423   0.01689   1.004E+00   0.000E+00  -4.247E-03
 794  8.68072495   0.706  -1.33565   3.57479   6.96026   1.85421   0.01685   1.004E+00   0.000E+00  -4.246E-03
 795  8.68170716   0.706  -1.33564   3.57479   6.96025   1.85420   0.01680   1.004E+00   0.000E+00  -4.244E-03
 796  8.68268715   0.706  -1.33564   3.57479   6.96023   1.85419   0.01676   1.004E+00   0.000E+00  -4.243E-03
 797  8.68366493   0.706  -1.33563   3.57479   6.96022   1.85418   0.01672   1.004E+00   0.000E+00  -4.242E-03
 798  8.68464051   0.706  -1.33562   3.57479   6.96020   1.85416   0.01667   1.004E+00   0.000E+00  -4.240E-03
 799  8.68561391   0.706  -1.33562   3.57478   6.96019   1.85415   0.01663   1.004E+00   0.000E+00  -4.239E-03
 800  8.68658513   0.706  -1.33561   3.57478   6.96018   1.85414   0.01659   1.004E+00   0.000E+00  -4.238E-03
 801  8.68755419   0.706  -1.33560   3.57478   6.96016   1.85412   0.01654   1.004E+00   0.000E+00  -4.236E-03
 802  8.68852109   0.706  -1.33560   3.57478   6.96015   1.85411   0.01650   1.004E+00   0.000E+00  -4.235E-03
 803  8.68948584   0.706  -1.33559   3.57478   6.96013   1.85410   0.01646   1.004E+00   0.000E+00  -4.233E-03
 804  8.69044845   0.706  -1.33559   3.57478   6.96012   1.85408   0.01642   1.004E+00   0.000E+00  -4.232E-03
 805  8.69140893   0.706  -1.33558   3.57478   6.96011   1.85407   0.01637   1.004E+00   0.000E+00  -4.231E-03
 806  8.69236729   0.706  -1.33557   3.57477   6.96009   1.85406   0.01633   1.004E+00   0.000E+00  -4.229E-03
 807  8.69332354   0.706  -1.33557   3.57477   6.96008   1.85404   0.01629   1.004E+00   0.000E+00  -4.228E-03
 808  8.69427770   0.706  -1.33556   3.57477   6.96006   1.85403   0.01624   1.004E+00   0.000E+00  -4.227E-03
 809  8.69522976   0.706  -1.33555   3.57477   6.96005   1.85402   0.01620   1.004E+00   0.000E+00  -4.225E-03
 810  8.69617973   0.706  -1.33555   3.57477   6.96004   1.85400   0.01616   1.004E+00   0.000E+00  -4.224E-03
 811  8.69712764   0.706  -1.33554   3.57477   6.96002   1.85399   0.01611   1.004E+00   0.000E+00  -4.222E-03
 812  8.69807348   0.706  -1.33553   3.57476   6.96001   1.85398   0.01607   1.004E+00   0.000E+00  -4.221E-03
 813  8.69901726   0.706  -1.33553   3.57476   6.95999   1.85396   0.01603   1.004E+00   0.000E+00  -4.220E-03
 814  8.69995900   0.706  -1.33552   3.57476   6.95998   1.85395   0.01598   1.004E+00   0.000E+00  -4.218E-03
 815  8.70089870   0.706  -1.33551   3.57476   6.95996   1.85394   0.01594   1.004E+00   0.000E+00  -4.217E-03
 816  8.70183637   0.706  -1.33551   3.57476   6.95995   1.85393   0.01590   1.004E+00   0.000E+00  -4.215E-03
 817  8.70277202   0.706  -1.33550   3.57476   6.95994   1.85391   0.01586   1.004E+00   0.000E+00  -4.214E-03
 818  8.70370566   0.706  -1.33549   3.57476   6.95992   1.85390   0.01581   1.004E+00   0.000E+00  -4.213E-03
 819  8.70463730   0.706  -1.33549   3.57475   6.95991   1.85389   0.01577   1.004E+00   0.000E+00  -4.211E-03
 820  8.70556694   0.706  -1.33548   3.57475   6.95989   1.85387   0.01573   1.004E+00   0.000E+00  -4.210E-03
 821  8.70649459   0.706  -1.33548   3.57475   6.95988   1.85386   0.01568   1.004E+00   0.000E+00  -4.209E-03
 822  8.70742027   0.706  -1.33547   3.57475   6.95987   1.85385   0.01564   1.004E+00   0.000E+00  -4.207E-03
 823  8.70834398   0.706  -1.33546   3.57475   6.95985   1.85383   0.01560   1.004E+00   0.000E+00  -4.206E-03
 824  8.70926573   0.706  -1.33546   3.57475   6.95984   1.85382   0.01555   1.004E+00   0.000E+00  -4.204E-03
 825  8.71018553   0.706  -1.33545   3.57474   6.95982   1.85381   0.01551   1.004E+00   0.000E+00  -4.203E-03
 826  8.71110339   0.706  -1.33544   3.57474   6.95981   1.85379   0.01547   1.004E+00   0.000E+00  -4.202E-03
 827  8.71201930   0.706  -1.33544   3.57474   6.95980   1.85378   0.01542   1.004E+00   0.000E+00  -4.200E-03
 828  8.71293329   0.706  -1.33543   3.57474   6.95978   1.85377   0.01538   1.004E+00   0.000E+00  -4.199E-03
 829  8.71384537   0.706  -1.33542   3.57474   6.95977   1.85375   0.01534   1.004E+00   0.000E+00  -4.197E-03
 830  8.71475553   0.706  -1.33542   3.57474   6.95975   1.85374   0.01530   1.004E+00   0.000E+00  -4.196E-03
 831  8.71566378   0.706  -1.33541   3.57474   6.95974   1.85373   0.01525   1.004E+00   0.000E+00  -4.195E-03
 832  8.71657014   0.706  -1.33540   3.57473   6.95973   1.85371   0.01521   1.004E+00   0.000E+00  -4.193E-03
 833  8.71747462   0.705  -1.33540   3.57473   6.95971   1.85370   0.01517   1.004E+00   0.000E+00  -4.192E-03
 834  8.71837721   0.705  -1.33539   3.57473   6.95970   1.85369   0.01512   1.004E+00   0.000E+00  -4.191E-03
 835  8.71927793   0.705  -1.33538   3.57473   6.95968   1.85367   0.01508   1.004E+00   0.000E+00  -4.189E-03
 836  8.72017679   0.705  -1.33538   3.57473   6.95967   1.85366   0.01504   1.004E+00   0.000E+00  -4.188E-03
 837  8.72107379   0.705  -1.33537   3.57473   6.95965   1.85365   0.01499   1.004E+00   0.000E+00  -4.186E-03
 838  8.72196894   0.705  -1.33537   3.57473   6.95964   1.85364   0.01495   1.004E+00   0.000E+00  -4.185E-03
 839  8.72286225   0.705  -1.33536   3.57472   6.95963   1.85362   0.01491   1.004E+00   0.000E+00  -4.184E-03
 840  8.72375373   0.705  -1.33535   3.57472   6.95961   1.85361   0.01487   1.004E+00   0.000E+00  -4.182E-03
 841  8.72464338   0.705  -1.33535   3.57472   6.95960   1.85360   0.01482   1.004E+00   0.000E+00  -4.181E-03
 842  8.72553121   0.705  -1.33534   3.57472   6.95958   1.85358   0.01478   1.004E+00   0.000E+00  -4.180E-03
 843  8.72641723   0.705  -1.33533   3.57472   6.95957   1.85357   0.01474   1.004E+00   0.000E+00  -4.178E-03
 844  8.72730145   0.705  -1.33533   3.57472   6.95956   1.85356   0.01469   1.004E+00   0.000E+00  -4.177E-03
 845  8.72818387   0.705  -1.33532   3.57471   6.95954   1.85354   0.01465   1.004E+00   0.000E+00  -4.175E-03
 846  8.72906450   0.705  -1.33531   3.57471   6.95953   1.85353   0.01461   1.004E+00   0.000E+00  -4.174E-03
 847  8.72994335   0.705  -1.33531   3.57471   6.95951   1.85352   0.01456   1.004E+00   0.000E+00  -4.173E-03
 848  8.73082042   0.705  -1.33530   3.57471   6.95950   1.85350   0.01452   1.004E+00   0.000E+00  -4.171E-03
 849  8.73169573   0.705  -1.33529   3.57471   6.95949   1.85349   0.01448   1.004E+00   0.000E+00  -4.170E-03
 850  8.73256927   0.705  -1.33529   3.57471   6.95947   1.85348   0.01443   1.004E+00   0.000E+00  -4.168E-03
 851  8.73344106   0.705  -1.33528   3.57471   6.95946   1.85346   0.01439   1.004E+00   0.000E+00  -4.167E-03
 852  8.73431111   0.705  -1.33527   3.57470   6.95944   1.85345   0.01435   1.004E+00   0.000E+00  -4.166E-03
 853  8.73517941   0.705  -1.33527   3.57470   6.95943   1.85344   0.01431   1.004E+00   0.000E+00  -4.164E-03
 854  8.73604599   0.705  -1.33526   3.57470   6.95941   1.85342   0.01426   1.004E+00   0.000E+00  -4.163E-03
 855  8.73691083   0.705  -1.33526   3.57470   6.95940   1.85341   0.01422   1.004E+00   0.000E+00  -4.162E-03
 856  8.73777396   0.705  -1.33525   3.57470   6.95939   1.85340   0.01418   1.004E+00   0.000E+00  -4.160E-03
 857  8.73863538   0.705  -1.33524   3.57470   6.95937   1.85339   0.01413   1.004E+00   0.000E+00  -4.159E-03
 858  8.73949509   0.705  -1.33524   3.57469   6.95936   1.85337   0.01409   1.004E+00   0.000E+00  -4.157E-03
 859  8.74035311   0.705  -1.33523   3.57469   6.95934   1.85336   0.01405   1.004E+00   0.000E+00  -4.156E-03
 860  8.74120943   0.705  -1.33522   3.57469   6.95933   1.85335   0.01400   1.004E+00   0.000E+00  -4.155E-03
 861  8.74206406   0.705  -1.33522   3.57469   6.95932   1.85333   0.01396   1.004E+00   0.000E+00  -4.153E-03
 862  8.74291702   0.705  -1.33521   3.57469   6.95930   1.85332   0.01392   1.004E+00   0.000E+00  -4.152E-03
 863  8.74376831   0.705  -1.33520   3.57469   6.95929   1.85331   0.01387   1.004E+00   0.000E+00  -4.150E-03
 864  8.74461793   0.705  -1.33520   3.57469   6.95927   1.85329   0.01383   1.004E+00   0.000E+00  -4.149E-03
 865  8.74546589   0.705  -1.33519   3.57468   6.95926   1.85328   0.01379   1.004E+00   0.000E+00  -4.148E-03
 866  8.74631220   0.705  -1.33518   3.57468   6.95925   1.85327   0.01375   1.004E+00   0.000E+00  -4.146E-03
 867  8.74715686   0.705  -1.33518   3.57468   6.95923   1.85325   0.01370   1.004E+00   0.000E+00  -4.145E-03
 868  8.74799988   0.705  -1.33517   3.57468   6.95922   1.85324   0.01366   1.004E+00   0.000E+00  -4.144E-03
 869  8.74884127   0.705  -1.33516   3.57468   6.95920   1.85323   0.01362   1.004E+00   0.000E+00  -4.142E-03
 870  8.74968104   0.705  -1.33516   3.57468   6.95919   1.85321   0.01357   1.004E+00   0.000E+00  -4.141E-03
 871  8.75051918   0.705  -1.33515   3.57467   6.95917   1.85320   0.01353   1.004E+00   0.000E+00  -4.139E-03
 872  8.75135571   0.705  -1.33515   3.57467   6.95916   1.85319   0.01349   1.004E+00   0.000E+00  -4.138E-03
 873  8.75219063   0.705  -1.33514   3.57467   6.95915   1.85317   0.01344   1.004E+00   0.000E+00  -4.137E-03
 874  8.75302395   0.705  -1.33513   3.57467   6.95913   1.85316   0.01340   1.004E+00   0.000E+00  -4.135E-03
 875  8.75385567   0.705  -1.33513   3.57467   6.95912   1.85315   0.01336   1.004E+00   0.000E+00  -4.134E-03
 876  8.75468580   0.705  -1.33512   3.57467   6.95910   1.85313   0.01331   1.004E+00   0.000E+00  -4.133E-03
 877  8.75551435   0.705  -1.33511   3.57467   6.95909   1.85312   0.01327   1.004E+00   0.000E+00  -4.131E-03
 878  8.75634132   0.705  -1.33511   3.57466   6.95908   1.85311   0.01323   1.004E+00   0.000E+00  -4.130E-03
 879  8.75716672   0.705  -1.33510   3.57466   6.95906   1.85310   0.01319   1.004E+00   0.000E+00  -4.128E-03
 880  8.75799055   0.705  -1.33509   3.57466   6.95905   1.85308   0.01314   1.004E+00   0.000E+00  -4.127E-03
 881  8.75881283   0.705  -1.33509   3.57466   6.95903   1.85307   0.01310   1.004E+00   0.000E+00  -4.126E-03
 882  8.75963354   0.705  -1.33508   3.57466   6.95902   1.85306   0.01306   1.004E+00   0.000E+00  -4.124E-03
 883  8.76045272   0.705  -1.33507   3.57466   6.95901   1.85304   0.01301   1.004E+00   0.000E+00  -4.123E-03
 884  8.76127035   0.705  -1.33507   3.57465   6.95899   1.85303   0.01297   1.004E+00   0.000E+00  -4.121E-03
 885  8.76208644   0.705  -1.33506   3.57465   6.95898   1.85302   0.01293   1.004E+00   0.000E+00  -4.120E-03
 886  8.76290100   0.705  -1.33505   3.57465   6.95896   1.85300   0.01288   1.004E+00   0.000E+00  -4.119E-03
 887  8.76371404   0.705  -1.33505   3.57465   6.95895   1.85299   0.01284   1.004E+00   0.000E+00  -4.117E-03
 888  8.76452556   0.705  -1.33504   3.57465   6.95893   1.85298   0.01280   1.004E+00   0.000E+00  -4.116E-03
 889  8.76533556   0.705  -1.33503   3.57465   6.95892   1.85296   0.01275   1.004E+00   0.000E+00  -4.115E-03
 890  8.76614406   0.705  -1.33503   3.57465   6.95891   1.85295   0.01271   1.004E+00   0.000E+00  -4.113E-03
 891  8.76695105   0.705  -1.33502   3.57464   6.95889   1.85294   0.01267   1.004E+00   0.000E+00  -4.112E-03
 892  8.76775655   0.705  -1.33502   3.57464   6.95888   1.85292   0.01263   1.004E+00   0.000E+00  -4.110E-03
 893  8.76856056   0.705  -1.33501   3.57464   6.95886   1.85291   0.01258   1.004E+00   0.000E+00  -4.109E-03
 894  8.76936308   0.705  -1.33500   3.57464   6.95885   1.85290   0.01254   1.004E+00   0.000E+00  -4.108E-03
 895  8.77016412   0.705  -1.33500   3.57464   6.95884   1.85288   0.01250   1.004E+00   0.000E+00  -4.106E-03
 896  8.77096368   0.705  -1.33499   3.57464   6.95882   1.85287   0.01245   1.004E+00   0.000E+00  -4.105E-03
 897  8.77176178   0.705  -1.33498   3.57463   6.95881   1.85286   0.01241   1.004E+00   0.000E+00  -4.103E-03
 898  8.77255841   0.705  -1.33498   3.57463   6.95879   1.85285   0.01237   1.004E+00   0.000E+00  -4.102E-03
 899  8.77335358   0.705  -1.33497   3.57463   6.95878   1.85283   0.01232   1.004E+00   0.000E+00  -4.101E-03
 900  8.77414731   0.705  -1.33496   3.57463   6.95877   1.85282   0.01228   1.004E+00   0.000E+00  -4.099E-03
 901  8.77493958   0.705  -1.33496   3.57463   6.95875   1.85281   0.01224   1.004E+00   0.000E+00  -4.098E-03
 902  8.77573041   0.705  -1.33495   3.57463   6.95874   1.85279   0.01219   1.004E+00   0.000E+00  -4.097E-03
 903  8.77651980   0.705  -1.33494   3.57463   6.95872   1.85278   0.01215   1.004E+00   0.000E+00  -4.095E-03
 904  8.77730776   0.705  -1.33494   3.57462   6.95871   1.85277   0.01211   1.004E+00   0.000E+00  -4.094E-03
 905  8.77809429   0.705  -1.33493   3.57462   6.95869   1.85275   0.01207   1.004E+00   0.000E+00  -4.092E-03
 906  8.77887940   0.705  -1.33492   3.57462   6.95868   1.85274   0.01202   1.004E+00   0.000E+00  -4.091E-03
 907  8.77966310   0.705  -1.33492   3.57462   6.95867   1.85273   0.01198   1.004E+00   0.000E+00  -4.088E-03
 908  8.78044538   0.705  -1.33491   3.57462   6.95866   1.85272   0.01196   1.004E+00   0.000E+00  -4.081E-03
 909  8.78122626   0.705  -1.33490   3.57462   6.95865   1.85272   0.01193   1.004E+00   0.000E+00  -4.074E-03
 910  8.78200573   0.705  -1.33490   3.57462   6.95864   1.85272   0.01190   1.004E+00   0.000E+00  -4.067E-03
 911  8.78278381   0.705  -1.33489   3.57462   6.95863   1.85271   0.01187   1.004E+00   0.000E+00  -4.060E-03
 912  8.78356050   0.705  -1.33488   3.57462   6.95862   1.85271   0.01185   1.004E+00   0.000E+00  -4.053E-03
 913  8.78433580   0.705  -1.33488   3.57462   6.95861   1.85270   0.01182   1.004E+00   0.000E+00  -4.046E-03
 914  8.78510972   0.705  -1.33487   3.57461   6.95860   1.85270   0.01179   1.004E+00   0.000E+00  -4.038E-03
 915  8.78588226   0.705  -1.33486   3.57461   6.95858   1.85270   0.01176   1.004E+00   0.000E+00  -4.031E-03
 916  8.78665343   0.705  -1.33485   3.57461   6.95857   1.85269   0.01174   1.004E+00   0.000E+00  -4.024E-03
 917  8.78742323   0.705  -1.33485   3.57461   6.95856   1.85269   0.01171   1.004E+00   0.000E+00  -4.017E-03
 918  8.78819167   0.705  -1.33484   3.57461   6.95855   1.85268   0.01168   1.004E+00   0.000E+00  -4.010E-03
 919  8.78895876   0.705  -1.33483   3.57461   6.95854   1.85268   0.01165   1.004E+00   0.000E+00  -4.003E-03
 920  8.78972449   0.705  -1.33483   3.57461   6.95853   1.85267   0.01162   1.004E+00   0.000E+00  -3.996E-03
 921  8.79048887   0.705  -1.33482   3.57461   6.95852   1.85267   0.01160   1.004E+00   0.000E+00  -3.989E-03
 922  8.79125191   0.705  -1.33481   3.57461   6.95851   1.85267   0.01157   1.004E+00   0.000E+00  -3.982E-03
 923  8.79201361   0.704  -1.33480   3.57461   6.95850   1.85266   0.01154   1.004E+00   0.000E+00  -3.974E-03
 924  8.79277398   0.704  -1.33480   3.57461   6.95849   1.85266   0.01151   1.004E+00   0.000E+00  -3.967E-03
 925  8.79353302   0.704  -1.33479   3.57461   6.95848   1.85265   0.01149   1.004E+00   0.000E+00  -3.960E-03
 926  8.79429074   0.704  -1.33478   3.57461   6.95847   1.85265   0.01146   1.004E+00   0.000E+00  -3.953E-03
 927  8.79504713   0.704  -1.33477   3.57460   6.95846   1.85264   0.01143   1.004E+00   0.000E+00  -3.946E-03
 928  8.79580221   0.704  -1.33477   3.57460   6.95845   1.85264   0.01140   1.004E+00   0.000E+00  -3.939E-03
 929  8.79655598   0.704  -1.33476   3.57460   6.95844   1.85264   0.01138   1.004E+00   0.000E+00  -3.932E-03
 930  8.79730845   0.704  -1.33475   3.57460   6.95843   1.85263   0.01135   1.004E+00   0.000E+00  -3.925E-03
 931  8.79805961   0.704  -1.33475   3.57460   6.95842   1.85263   0.01132   1.004E+00   0.000E+00  -3.918E-03
 932  8.79880948   0.704  -1.33474   3.57460   6.95841   1.85262   0.01129   1.004E+00   0.000E+00  -3.911E-03
 933  8.79955805   0.704  -1.33473   3.57460   6.95840   1.85262   0.01127   1.004E+00   0.000E+00  -3.903E-03
 934  8.80030534   0.704  -1.33472   3.57460   6.95839   1.85261   0.01124   1.004E+00   0.000E+00  -3.896E-03
 935  8.80105134   0.704  -1.33472   3.57460   6.95838   1.85261   0.01121   1.004E+00   0.000E+00  -3.889E-03
 936  8.80179606   0.704  -1.33471   3.57460   6.95837   1.85261   0.01118   1.004E+00   0.000E+00  -3.882E-03
 937  8.80253951   0.704  -1.33470   3.57460   6.95836   1.85260   0.01116   1.004E+00   0.000E+00  -3.875E-03
 938  8.80328168   0.704  -1.33470   3.57460   6.95835   1.85260   0.01113   1.004E+00   0.000E+00  -3.868E-03
 939  8.80402259   0.704  -1.33469   3.57460   6.95834   1.85259   0.01110   1.004E+00   0.000E+00  -3.861E-03
 940  8.80476224   0.704  -1.33468   3.57459   6.95833   1.85259   0.01107   1.004E+00   0.000E+00  -3.854E-03
 941  8.80550063   0.704  -1.33467   3.57459   6.95832   1.85259   0.01105   1.004E+00   0.000E+00  -3.847E-03
 942  8.80623777   0.704  -1.33467   3.57459   6.95831   1.85258   0.01102   1.004E+00   0.000E+00  -3.839E-03
 943  8.80697366   0.704  -1.33466   3.57459   6.95830   1.85258   0.01099   1.004E+00   0.000E+00  -3.832E-03
 944  8.80770831   0.704  -1.33465   3.57459   6.95829   1.85257   0.01096   1.004E+00   0.000E+00  -3.825E-03
 945  8.80844171   0.704  -1.33465   3.57459   6.95828   1.85257   0.01094   1.004E+00   0.000E+00  -3.818E-03
 946  8.80917388   0.704  -1.33464   3.57459   6.95827   1.85256   0.01091   1.004E+00   0.000E+00  -3.811E-03
 947  8.80990481   0.704  -1.33463   3.57459   6.95825   1.85256   0.01088   1.004E+00   0.000E+00  -3.804E-03
 948  8.81063452   0.704  -1.33462   3.57459   6.95824   1.85256   0.01085   1.004E+00   0.000E+00  -3.797E-03
 949  8.81136300   0.704  -1.33462   3.57459   6.95823   1.85255   0.01083   1.004E+00   0.000E+00  -3.790E-03
 950  8.81209026   0.704  -1.33461   3.57459   6.95822   1.85255   0.01080   1.004E+00   0.000E+00  -3.783E-03
 951  8.81281631   0.704  -1.33460   3.57459   6.95821   1.85254   0.01077   1.004E+00   0.000E+00  -3.775E-03
 952  8.81354115   0.704  -1.33460   3.57459   6.95820   1.85254   0.01074   1.004E+00   0.000E+00  -3.768E-03
 953  8.81426477   0.704  -1.33459   3.57458   6.95819   1.85253   0.01071   1.003E+00   0.000E+00  -3.761E-03
 954  8.81498720   0.704  -1.33458   3.57458   6.95818   1.85253   0.01069   1.003E+00   0.000E+00  -3.754E-03
 955  8.81570842   0.704  -1.33457   3.57458   6.95817   1.85253   0.01066   1.003E+00   0.000E+00  -3.747E-03
 956  8.81642845   0.704  -1.33457   3.57458   6.95816   1.85252   0.01063   1.003E+00   0.000E+00  -3.740E-03
 957  8.81714729   0.704  -1.33456   3.57458   6.95815   1.85252   0.01060   1.003E+00   0.000E+00  -3.733E-03
 958  8.81786493   0.704  -1.33455   3.57458   6.95814   1.85251   0.01058   1.003E+00   0.000E+00  -3.726E-03
 959  8.81858140   0.704  -1.33455   3.57458   6.95813   1.85251   0.01055   1.003E+00   0.000E+00  -3.719E-03
 960  8.81929668   0.704  -1.33454   3.57458   6.95812   1.85250   0.01052   1.003E+00   0.000E+00  -3.711E-03
 961  8.82001079   0.704  -1.33453   3.57458   6.95811   1.85250   0.01049   1.003E+00   0.000E+00  -3.704E-03
 962  8.82072373   0.704  -1.33452   3.57458   6.95810   1.85250   0.01047   1.003E+00   0.000E+00  -3.697E-03
 963  8.82143550   0.704  -1.33452   3.57458   6.95809   1.85249   0.01044   1.003E+00   0.000E+00  -3.690E-03
 964  8.82214610   0.704  -1.33451   3.57458   6.95808   1.85249   0.01041   1.003E+00   0.000E+00  -3.683E-03
 965  8.82285554   0.704  -1.33450   3.57458   6.95807   1.85248   0.01038   1.003E+00   0.000E+00  -3.676E-03
 966  8.82356383   0.704  -1.33450   3.57457   6.95806   1.85248   0.01036   1.003E+00   0.000E+00  -3.669E-03
 967  8.82427096   0.704  -1.33449   3.57457   6.95805   1.85247   0.01033   1.003E+00   0.000E+00  -3.662E-03
 968  8.82497694   0.704  -1.33448   3.57457   6.95804   1.85247   0.01030   1.003E+00   0.000E+00  -3.655E-03
 969  8.82568178   0.704  -1.33447   3.57457   6.95803   1.85247   0.01027   1.003E+00   0.000E+00  -3.647E-03
 970  8.82638548   0.704  -1.33447   3.57457   6.95802   1.85246   0.01025   1.003E+00   0.000E+00  -3.640E-03
 971  8.82708803   0.704  -1.33446   3.57457   6.95801   1.85246   0.01022   1.003E+00   0.000E+00  -3.633E-03
 972  8.82778945   0.704  -1.33445   3.57457   6.95800   1.85245   0.01019   1.003E+00   0.000E+00  -3.626E-03
 973  8.82848974   0.704  -1.33445   3.57457   6.95799   1.85245   0.01016   1.003E+00   0.000E+00  -3.619E-03
 974  8.82918891   0.704  -1.33444   3.57457   6.95798   1.85245   0.01014   1.003E+00   0.000E+00  -3.612E-03
 975  8.82988695   0.704  -1.33443   3.57457   6.95797   1.85244   0.01011   1.003E+00   0.000E+00  -3.605E-03
 976  8.83058387   0.704  -1.33442   3.57457   6.95796   1.85244   0.01008   1.003E+00   0.000E+00  -3.598E-03
 977  8.83127967   0.704  -1.33442   3.57457   6.95795   1.85243   0.01005   1.003E+00   0.000E+00  -3.591E-03
 978  8.83197436   0.704  -1.33441   3.57457   6.95794   1.85243   0.01003   1.003E+00   0.000E+00  -3.583E-03
 979  8.83266794   0.704  -1.33440   3.57457   6.95792   1.85242   0.01000   1.003E+00   0.000E+00  -3.576E-03
 980  8.83336042   0.704  -1.33440   3.57456   6.95791   1.85242   0.00997   1.003E+00   0.000E+00  -3.569E-03
 981  8.83405179   0.704  -1.33439   3.57456   6.95790   1.85242   0.00994   1.003E+00   0.000E+00  -3.562E-03
 982  8.83474206   0.704  -1.33438   3.57456   6.95789   1.85241   0.00992   1.003E+00   0.000E+00  -3.555E-03
 983  8.83543124   0.704  -1.33437   3.57456   6.95788   1.85241   0.00989   1.003E+00   0.000E+00  -3.548E-03
 984  8.83611933   0.704  -1.33437   3.57456   6.95787   1.85240   0.00986   1.003E+00   0.000E+00  -3.541E-03
 985  8.83680632   0.704  -1.33436   3.57456   6.95786   1.85240   0.00983   1.003E+00   0.000E+00  -3.534E-03
 986  8.83749224   0.704  -1.33435   3.57456   6.95785   1.85239   0.00981   1.003E+00   0.000E+00  -3.527E-03
 987  8.83817707   0.704  -1.33435   3.57456   6.95784   1.85239   0.00978   1.003E+00   0.000E+00  -3.519E-03
 988  8.83886082   0.704  -1.33434   3.57456   6.95783   1.85239   0.00975   1.003E+00   0.000E+00  -3.512E-03
 989  8.83954350   0.704  -1.33433   3.57456   6.95782   1.85238   0.00972   1.003E+00   0.000E+00  -3.505E-03
 990  8.84022510   0.704  -1.33432   3.57456   6.95781   1.85238   0.00969   1.003E+00   0.000E+00  -3.498E-03
 991  8.84090564   0.704  -1.33432   3.57456   6.95780   1.85237   0.00967   1.003E+00   0.000E+00  -3.491E-03
 992  8.84158512   0.704  -1.33431   3.57456   6.95779   1.85237   0.00964   1.003E+00   0.000E+00  -3.484E-03
 993  8.84226353   0.704  -1.33430   3.57455   6.95778   1.85236   0.00961   1.003E+00   0.000E+00  -3.477E-03
 994  8.84294088   0.704  -1.33429   3.57455   6.95777   1.85236   0.00958   1.003E+00   0.000E+00  -3.470E-03
 995  8.84361718   0.704  -1.33429   3.57455   6.95776   1.85236   0.00956   1.003E+00   0.000E+00  -3.463E-03
 996  8.84429243   0.704  -1.33428   3.57455   6.95775   1.85235   0.00953   1.003E+00   0.000E+00  -3.455E-03
 997  8.84496663   0.704  -1.33427   3.57455   6.95774   1.85235   0.00950   1.003E+00   0.000E+00  -3.448E-03
 998  8.84563978   0.704  -1.33427   3.57455   6.95773   1.85234   0.00947   1.003E+00   0.000E+00  -3.441E-03
 999  8.84631190   0.704  -1.33426   3.57455   6.95772   1.85234   0.00945   1.003E+00   0.000E+00  -3.434E-03
1000  8.84698297   0.704  -1.33425   3.57455   6.95771   1.85234   0.00942   1.003E+00   0.000E+00  -3.427E-03
1001  8.84765301   0.704  -1.33424   3.57455   6.95770   1.85233   0.00939   1.003E+00   0.000E+00  -3.420E-03
1002  8.84832202   0.704  -1.33424   3.57455   6.95769   1.85233   0.00936   1.003E+00   0.000E+00  -3.413E-03
1003  8.84898999   0.704  -1.33423   3.57455   6.95768   1.85232   0.00934   1.003E+00   0.000E+00  -3.406E-03
1004  8.84965695   0.704  -1.33422   3.57455   6.95767   1.85232   0.00931   1.003E+00   0.000E+00  -3.399E-03
1005  8.85032288   0.704  -1.33422   3.57455   6.95766   1.85231   0.00928   1.003E+00   0.000E+00  -3.391E-03
1006  8.85098779   0.704  -1.33421   3.57454   6.95765   1.85231   0.00925   1.003E+00   0.000E+00  -3.384E-03
1007  8.85165168   0.704  -1.33420   3.57454   6.95764   1.85231   0.00923   1.003E+00   0.000E+00  -3.377E-03
1008  8.85231456   0.704  -1.33419   3.57454   6.95763   1.85230   0.00920   1.003E+00   0.000E+00  -3.370E-03
1009  8.85297643   0.704  -1.33419   3.57454   6.95762   1.85230   0.00917   1.003E+00   0.000E+00  -3.363E-03
1010  8.85363729   0.704  -1.33418   3.57454   6.95761   1.85229   0.00914   1.003E+00   0.000E+00  -3.356E-03
1011  8.85429715   0.703  -1.33417   3.57454   6.95759   1.85229   0.00912   1.003E+00   0.000E+00  -3.349E-03
1012  8.85495601   0.703  -1.33417   3.57454   6.95758   1.85228   0.00909   1.003E+00   0.000E+00  -3.342E-03
1013  8.85561387   0.703  -1.33416   3.57454   6.95757   1.85228   0.00906   1.003E+00   0.000E+00  -3.335E-03
1014  8.85627073   0.703  -1.33415   3.57454   6.95756   1.85228   0.00903   1.003E+00   0.000E+00  -3.327E-03
1015  8.85692660   0.703  -1.33414   3.57454   6.95755   1.85227   0.00901   1.003E+00   0.000E+00  -3.320E-03
1016  8.85758149   0.703  -1.33414   3.57454   6.95754   1.85227   0.00898   1.003E+00   0.000E+00  -3.313E-03
1017  8.85823538   0.703  -1.33413   3.57454   6.95753   1.85226   0.00895   1.003E+00   0.000E+00  -3.306E-03
1018  8.85888830   0.703  -1.33412   3.57454   6.95752   1.85226   0.00892   1.003E+00   0.000E+00  -3.299E-03
1019  8.85954023   0.703  -1.33412   3.57453   6.95751   1.85225   0.00890   1.003E+00   0.000E+00  -3.292E-03
1020  8.86019119   0.703  -1.33411   3.57453   6.95750   1.85225   0.00887   1.003E+00   0.000E+00  -3.285E-03
1021  8.86084117   0.703  -1.33410   3.57453   6.95749   1.85225   0.00884   1.003E+00   0.000E+00  -3.278E-03
1022  8.86149018   0.703  -1.33409   3.57453   6.95748   1.85224   0.00881   1.003E+00   0.000E+00  -3.271E-03
1023  8.86213823   0.703  -1.33409   3.57453   6.95747   1.85224   0.00878   1.003E+00   0.000E+00  -3.263E-03
1024  8.86278530   0.703  -1.33408   3.57453   6.95746   1.85223   0.00876   1.003E+00   0.000E+00  -3.256E-03
1025  8.86343142   0.703  -1.33407   3.57453   6.95745   1.85223   0.00873   1.003E+00   0.000E+00  -3.249E-03
1026  8.86407657   0.703  -1.33407   3.57453   6.95744   1.85223   0.00870   1.003E+00   0.000E+00  -3.242E-03
1027  8.86472077   0.703  -1.33406   3.57453   6.95743   1.85222   0.00867   1.003E+00   0.000E+00  -3.235E-03
1028  8.86536402   0.703  -1.33405   3.57453   6.95742   1.85222   0.00865   1.003E+00   0.000E+00  -3.228E-03
1029  8.86600631   0.703  -1.33404   3.57453   6.95741   1.85221   0.00862   1.003E+00   0.000E+00  -3.221E-03
1030  8.86664765   0.703  -1.33404   3.57453   6.95740   1.85221   0.00859   1.003E+00   0.000E+00  -3.214E-03
1031  8.86728805   0.703  -1.33403   3.57453   6.95739   1.85220   0.00856   1.003E+00   0.000E+00  -3.207E-03
1032  8.86792751   0.703  -1.33402   3.57452   6.95738   1.85220   0.00854   1.003E+00   0.000E+00  -3.199E-03
1033  8.86856602   0.703  -1.33402   3.57452   6.95737   1.85220   0.00851   1.003E+00   0.000E+00  -3.192E-03
1034  8.86920360   0.703  -1.33401   3.57452   6.95736   1.85219   0.00848   1.003E+00   0.000E+00  -3.185E-03
1035  8.86984024   0.703  -1.33400   3.57452   6.95735   1.85219   0.00845   1.003E+00   0.000E+00  -3.178E-03
1036  8.87047595   0.703  -1.33399   3.57452   6.95734   1.85218   0.00843   1.003E+00   0.000E+00  -3.171E-03
1037  8.87111074   0.703  -1.33399   3.57452   6.95733   1.85218   0.00840   1.003E+00   0.000E+00  -3.164E-03
1038  8.87174459   0.703  -1.33398   3.57452   6.95732   1.85217   0.00837   1.003E+00   0.000E+00  -3.157E-03
1039  8.87237752   0.703  -1.33397   3.57452   6.95731   1.85217   0.00834   1.003E+00   0.000E+00  -3.150E-03
1040  8.87300953   0.703  -1.33397   3.57452   6.95730   1.85217   0.00832   1.003E+00   0.000E+00  -3.143E-03
1041  8.87364063   0.703  -1.33396   3.57452   6.95729   1.85216   0.00829   1.003E+00   0.000E+00  -3.136E-03
1042  8.87427080   0.703  -1.33395   3.57452   6.95728   1.85216   0.00826   1.003E+00   0.000E+00  -3.128E-03
1043  8.87490007   0.703  -1.33394   3.57452   6.95726   1.85215   0.00823   1.003E+00   0.000E+00  -3.121E-03
1044  8.87552842   0.703  -1.33394   3.57452   6.95725   1.85215   0.00821   1.003E+00   0.000E+00  -3.114E-03
1045  8.87615587   0.703  -1.33393   3.57451   6.95724   1.85214   0.00818   1.002E+00   0.000E+00  -3.107E-03
1046  8.87678241   0.703  -1.33392   3.57451   6.95723   1.85214   0.00815   1.002E+00   0.000E+00  -3.100E-03
1047  8.87740804   0.703  -1.33392   3.57451   6.95722   1.85214   0.00812   1.002E+00   0.000E+00  -3.093E-03
1048  8.87803278   0.703  -1.33391   3.57451   6.95721   1.85213   0.00810   1.002E+00   0.000E+00  -3.086E-03
1049  8.87865662   0.703  -1.33390   3.57451   6.95720   1.85213   0.00807   1.002E+00   0.000E+00  -3.079E-03
1050  8.87927957   0.703  -1.33389   3.57451   6.95719   1.85212   0.00804   1.002E+00   0.000E+00  -3.072E-03
1051  8.87990162   0.703  -1.33389   3.57451   6.95718   1.85212   0.00801   1.002E+00   0.000E+00  -3.064E-03
1052  8.88052278   0.703  -1.33388   3.57451   6.95717   1.85212   0.00799   1.002E+00   0.000E+00  -3.057E-03
1053  8.88114306   0.703  -1.33387   3.57451   6.95716   1.85211   0.00796   1.002E+00   0.000E+00  -3.050E-03
1054  8.88176245   0.703  -1.33387   3.57451   6.95715   1.85211   0.00793   1.002E+00   0.000E+00  -3.043E-03
1055  8.88238096   0.703  -1.33386   3.57451   6.95714   1.85210   0.00790   1.002E+00   0.000E+00  -3.036E-03
1056  8.88299859   0.703  -1.33385   3.57451   6.95713   1.85210   0.00788   1.002E+00   0.000E+00  -3.029E-03
1057  8.88361534   0.703  -1.33384   3.57451   6.95712   1.85209   0.00785   1.002E+00   0.000E+00  -3.022E-03
1058  8.88423122   0.703  -1.33384   3.57451   6.95711   1.85209   0.00782   1.002E+00   0.000E+00  -3.015E-03
1059  8.88484623   0.703  -1.33383   3.57450   6.95710   1.85209   0.00779   1.002E+00   0.000E+00  -3.008E-03
1060  8.88546036   0.703  -1.33382   3.57450   6.95709   1.85208   0.00776   1.002E+00   0.000E+00  -3.000E-03
1061  8.88607363   0.703  -1.33381   3.57450   6.95708   1.85208   0.00774   1.002E+00   0.000E+00  -2.993E-03
1062  8.88668604   0.703  -1.33381   3.57450   6.95707   1.85207   0.00771   1.002E+00   0.000E+00  -2.986E-03
1063  8.88729758   0.703  -1.33380   3.57450   6.95706   1.85207   0.00768   1.002E+00   0.000E+00  -2.979E-03
1064  8.88790826   0.703  -1.33379   3.57450   6.95705   1.85206   0.00765   1.002E+00   0.000E+00  -2.972E-03
1065  8.88851809   0.703  -1.33379   3.57450   6.95704   1.85206   0.00763   1.002E+00   0.000E+00  -2.965E-03
1066  8.88912705   0.703  -1.33378   3.57450   6.95703   1.85206   0.00760   1.002E+00   0.000E+00  -2.958E-03
1067  8.88973517   0.703  -1.33377   3.57450   6.95702   1.85205   0.00757   1.002E+00   0.000E+00  -2.951E-03
1068  8.89034244   0.703  -1.33376   3.57450   6.95701   1.85205   0.00754   1.002E+00   0.000E+00  -2.944E-03
1069  8.89094886   0.703  -1.33376   3.57450   6.95700   1.85204   0.00752   1.002E+00   0.000E+00  -2.936E-03
1070  8.89155443   0.703  -1.33375   3.57450   6.95699   1.85204   0.00749   1.002E+00   0.000E+00  -2.929E-03
1071  8.89215916   0.703  -1.33374   3.57450   6.95698   1.85203   0.00746   1.002E+00   0.000E+00  -2.922E-03
1072  8.89276305   0.703  -1.33374   3.57449   6.95697   1.85203   0.00743   1.002E+00   0.000E+00  -2.915E-03
1073  8.89336610   0.703  -1.33373   3.57449   6.95696   1.85203   0.00741   1.002E+00   0.000E+00  -2.908E-03
1074  8.89396831   0.703  -1.33372   3.57449   6.95695   1.85202   0.00738   1.002E+00   0.000E+00  -2.901E-03
1075  8.89456969   0.703  -1.33371   3.57449   6.95693   1.85202   0.00735   1.002E+00   0.000E+00  -2.894E-03
1076  8.89517024   0.703  -1.33371   3.57449   6.95692   1.85201   0.00732   1.002E+00   0.000E+00  -2.887E-03
1077  8.89576996   0.703  -1.33370   3.57449   6.95691   1.85201   0.00730   1.002E+00   0.000E+00  -2.880E-03
1078  8.89636885   0.703  -1.33369   3.57449   6.95690   1.85201   0.00727   1.002E+00   0.000E+00  -2.872E-03
1079  8.89696692   0.703  -1.33369   3.57449   6.95689   1.85200   0.00724   1.002E+00   0.000E+00  -2.865E-03
1080  8.89756416   0.703  -1.33368   3.57449   6.95688   1.85200   0.00721   1.002E+00   0.000E+00  -2.858E-03
1081  8.89816059   0.703  -1.33367   3.57449   6.95687   1.85199   0.00719   1.002E+00   0.000E+00  -2.851E-03
1082  8.89875620   0.703  -1.33366   3.57449   6.95686   1.85199   0.00716   1.002E+00   0.000E+00  -2.844E-03
1083  8.89935099   0.703  -1.33366   3.57449   6.95685   1.85198   0.00713   1.002E+00   0.000E+00  -2.837E-03
1084  8.89994496   0.703  -1.33365   3.57449   6.95684   1.85198   0.00710   1.002E+00   0.000E+00  -2.830E-03
1085  8.90053813   0.703  -1.33364   3.57448   6.95683   1.85198   0.00708   1.002E+00   0.000E+00  -2.823E-03
1086  8.90113049   0.703  -1.33364   3.57448   6.95682   1.85197   0.00705   1.002E+00   0.000E+00  -2.816E-03
1087  8.90172204   0.703  -1.33363   3.57448   6.95681   1.85197   0.00702   1.002E+00   0.000E+00  -2.808E-03
1088  8.90231278   0.703  -1.33362   3.57448   6.95680   1.85196   0.00699   1.002E+00   0.000E+00  -2.801E-03
1089  8.90290273   0.703  -1.33361   3.57448   6.95679   1.85196   0.00697   1.002E+00   0.000E+00  -2.794E-03
1090  8.90349187   0.703  -1.33361   3.57448   6.95678   1.85195   0.00694   1.002E+00   0.000E+00  -2.787E-03
1091  8.90408022   0.703  -1.33360   3.57448   6.95677   1.85195   0.00691   1.002E+00   0.000E+00  -2.780E-03
