 # M = 0.30 Mo, Y = 0.2700, Z = 2.00000E-02, alpha = 1.68, X_D = 2.0E-05
 # Solar Mixture: Asplund et al. (2005)         
 # ------------------------------------------------------------------------------------------------------------
 # NMD   LOG AGE    Xc      LOG L     LOG TE    LOG Tc   LOG RHOc    M-CC       L-PP       L-CNO       L-GRA
 #        (yr)              (Lo)        (K)       (K)   (gr/cm^3)    (Mo)        (L)         (L)         (L)
 # ------------------------------------------------------------------------------------------------------------
   1  5.16049925   0.710  -0.20045   3.52969   6.02345  -0.63774   0.00000   9.570E-01   0.000E+00   4.260E-02
   2  5.35096810   0.710  -0.20907   3.52954   6.02726  -0.62629   0.00000   9.030E-01   0.000E+00   9.695E-02
   3  5.48292099   0.710  -0.21850   3.52936   6.03141  -0.61382   0.00000   8.939E-01   0.000E+00   1.061E-01
   4  5.58398575   0.710  -0.22710   3.52920   6.03520  -0.60241   0.00000   8.956E-01   0.000E+00   1.046E-01
   5  5.66591492   0.710  -0.23547   3.52905   6.03891  -0.59128   0.00000   9.001E-01   0.000E+00   1.004E-01
   6  5.73481391   0.710  -0.24333   3.52892   6.04241  -0.58077   0.00000   9.017E-01   0.000E+00   9.883E-02
   7  5.79426428   0.710  -0.25106   3.52879   6.04585  -0.57042   0.00000   9.025E-01   0.000E+00   9.800E-02
   8  5.84654775   0.710  -0.25878   3.52866   6.04929  -0.56006   0.00000   9.021E-01   0.000E+00   9.836E-02
   9  5.89320788   0.710  -0.26648   3.52854   6.05273  -0.54971   0.00000   8.997E-01   0.000E+00   1.005E-01
  10  5.93533770   0.710  -0.27418   3.52841   6.05616  -0.53935   0.00000   8.974E-01   0.000E+00   1.026E-01
  11  5.97373959   0.710  -0.28224   3.52829   6.05978  -0.52847   0.00000   8.926E-01   0.000E+00   1.074E-01
  12  6.00901998   0.710  -0.29038   3.52817   6.06344  -0.51747   0.00000   8.872E-01   0.000E+00   1.128E-01
  13  6.04164842   0.710  -0.29872   3.52805   6.06719  -0.50620   0.00000   8.809E-01   0.000E+00   1.191E-01
  14  6.07199587   0.710  -0.30774   3.52792   6.07125  -0.49397   0.00000   8.716E-01   0.000E+00   1.284E-01
  15  6.10036051   0.710  -0.31676   3.52779   6.07532  -0.48175   0.00000   8.622E-01   0.000E+00   1.378E-01
  16  6.12698563   0.710  -0.32675   3.52766   6.07984  -0.46812   0.00000   8.490E-01   0.000E+00   1.510E-01
  17  6.15207232   0.710  -0.33704   3.52753   6.08451  -0.45407   0.00000   8.345E-01   0.000E+00   1.655E-01
  18  6.17578868   0.710  -0.34825   3.52739   6.08961  -0.43872   0.00000   8.153E-01   0.000E+00   1.847E-01
  19  6.19827672   0.710  -0.36022   3.52724   6.09507  -0.42229   0.00000   7.922E-01   0.000E+00   2.078E-01
  20  6.21965741   0.710  -0.37343   3.52708   6.10109  -0.40415   0.00000   7.617E-01   0.000E+00   2.383E-01
  21  6.24003471   0.710  -0.38744   3.52692   6.10750  -0.38487   0.00000   7.263E-01   0.000E+00   2.737E-01
  22  6.25949860   0.710  -0.40352   3.52675   6.11490  -0.36260   0.00000   6.776E-01   0.000E+00   3.224E-01
  23  6.27812746   0.710  -0.42094   3.52657   6.12291  -0.33851   0.00000   6.189E-01   0.000E+00   3.811E-01
  24  6.29599001   0.710  -0.44006   3.52638   6.13171  -0.31200   0.00000   5.474E-01   0.000E+00   4.526E-01
  25  6.31314680   0.710  -0.46104   3.52619   6.14143  -0.28275   0.00000   4.626E-01   0.000E+00   5.374E-01
  26  6.32965149   0.710  -0.48377   3.52597   6.15196  -0.25103   0.00000   3.681E-01   0.000E+00   6.319E-01
  27  6.34555184   0.710  -0.50770   3.52576   6.16308  -0.21755   0.00000   2.738E-01   0.000E+00   7.262E-01
  28  6.36089055   0.710  -0.53222   3.52556   6.17449  -0.18319   0.00000   1.896E-01   0.000E+00   8.104E-01
  29  6.37570595   0.710  -0.55664   3.52536   6.18590  -0.14884   0.00000   1.218E-01   0.000E+00   8.782E-01
  30  6.39003257   0.710  -0.58042   3.52516   6.19707  -0.11526   0.00000   7.279E-02   0.000E+00   9.272E-01
  31  6.40390163   0.710  -0.60294   3.52500   6.20762  -0.08345   0.00000   4.522E-02   0.000E+00   9.548E-01
  32  6.41734146   0.710  -0.62400   3.52486   6.21749  -0.05366   0.00000   3.662E-02   0.000E+00   9.634E-01
  33  6.43037783   0.710  -0.64376   3.52473   6.22678  -0.02563   0.00000   2.967E-02   0.000E+00   9.703E-01
  34  6.44303426   0.710  -0.66238   3.52462   6.23555   0.00081   0.00000   2.374E-02   0.000E+00   9.763E-01
  35  6.45533227   0.710  -0.67994   3.52453   6.24384   0.02584   0.00000   1.845E-02   0.000E+00   9.815E-01
  36  6.46729161   0.710  -0.69657   3.52445   6.25171   0.04961   0.00000   1.422E-02   0.000E+00   9.858E-01
  37  6.47893042   0.710  -0.71236   3.52439   6.25920   0.07224   0.00000   1.086E-02   0.000E+00   9.891E-01
  38  6.49026544   0.710  -0.72723   3.52433   6.26627   0.09360   0.00000   7.691E-03   0.000E+00   9.923E-01
  39  6.50131213   0.710  -0.74137   3.52429   6.27301   0.11396   0.00000   5.838E-03   0.000E+00   9.942E-01
  40  6.51208479   0.710  -0.75491   3.52425   6.27948   0.13351   0.00000   4.392E-03   0.000E+00   9.956E-01
  41  6.52259669   0.710  -0.76795   3.52422   6.28572   0.15239   0.00000   3.000E-03   0.000E+00   9.970E-01
  42  6.54308623   0.710  -0.79225   3.52418   6.29738   0.18766   0.00000   1.702E-03   0.000E+00   9.983E-01
  43  6.56265248   0.710  -0.81471   3.52416   6.30821   0.22039   0.00000   1.000E-03   0.000E+00   9.990E-01
  44  6.58137509   0.710  -0.83553   3.52417   6.31828   0.25087   0.00000   3.893E-04   0.000E+00   9.996E-01
  45  6.59932381   0.710  -0.85491   3.52418   6.32768   0.27931   0.00000   0.000E+00   0.000E+00   1.000E+00
  46  6.61656009   0.710  -0.87302   3.52421   6.33649   0.30597   0.00000   0.000E+00   0.000E+00   1.000E+00
  47  6.63313832   0.710  -0.89002   3.52424   6.34478   0.33107   0.00000   0.000E+00   0.000E+00   1.000E+00
  48  6.64910692   0.710  -0.90606   3.52428   6.35261   0.35482   0.00000   0.000E+00   0.000E+00   1.000E+00
  49  6.66450913   0.710  -0.92128   3.52432   6.36007   0.37740   0.00000   0.000E+00   0.000E+00   1.000E+00
  50  6.67938376   0.710  -0.93574   3.52438   6.36717   0.39890   0.00000   0.000E+00   0.000E+00   1.000E+00
  51  6.69376576   0.710  -0.94930   3.52444   6.37384   0.41912   0.00000   0.000E+00   0.000E+00   1.000E+00
  52  6.70768671   0.710  -0.96232   3.52449   6.38025   0.43857   0.00000   0.000E+00   0.000E+00   1.000E+00
  53  6.72117527   0.710  -0.97489   3.52455   6.38644   0.45736   0.00000   0.000E+00   0.000E+00   1.000E+00
  54  6.73425747   0.710  -0.98673   3.52461   6.39229   0.47509   0.00000   0.000E+00   0.000E+00   1.000E+00
  55  6.74695710   0.710  -0.99818   3.52467   6.39794   0.49225   0.00000   0.000E+00   0.000E+00   1.000E+00
  56  6.75929590   0.710  -1.00925   3.52473   6.40342   0.50887   0.00000   0.000E+00   0.000E+00   1.000E+00
  57  6.77129380   0.710  -1.01973   3.52479   6.40861   0.52463   0.00000   0.000E+00   0.000E+00   1.000E+00
  58  6.78296913   0.710  -1.03008   3.52485   6.41373   0.54019   0.00000   0.000E+00   0.000E+00   1.000E+00
  59  6.79433879   0.710  -1.03977   3.52491   6.41854   0.55480   0.00000   0.000E+00   0.000E+00   1.000E+00
  60  6.80541837   0.710  -1.04940   3.52497   6.42332   0.56932   0.00000   0.000E+00   0.000E+00   1.000E+00
  61  6.81622232   0.710  -1.05847   3.52503   6.42783   0.58301   0.00000   0.000E+00   0.000E+00   1.000E+00
  62  6.82676400   0.710  -1.06753   3.52509   6.43232   0.59668   0.00000   0.000E+00   0.000E+00   1.000E+00
  63  6.83705586   0.710  -1.07602   3.52515   6.43654   0.60950   0.00000   0.000E+00   0.000E+00   1.000E+00
  64  6.84710946   0.710  -1.08452   3.52520   6.44076   0.62233   0.00000   0.000E+00   0.000E+00   1.000E+00
  65  6.85693558   0.710  -1.09256   3.52526   6.44476   0.63450   0.00000   0.000E+00   0.000E+00   1.000E+00
  66  6.86654429   0.710  -1.10051   3.52531   6.44872   0.64652   0.00000   0.000E+00   0.000E+00   1.000E+00
  67  6.87594500   0.710  -1.10823   3.52536   6.45256   0.65820   0.00000   0.000E+00   0.000E+00   1.000E+00
  68  6.88514653   0.710  -1.11567   3.52542   6.45626   0.66946   0.00000   0.000E+00   0.000E+00   1.000E+00
  69  6.89415714   0.710  -1.12312   3.52547   6.45997   0.68073   0.00000   0.000E+00   0.000E+00   1.000E+00
  70  6.90298459   0.710  -1.13012   3.52551   6.46344   0.69132   0.00000   0.000E+00   0.000E+00   1.000E+00
  71  6.91163619   0.710  -1.13711   3.52556   6.46691   0.70188   0.00000   0.000E+00   0.000E+00   1.000E+00
  72  6.92011880   0.710  -1.14397   3.52560   6.47032   0.71226   0.00000   0.000E+00   0.000E+00   1.000E+00
  73  6.92843889   0.710  -1.15051   3.52565   6.47357   0.72215   0.00000   0.000E+00   0.000E+00   1.000E+00
  74  6.93660259   0.710  -1.15705   3.52569   6.47682   0.73204   0.00000   0.000E+00   0.000E+00   1.000E+00
  75  6.94461565   0.710  -1.16342   3.52574   6.47998   0.74169   0.00000   0.000E+00   0.000E+00   1.000E+00
  76  6.95248354   0.710  -1.16955   3.52577   6.48303   0.75096   0.00000   0.000E+00   0.000E+00   1.000E+00
  77  6.96021142   0.710  -1.17568   3.52581   6.48607   0.76023   0.00000   0.000E+00   0.000E+00   1.000E+00
  78  6.96780420   0.710  -1.18167   3.52585   6.48905   0.76930   0.00000   0.000E+00   0.000E+00   1.000E+00
  79  6.97526651   0.710  -1.18742   3.52589   6.49190   0.77799   0.00000   0.000E+00   0.000E+00   1.000E+00
  80  6.98260275   0.710  -1.19317   3.52593   6.49475   0.78667   0.00000   0.000E+00   0.000E+00   1.000E+00
  81  6.98981713   0.710  -1.19889   3.52596   6.49758   0.79531   0.00000   0.000E+00   0.000E+00   1.000E+00
  82  6.99691362   0.710  -1.20428   3.52599   6.50025   0.80345   0.00000   0.000E+00   0.000E+00   1.000E+00
  83  7.00389602   0.710  -1.20966   3.52603   6.50292   0.81159   0.00000   0.000E+00   0.000E+00   1.000E+00
  84  7.01076793   0.710  -1.21505   3.52606   6.50558   0.81974   0.00000   0.000E+00   0.000E+00   1.000E+00
  85  7.01753279   0.710  -1.22024   3.52609   6.50815   0.82757   0.00000   0.000E+00   0.000E+00   1.000E+00
  86  7.02419389   0.710  -1.22530   3.52611   6.51065   0.83519   0.00000   0.000E+00   0.000E+00   1.000E+00
  87  7.03075437   0.710  -1.23036   3.52614   6.51315   0.84282   0.00000   0.000E+00   0.000E+00   1.000E+00
  88  7.03721722   0.710  -1.23542   3.52617   6.51565   0.85044   0.00000   0.000E+00   0.000E+00   1.000E+00
  89  7.04358531   0.710  -1.24019   3.52619   6.51801   0.85764   0.00000   0.000E+00   0.000E+00   1.000E+00
  90  7.04986136   0.710  -1.24493   3.52622   6.52034   0.86478   0.00000   0.000E+00   0.000E+00   1.000E+00
  91  7.05604801   0.710  -1.24967   3.52624   6.52268   0.87192   0.00000   0.000E+00   0.000E+00   1.000E+00
  92  7.06214776   0.710  -1.25440   3.52627   6.52502   0.87906   0.00000   0.000E+00   0.000E+00   1.000E+00
  93  7.06816303   0.710  -1.25887   3.52629   6.52722   0.88578   0.00000   0.000E+00   0.000E+00   1.000E+00
  94  7.07409612   0.710  -1.26331   3.52631   6.52941   0.89248   0.00000   0.000E+00   0.000E+00   1.000E+00
  95  7.07994925   0.710  -1.26776   3.52633   6.53160   0.89917   0.00000   0.000E+00   0.000E+00   1.000E+00
  96  7.08572454   0.710  -1.27221   3.52635   6.53379   0.90586   0.00000   0.000E+00   0.000E+00   1.000E+00
  97  7.09142403   0.710  -1.27645   3.52637   6.53588   0.91225   0.00000   0.000E+00   0.000E+00   1.000E+00
  98  7.09704970   0.710  -1.28062   3.52639   6.53793   0.91852   0.00000   0.000E+00   0.000E+00   1.000E+00
  99  7.10260342   0.710  -1.28478   3.52641   6.53997   0.92479   0.00000   0.000E+00   0.000E+00   1.000E+00
 100  7.10808702   0.710  -1.28895   3.52643   6.54202   0.93106   0.00000   0.000E+00   0.000E+00   1.000E+00
 101  7.11350225   0.710  -1.29306   3.52645   6.54404   0.93725   0.00000   0.000E+00   0.000E+00   1.000E+00
 102  7.11885078   0.710  -1.29697   3.52647   6.54596   0.94311   0.00000   0.000E+00   0.000E+00   1.000E+00
 103  7.12413424   0.710  -1.30088   3.52648   6.54788   0.94898   0.00000   0.000E+00   0.000E+00   1.000E+00
 104  7.12935420   0.710  -1.30479   3.52650   6.54980   0.95484   0.00000   0.000E+00   0.000E+00   1.000E+00
 105  7.13451216   0.710  -1.30870   3.52651   6.55171   0.96071   0.00000   0.000E+00   0.000E+00   1.000E+00
 106  7.13960958   0.710  -1.31252   3.52652   6.55358   0.96642   0.00000   0.000E+00   0.000E+00   1.000E+00
 107  7.14464786   0.710  -1.31618   3.52654   6.55538   0.97191   0.00000   0.000E+00   0.000E+00   1.000E+00
 108  7.14962837   0.710  -1.31985   3.52655   6.55717   0.97740   0.00000   0.000E+00   0.000E+00   1.000E+00
 109  7.15455240   0.710  -1.32352   3.52656   6.55896   0.98289   0.00000   0.000E+00   0.000E+00   1.000E+00
 110  7.15942124   0.710  -1.32718   3.52657   6.56075   0.98839   0.00000   0.000E+00   0.000E+00   1.000E+00
 111  7.16423609   0.710  -1.33078   3.52658   6.56251   0.99377   0.00000   0.000E+00   0.000E+00   1.000E+00
 112  7.16899814   0.710  -1.33422   3.52659   6.56419   0.99892   0.00000   0.000E+00   0.000E+00   1.000E+00
 113  7.17370855   0.710  -1.33766   3.52660   6.56587   1.00406   0.00000   0.000E+00   0.000E+00   1.000E+00
 114  7.17836842   0.710  -1.34110   3.52661   6.56755   1.00920   0.00000   0.000E+00   0.000E+00   1.000E+00
 115  7.18297881   0.710  -1.34454   3.52662   6.56923   1.01435   0.00000   0.000E+00   0.000E+00   1.000E+00
 116  7.18754078   0.710  -1.34798   3.52663   6.57091   1.01949   0.00000   0.000E+00   0.000E+00   1.000E+00
 117  7.19205532   0.710  -1.35124   3.52664   6.57250   1.02436   0.00000   0.000E+00   0.000E+00   1.000E+00
 118  7.19652342   0.710  -1.35447   3.52665   6.57407   1.02918   0.00000   0.000E+00   0.000E+00   1.000E+00
 119  7.20094601   0.710  -1.35770   3.52665   6.57565   1.03400   0.00000   0.000E+00   0.000E+00   1.000E+00
 120  7.20532402   0.710  -1.36093   3.52666   6.57722   1.03882   0.00000   0.000E+00   0.000E+00   1.000E+00
 121  7.20965834   0.710  -1.36416   3.52667   6.57879   1.04364   0.00000   0.000E+00   0.000E+00   1.000E+00
 122  7.21394983   0.710  -1.36738   3.52668   6.58036   1.04845   0.00000   0.000E+00   0.000E+00   1.000E+00
 123  7.21819933   0.710  -1.37041   3.52668   6.58183   1.05296   0.00000   0.000E+00   0.000E+00   1.000E+00
 124  7.22240765   0.710  -1.37344   3.52669   6.58330   1.05748   0.00000   0.000E+00   0.000E+00   1.000E+00
 125  7.22657558   0.710  -1.37647   3.52669   6.58477   1.06200   0.00000   0.000E+00   0.000E+00   1.000E+00
 126  7.23070389   0.710  -1.37950   3.52670   6.58624   1.06651   0.00000   0.000E+00   0.000E+00   1.000E+00
 127  7.23479333   0.710  -1.38254   3.52670   6.58771   1.07103   0.00000   0.000E+00   0.000E+00   1.000E+00
 128  7.23884462   0.710  -1.38557   3.52671   6.58918   1.07554   0.00000   0.000E+00   0.000E+00   1.000E+00
 129  7.24285847   0.710  -1.38844   3.52671   6.59058   1.07983   0.00000   1.258E-04   0.000E+00   9.999E-01
 130  7.24683555   0.710  -1.39129   3.52672   6.59195   1.08406   0.00000   2.773E-04   0.000E+00   9.997E-01
 131  7.25077655   0.710  -1.39413   3.52672   6.59333   1.08829   0.00000   4.288E-04   0.000E+00   9.996E-01
 132  7.25468211   0.710  -1.39697   3.52672   6.59471   1.09253   0.00000   5.804E-04   0.000E+00   9.994E-01
 133  7.25855286   0.710  -1.39982   3.52672   6.59609   1.09676   0.00000   7.319E-04   0.000E+00   9.993E-01
 134  7.26238941   0.710  -1.40266   3.52673   6.59747   1.10099   0.00000   8.834E-04   0.000E+00   9.991E-01
 135  7.26619237   0.710  -1.40546   3.52673   6.59883   1.10516   0.00000   1.000E-03   0.000E+00   9.990E-01
 136  7.26996232   0.710  -1.40813   3.52673   6.60012   1.10913   0.00000   1.000E-03   0.000E+00   9.990E-01
 137  7.27369982   0.710  -1.41080   3.52674   6.60141   1.11309   0.00000   1.000E-03   0.000E+00   9.990E-01
 138  7.27740543   0.710  -1.41347   3.52674   6.60270   1.11706   0.00000   1.000E-03   0.000E+00   9.990E-01
 139  7.28107969   0.710  -1.41614   3.52674   6.60399   1.12102   0.00000   1.000E-03   0.000E+00   9.990E-01
 140  7.28472313   0.710  -1.41881   3.52674   6.60528   1.12499   0.00000   1.000E-03   0.000E+00   9.990E-01
 141  7.28833625   0.710  -1.42148   3.52675   6.60657   1.12895   0.00000   1.000E-03   0.000E+00   9.990E-01
 142  7.29191956   0.710  -1.42412   3.52675   6.60784   1.13286   0.00000   1.000E-03   0.000E+00   9.990E-01
 143  7.29547355   0.710  -1.42662   3.52675   6.60905   1.13658   0.00000   1.000E-03   0.000E+00   9.990E-01
 144  7.29899869   0.710  -1.42913   3.52675   6.61025   1.14029   0.00000   1.000E-03   0.000E+00   9.990E-01
 145  7.30249545   0.710  -1.43164   3.52675   6.61146   1.14400   0.00000   1.000E-03   0.000E+00   9.990E-01
 146  7.30596428   0.710  -1.43414   3.52675   6.61267   1.14772   0.00000   1.000E-03   0.000E+00   9.990E-01
 147  7.30940562   0.710  -1.43665   3.52675   6.61388   1.15143   0.00000   1.000E-03   0.000E+00   9.990E-01
 148  7.31281991   0.710  -1.43915   3.52675   6.61509   1.15514   0.00000   1.000E-03   0.000E+00   9.990E-01
 149  7.31620756   0.710  -1.44166   3.52675   6.61629   1.15886   0.00000   1.000E-03   0.000E+00   9.990E-01
 150  7.31956900   0.710  -1.44406   3.52675   6.61745   1.16240   0.00000   1.000E-03   0.000E+00   9.990E-01
 151  7.32290461   0.710  -1.44641   3.52675   6.61858   1.16588   0.00000   1.000E-03   0.000E+00   9.990E-01
 152  7.32621480   0.710  -1.44876   3.52675   6.61971   1.16936   0.00000   1.000E-03   0.000E+00   9.990E-01
 153  7.32949995   0.710  -1.45110   3.52675   6.62084   1.17284   0.00000   1.000E-03   0.000E+00   9.990E-01
 154  7.33276044   0.710  -1.45345   3.52675   6.62197   1.17632   0.00000   1.000E-03   0.000E+00   9.990E-01
 155  7.33599663   0.710  -1.45580   3.52675   6.62311   1.17980   0.00000   1.000E-03   0.000E+00   9.990E-01
 156  7.33920889   0.710  -1.45815   3.52675   6.62424   1.18328   0.00000   1.000E-03   0.000E+00   9.990E-01
 157  7.34239756   0.710  -1.46050   3.52675   6.62537   1.18676   0.00000   1.000E-03   0.000E+00   9.990E-01
 158  7.34556299   0.710  -1.46275   3.52675   6.62645   1.19008   0.00000   1.085E-03   0.000E+00   9.989E-01
 159  7.34870551   0.710  -1.46496   3.52675   6.62751   1.19334   0.00000   1.203E-03   0.000E+00   9.988E-01
 160  7.35182546   0.710  -1.46716   3.52675   6.62856   1.19661   0.00000   1.320E-03   0.000E+00   9.987E-01
 161  7.35492316   0.710  -1.46937   3.52675   6.62962   1.19987   0.00000   1.438E-03   0.000E+00   9.986E-01
 162  7.35799891   0.710  -1.47158   3.52675   6.63068   1.20313   0.00000   1.555E-03   0.000E+00   9.984E-01
 163  7.36105304   0.710  -1.47378   3.52675   6.63174   1.20639   0.00000   1.673E-03   0.000E+00   9.983E-01
 164  7.36408584   0.710  -1.47599   3.52675   6.63280   1.20966   0.00000   1.790E-03   0.000E+00   9.982E-01
 165  7.36709760   0.710  -1.47820   3.52675   6.63386   1.21292   0.00000   1.908E-03   0.000E+00   9.981E-01
 166  7.37008863   0.710  -1.48037   3.52675   6.63490   1.21614   0.00000   2.000E-03   0.000E+00   9.980E-01
 167  7.37305919   0.710  -1.48244   3.52675   6.63589   1.21919   0.00000   2.000E-03   0.000E+00   9.980E-01
 168  7.37600958   0.710  -1.48451   3.52675   6.63689   1.22225   0.00000   2.000E-03   0.000E+00   9.980E-01
 169  7.37894005   0.710  -1.48658   3.52674   6.63788   1.22531   0.00000   2.000E-03   0.000E+00   9.980E-01
 170  7.38185089   0.710  -1.48865   3.52674   6.63887   1.22837   0.00000   2.000E-03   0.000E+00   9.980E-01
 171  7.38474234   0.710  -1.49072   3.52674   6.63986   1.23143   0.00000   2.000E-03   0.000E+00   9.980E-01
 172  7.38761467   0.710  -1.49278   3.52674   6.64085   1.23449   0.00000   2.000E-03   0.000E+00   9.980E-01
 173  7.39046813   0.710  -1.49485   3.52673   6.64184   1.23755   0.00000   2.000E-03   0.000E+00   9.980E-01
 174  7.39330297   0.710  -1.49692   3.52673   6.64284   1.24061   0.00000   2.000E-03   0.000E+00   9.980E-01
 175  7.39611942   0.710  -1.49897   3.52673   6.64382   1.24364   0.00000   2.015E-03   0.000E+00   9.980E-01
 176  7.39891772   0.710  -1.50091   3.52673   6.64475   1.24651   0.00000   2.119E-03   0.000E+00   9.979E-01
 177  7.40169810   0.710  -1.50285   3.52673   6.64568   1.24938   0.00000   2.222E-03   0.000E+00   9.978E-01
 178  7.40446080   0.710  -1.50480   3.52672   6.64661   1.25225   0.00000   2.326E-03   0.000E+00   9.977E-01
 179  7.40720604   0.710  -1.50674   3.52672   6.64754   1.25512   0.00000   2.429E-03   0.000E+00   9.976E-01
 180  7.40993403   0.710  -1.50868   3.52672   6.64846   1.25799   0.00000   2.533E-03   0.000E+00   9.975E-01
 181  7.41264499   0.710  -1.51062   3.52672   6.64939   1.26086   0.00000   2.636E-03   0.000E+00   9.974E-01
 182  7.41533914   0.710  -1.51256   3.52672   6.65032   1.26373   0.00000   2.740E-03   0.000E+00   9.973E-01
 183  7.41801668   0.710  -1.51451   3.52671   6.65125   1.26660   0.00000   2.843E-03   0.000E+00   9.972E-01
 184  7.42067780   0.710  -1.51645   3.52671   6.65218   1.26947   0.00000   2.947E-03   0.000E+00   9.971E-01
 185  7.42332273   0.710  -1.51833   3.52671   6.65308   1.27225   0.00000   3.000E-03   0.000E+00   9.970E-01
 186  7.42595164   0.710  -1.52015   3.52671   6.65395   1.27493   0.00000   3.000E-03   0.000E+00   9.970E-01
 187  7.42856473   0.710  -1.52197   3.52671   6.65482   1.27761   0.00000   3.000E-03   0.000E+00   9.970E-01
 188  7.43116220   0.710  -1.52379   3.52670   6.65569   1.28029   0.00000   3.000E-03   0.000E+00   9.970E-01
 189  7.43374422   0.710  -1.52561   3.52670   6.65656   1.28298   0.00000   3.000E-03   0.000E+00   9.970E-01
 190  7.43631098   0.710  -1.52743   3.52670   6.65743   1.28566   0.00000   3.000E-03   0.000E+00   9.970E-01
 191  7.43886266   0.710  -1.52925   3.52670   6.65830   1.28834   0.00000   3.000E-03   0.000E+00   9.970E-01
 192  7.44139944   0.710  -1.53107   3.52670   6.65917   1.29102   0.00000   3.000E-03   0.000E+00   9.970E-01
 193  7.44392148   0.710  -1.53289   3.52669   6.66004   1.29371   0.00000   3.000E-03   0.000E+00   9.970E-01
 194  7.44642897   0.710  -1.53471   3.52669   6.66091   1.29639   0.00000   3.000E-03   0.000E+00   9.970E-01
 195  7.44892206   0.710  -1.53651   3.52669   6.66177   1.29904   0.00000   3.016E-03   0.000E+00   9.970E-01
 196  7.45140091   0.710  -1.53821   3.52669   6.66258   1.30156   0.00000   3.107E-03   0.000E+00   9.969E-01
 197  7.45386570   0.710  -1.53992   3.52668   6.66339   1.30407   0.00000   3.198E-03   0.000E+00   9.968E-01
 198  7.45631658   0.710  -1.54163   3.52668   6.66421   1.30658   0.00000   3.289E-03   0.000E+00   9.967E-01
 199  7.45875371   0.710  -1.54333   3.52668   6.66502   1.30910   0.00000   3.380E-03   0.000E+00   9.966E-01
 200  7.46117724   0.710  -1.54504   3.52668   6.66583   1.31161   0.00000   3.471E-03   0.000E+00   9.965E-01
 201  7.46358732   0.710  -1.54675   3.52667   6.66665   1.31413   0.00000   3.562E-03   0.000E+00   9.964E-01
 202  7.46598409   0.710  -1.54845   3.52667   6.66746   1.31664   0.00000   3.654E-03   0.000E+00   9.963E-01
 203  7.46836771   0.710  -1.55016   3.52667   6.66828   1.31915   0.00000   3.745E-03   0.000E+00   9.963E-01
 204  7.47073832   0.710  -1.55187   3.52666   6.66909   1.32167   0.00000   3.836E-03   0.000E+00   9.962E-01
 205  7.47309607   0.710  -1.55357   3.52666   6.66990   1.32418   0.00000   3.927E-03   0.000E+00   9.961E-01
 206  7.47544108   0.710  -1.55526   3.52666   6.67071   1.32667   0.00000   4.016E-03   0.000E+00   9.960E-01
 207  7.47777349   0.710  -1.55686   3.52666   6.67147   1.32902   0.00000   4.102E-03   0.000E+00   9.959E-01
 208  7.48009345   0.710  -1.55846   3.52665   6.67223   1.33138   0.00000   4.187E-03   0.000E+00   9.958E-01
 209  7.48240108   0.710  -1.56006   3.52665   6.67299   1.33374   0.00000   4.272E-03   0.000E+00   9.957E-01
 210  7.48469651   0.710  -1.56165   3.52665   6.67375   1.33609   0.00000   4.358E-03   0.000E+00   9.956E-01
 211  7.48697987   0.710  -1.56325   3.52665   6.67451   1.33845   0.00000   4.443E-03   0.000E+00   9.956E-01
 212  7.48925130   0.710  -1.56485   3.52664   6.67527   1.34081   0.00000   4.528E-03   0.000E+00   9.955E-01
 213  7.49151090   0.710  -1.56645   3.52664   6.67603   1.34317   0.00000   4.614E-03   0.000E+00   9.954E-01
 214  7.49375881   0.710  -1.56805   3.52664   6.67680   1.34552   0.00000   4.699E-03   0.000E+00   9.953E-01
 215  7.49599514   0.710  -1.56965   3.52664   6.67756   1.34788   0.00000   4.784E-03   0.000E+00   9.952E-01
 216  7.49822002   0.710  -1.57125   3.52663   6.67832   1.35024   0.00000   4.870E-03   0.000E+00   9.951E-01
 217  7.50043355   0.710  -1.57285   3.52663   6.67908   1.35260   0.00000   4.955E-03   0.000E+00   9.950E-01
 218  7.50263586   0.710  -1.57440   3.52663   6.67982   1.35488   0.00000   5.075E-03   0.000E+00   9.949E-01
 219  7.50482706   0.710  -1.57589   3.52663   6.68053   1.35709   0.00000   5.235E-03   0.000E+00   9.948E-01
 220  7.50700726   0.710  -1.57739   3.52662   6.68124   1.35930   0.00000   5.395E-03   0.000E+00   9.946E-01
 221  7.50917657   0.710  -1.57889   3.52662   6.68195   1.36150   0.00000   5.555E-03   0.000E+00   9.944E-01
 222  7.51133510   0.710  -1.58039   3.52662   6.68267   1.36371   0.00000   5.715E-03   0.000E+00   9.943E-01
 223  7.51348295   0.710  -1.58188   3.52661   6.68338   1.36592   0.00000   5.875E-03   0.000E+00   9.941E-01
 224  7.51562023   0.710  -1.58338   3.52661   6.68409   1.36812   0.00000   6.035E-03   0.000E+00   9.940E-01
 225  7.51774705   0.710  -1.58488   3.52661   6.68480   1.37033   0.00000   6.195E-03   0.000E+00   9.938E-01
 226  7.51986350   0.710  -1.58637   3.52660   6.68551   1.37254   0.00000   6.354E-03   0.000E+00   9.936E-01
 227  7.52196969   0.710  -1.58787   3.52660   6.68623   1.37475   0.00000   6.514E-03   0.000E+00   9.935E-01
 228  7.52406571   0.710  -1.58937   3.52660   6.68694   1.37695   0.00000   6.674E-03   0.000E+00   9.933E-01
 229  7.52615166   0.710  -1.59087   3.52659   6.68765   1.37916   0.00000   6.834E-03   0.000E+00   9.932E-01
 230  7.52822764   0.710  -1.59236   3.52659   6.68836   1.38137   0.00000   6.994E-03   0.000E+00   9.930E-01
 231  7.53029375   0.710  -1.59377   3.52659   6.68903   1.38344   0.00000   7.144E-03   0.000E+00   9.929E-01
 232  7.53235007   0.710  -1.59517   3.52659   6.68970   1.38551   0.00000   7.294E-03   0.000E+00   9.927E-01
 233  7.53439671   0.710  -1.59657   3.52658   6.69036   1.38758   0.00000   7.444E-03   0.000E+00   9.926E-01
 234  7.53643374   0.710  -1.59797   3.52658   6.69103   1.38965   0.00000   7.593E-03   0.000E+00   9.924E-01
 235  7.53846126   0.710  -1.59937   3.52658   6.69170   1.39171   0.00000   7.743E-03   0.000E+00   9.923E-01
 236  7.54047937   0.710  -1.60078   3.52658   6.69236   1.39378   0.00000   7.893E-03   0.000E+00   9.921E-01
 237  7.54248813   0.710  -1.60218   3.52657   6.69303   1.39585   0.00000   8.042E-03   0.000E+00   9.920E-01
 238  7.54448765   0.710  -1.60358   3.52657   6.69369   1.39792   0.00000   8.192E-03   0.000E+00   9.918E-01
 239  7.54647801   0.710  -1.60498   3.52657   6.69436   1.39999   0.00000   8.342E-03   0.000E+00   9.917E-01
 240  7.54845928   0.710  -1.60638   3.52657   6.69503   1.40205   0.00000   8.491E-03   0.000E+00   9.915E-01
 241  7.55043156   0.710  -1.60778   3.52657   6.69569   1.40412   0.00000   8.641E-03   0.000E+00   9.914E-01
 242  7.55239492   0.710  -1.60918   3.52656   6.69636   1.40619   0.00000   8.791E-03   0.000E+00   9.912E-01
 243  7.55434945   0.710  -1.61058   3.52656   6.69703   1.40826   0.00000   8.941E-03   0.000E+00   9.911E-01
 244  7.55629522   0.710  -1.61193   3.52656   6.69767   1.41025   0.00000   9.085E-03   0.000E+00   9.909E-01
 245  7.55823231   0.710  -1.61324   3.52656   6.69829   1.41218   0.00000   9.225E-03   0.000E+00   9.908E-01
 246  7.56016079   0.710  -1.61455   3.52655   6.69891   1.41411   0.00000   9.365E-03   0.000E+00   9.906E-01
 247  7.56208076   0.710  -1.61586   3.52655   6.69953   1.41604   0.00000   9.505E-03   0.000E+00   9.905E-01
 248  7.56399227   0.710  -1.61717   3.52655   6.70016   1.41797   0.00000   9.645E-03   0.000E+00   9.904E-01
 249  7.56589540   0.710  -1.61848   3.52655   6.70078   1.41991   0.00000   9.785E-03   0.000E+00   9.902E-01
 250  7.56779024   0.710  -1.61979   3.52655   6.70140   1.42184   0.00000   9.925E-03   0.000E+00   9.901E-01
 251  7.56967684   0.710  -1.62110   3.52654   6.70203   1.42377   0.00000   1.007E-02   0.000E+00   9.899E-01
 252  7.57155528   0.710  -1.62241   3.52654   6.70265   1.42570   0.00000   1.021E-02   0.000E+00   9.898E-01
 253  7.57342563   0.710  -1.62371   3.52654   6.70327   1.42764   0.00000   1.035E-02   0.000E+00   9.897E-01
 254  7.57528796   0.710  -1.62502   3.52654   6.70389   1.42957   0.00000   1.049E-02   0.000E+00   9.895E-01
 255  7.57714234   0.710  -1.62633   3.52654   6.70452   1.43150   0.00000   1.063E-02   0.000E+00   9.894E-01
 256  7.57898883   0.710  -1.62764   3.52653   6.70514   1.43343   0.00000   1.077E-02   0.000E+00   9.892E-01
 257  7.58082751   0.710  -1.62895   3.52653   6.70576   1.43537   0.00000   1.091E-02   0.000E+00   9.891E-01
 258  7.58265843   0.710  -1.63023   3.52653   6.70637   1.43726   0.00000   1.106E-02   0.000E+00   9.889E-01
 259  7.58448167   0.710  -1.63146   3.52653   6.70694   1.43908   0.00000   1.126E-02   0.000E+00   9.887E-01
 260  7.58629729   0.710  -1.63268   3.52653   6.70751   1.44090   0.00000   1.146E-02   0.000E+00   9.885E-01
 261  7.58810534   0.710  -1.63391   3.52653   6.70808   1.44272   0.00000   1.165E-02   0.000E+00   9.883E-01
 262  7.58990591   0.710  -1.63513   3.52652   6.70865   1.44453   0.00000   1.185E-02   0.000E+00   9.881E-01
 263  7.59169903   0.710  -1.63635   3.52652   6.70922   1.44635   0.00000   1.205E-02   0.000E+00   9.880E-01
 264  7.59348479   0.710  -1.63758   3.52652   6.70979   1.44817   0.00000   1.224E-02   0.000E+00   9.878E-01
 265  7.59526323   0.710  -1.63880   3.52652   6.71036   1.44999   0.00000   1.244E-02   0.000E+00   9.876E-01
 266  7.59703442   0.710  -1.64003   3.52652   6.71093   1.45181   0.00000   1.264E-02   0.000E+00   9.874E-01
 267  7.59879841   0.710  -1.64125   3.52652   6.71150   1.45363   0.00000   1.283E-02   0.000E+00   9.872E-01
 268  7.60055527   0.710  -1.64247   3.52652   6.71207   1.45545   0.00000   1.303E-02   0.000E+00   9.870E-01
 269  7.60230505   0.710  -1.64370   3.52652   6.71264   1.45726   0.00000   1.323E-02   0.000E+00   9.868E-01
 270  7.60404781   0.710  -1.64492   3.52651   6.71321   1.45908   0.00000   1.342E-02   0.000E+00   9.866E-01
 271  7.60578360   0.710  -1.64615   3.52651   6.71378   1.46090   0.00000   1.362E-02   0.000E+00   9.864E-01
 272  7.60751248   0.710  -1.64737   3.52651   6.71435   1.46272   0.00000   1.382E-02   0.000E+00   9.862E-01
 273  7.60923451   0.710  -1.64859   3.52651   6.71492   1.46453   0.00000   1.401E-02   0.000E+00   9.860E-01
 274  7.61094973   0.710  -1.64973   3.52651   6.71544   1.46625   0.00000   1.419E-02   0.000E+00   9.858E-01
 275  7.61265821   0.710  -1.65087   3.52651   6.71596   1.46796   0.00000   1.438E-02   0.000E+00   9.856E-01
 276  7.61436000   0.710  -1.65201   3.52651   6.71649   1.46967   0.00000   1.456E-02   0.000E+00   9.854E-01
 277  7.61605514   0.710  -1.65316   3.52651   6.71701   1.47138   0.00000   1.475E-02   0.000E+00   9.853E-01
 278  7.61774369   0.710  -1.65430   3.52650   6.71753   1.47310   0.00000   1.493E-02   0.000E+00   9.851E-01
 279  7.61942570   0.710  -1.65544   3.52650   6.71805   1.47481   0.00000   1.511E-02   0.000E+00   9.849E-01
 280  7.62110122   0.710  -1.65658   3.52650   6.71857   1.47652   0.00000   1.530E-02   0.000E+00   9.847E-01
 281  7.62277031   0.710  -1.65772   3.52650   6.71909   1.47823   0.00000   1.548E-02   0.000E+00   9.845E-01
 282  7.62443300   0.710  -1.65886   3.52650   6.71961   1.47995   0.00000   1.566E-02   0.000E+00   9.843E-01
 283  7.62608935   0.710  -1.66001   3.52650   6.72013   1.48166   0.00000   1.585E-02   0.000E+00   9.842E-01
 284  7.62773941   0.710  -1.66115   3.52650   6.72066   1.48337   0.00000   1.603E-02   0.000E+00   9.840E-01
 285  7.62938322   0.710  -1.66229   3.52650   6.72118   1.48508   0.00000   1.621E-02   0.000E+00   9.838E-01
 286  7.63102083   0.710  -1.66343   3.52649   6.72170   1.48680   0.00000   1.640E-02   0.000E+00   9.836E-01
 287  7.63265230   0.710  -1.66457   3.52649   6.72222   1.48851   0.00000   1.658E-02   0.000E+00   9.834E-01
 288  7.63427765   0.710  -1.66571   3.52649   6.72274   1.49022   0.00000   1.676E-02   0.000E+00   9.832E-01
 289  7.63589695   0.710  -1.66686   3.52649   6.72326   1.49193   0.00000   1.695E-02   0.000E+00   9.831E-01
 290  7.63751023   0.710  -1.66794   3.52649   6.72375   1.49357   0.00000   1.720E-02   0.000E+00   9.828E-01
 291  7.63911754   0.710  -1.66901   3.52649   6.72423   1.49519   0.00000   1.749E-02   0.000E+00   9.825E-01
 292  7.64071892   0.710  -1.67007   3.52649   6.72471   1.49680   0.00000   1.778E-02   0.000E+00   9.822E-01
 293  7.64231442   0.710  -1.67114   3.52649   6.72519   1.49841   0.00000   1.806E-02   0.000E+00   9.819E-01
 294  7.64390408   0.710  -1.67220   3.52648   6.72567   1.50002   0.00000   1.835E-02   0.000E+00   9.817E-01
 295  7.64548795   0.710  -1.67327   3.52648   6.72615   1.50163   0.00000   1.863E-02   0.000E+00   9.814E-01
 296  7.64706605   0.710  -1.67433   3.52648   6.72662   1.50324   0.00000   1.892E-02   0.000E+00   9.811E-01
 297  7.64863845   0.710  -1.67539   3.52648   6.72710   1.50485   0.00000   1.920E-02   0.000E+00   9.808E-01
 298  7.65020517   0.710  -1.67646   3.52648   6.72758   1.50646   0.00000   1.949E-02   0.000E+00   9.805E-01
 299  7.65176626   0.710  -1.67752   3.52648   6.72806   1.50807   0.00000   1.977E-02   0.000E+00   9.802E-01
 300  7.65332176   0.710  -1.67859   3.52648   6.72854   1.50968   0.00000   2.006E-02   0.000E+00   9.799E-01
 301  7.65487171   0.710  -1.67965   3.52648   6.72902   1.51130   0.00000   2.035E-02   0.000E+00   9.797E-01
 302  7.65641614   0.710  -1.68072   3.52648   6.72950   1.51291   0.00000   2.063E-02   0.000E+00   9.794E-01
 303  7.65795510   0.710  -1.68178   3.52647   6.72997   1.51452   0.00000   2.092E-02   0.000E+00   9.791E-01
 304  7.65948863   0.710  -1.68285   3.52647   6.73045   1.51613   0.00000   2.120E-02   0.000E+00   9.788E-01
 305  7.66101676   0.710  -1.68391   3.52647   6.73093   1.51774   0.00000   2.149E-02   0.000E+00   9.785E-01
 306  7.66253954   0.710  -1.68497   3.52647   6.73141   1.51935   0.00000   2.177E-02   0.000E+00   9.782E-01
 307  7.66405699   0.710  -1.68602   3.52647   6.73188   1.52094   0.00000   2.205E-02   0.000E+00   9.779E-01
 308  7.66556916   0.710  -1.68701   3.52647   6.73232   1.52246   0.00000   2.232E-02   0.000E+00   9.777E-01
 309  7.66707608   0.710  -1.68800   3.52647   6.73276   1.52397   0.00000   2.259E-02   0.000E+00   9.774E-01
 310  7.66857780   0.710  -1.68899   3.52647   6.73320   1.52548   0.00000   2.285E-02   0.000E+00   9.771E-01
 311  7.67007433   0.710  -1.68999   3.52647   6.73364   1.52700   0.00000   2.312E-02   0.000E+00   9.769E-01
 312  7.67156573   0.710  -1.69098   3.52647   6.73408   1.52851   0.00000   2.339E-02   0.000E+00   9.766E-01
 313  7.67305202   0.710  -1.69197   3.52647   6.73452   1.53003   0.00000   2.365E-02   0.000E+00   9.763E-01
 314  7.67453325   0.710  -1.69296   3.52647   6.73496   1.53154   0.00000   2.392E-02   0.000E+00   9.761E-01
 315  7.67600944   0.710  -1.69395   3.52647   6.73540   1.53305   0.00000   2.418E-02   0.000E+00   9.758E-01
 316  7.67748063   0.710  -1.69494   3.52647   6.73584   1.53457   0.00000   2.445E-02   0.000E+00   9.756E-01
 317  7.67894685   0.710  -1.69593   3.52647   6.73628   1.53608   0.00000   2.472E-02   0.000E+00   9.753E-01
 318  7.68040814   0.710  -1.69692   3.52647   6.73672   1.53760   0.00000   2.498E-02   0.000E+00   9.750E-01
 319  7.68186453   0.710  -1.69791   3.52647   6.73716   1.53911   0.00000   2.525E-02   0.000E+00   9.748E-01
 320  7.68331605   0.710  -1.69890   3.52647   6.73760   1.54062   0.00000   2.551E-02   0.000E+00   9.745E-01
 321  7.68476274   0.710  -1.69989   3.52647   6.73803   1.54214   0.00000   2.578E-02   0.000E+00   9.742E-01
 322  7.68620462   0.710  -1.70088   3.52647   6.73847   1.54365   0.00000   2.605E-02   0.000E+00   9.740E-01
 323  7.68764173   0.710  -1.70187   3.52647   6.73891   1.54517   0.00000   2.631E-02   0.000E+00   9.737E-01
 324  7.68907410   0.710  -1.70286   3.52647   6.73935   1.54668   0.00000   2.658E-02   0.000E+00   9.734E-01
 325  7.69050177   0.710  -1.70385   3.52647   6.73979   1.54820   0.00000   2.684E-02   0.000E+00   9.732E-01
 326  7.69192475   0.710  -1.70481   3.52647   6.74022   1.54967   0.00000   2.716E-02   0.000E+00   9.728E-01
 327  7.69334309   0.710  -1.70573   3.52647   6.74062   1.55108   0.00000   2.756E-02   0.000E+00   9.724E-01
 328  7.69475681   0.710  -1.70665   3.52647   6.74102   1.55250   0.00000   2.796E-02   0.000E+00   9.720E-01
 329  7.69616594   0.710  -1.70757   3.52647   6.74143   1.55392   0.00000   2.835E-02   0.000E+00   9.716E-01
 330  7.69757052   0.710  -1.70849   3.52647   6.74183   1.55533   0.00000   2.875E-02   0.000E+00   9.713E-01
 331  7.69897057   0.710  -1.70941   3.52647   6.74224   1.55675   0.00000   2.915E-02   0.000E+00   9.709E-01
 332  7.70036612   0.710  -1.71033   3.52647   6.74264   1.55816   0.00000   2.954E-02   0.000E+00   9.705E-01
 333  7.70175720   0.710  -1.71125   3.52647   6.74304   1.55958   0.00000   2.994E-02   0.000E+00   9.701E-01
 334  7.70314384   0.710  -1.71217   3.52647   6.74345   1.56099   0.00000   3.033E-02   0.000E+00   9.697E-01
 335  7.70452606   0.710  -1.71309   3.52647   6.74385   1.56241   0.00000   3.073E-02   0.000E+00   9.693E-01
 336  7.70590390   0.710  -1.71401   3.52647   6.74425   1.56382   0.00000   3.113E-02   0.000E+00   9.689E-01
 337  7.70727738   0.710  -1.71493   3.52647   6.74466   1.56524   0.00000   3.152E-02   0.000E+00   9.685E-01
 338  7.70864653   0.710  -1.71585   3.52647   6.74506   1.56666   0.00000   3.192E-02   0.000E+00   9.681E-01
 339  7.71001138   0.710  -1.71677   3.52647   6.74546   1.56807   0.00000   3.231E-02   0.000E+00   9.677E-01
 340  7.71137196   0.710  -1.71768   3.52647   6.74587   1.56949   0.00000   3.271E-02   0.000E+00   9.673E-01
 341  7.71272828   0.710  -1.71860   3.52647   6.74627   1.57090   0.00000   3.311E-02   0.000E+00   9.669E-01
 342  7.71408038   0.710  -1.71952   3.52647   6.74667   1.57232   0.00000   3.350E-02   0.000E+00   9.665E-01
 343  7.71542829   0.710  -1.72044   3.52647   6.74708   1.57373   0.00000   3.390E-02   0.000E+00   9.661E-01
 344  7.71677202   0.710  -1.72136   3.52647   6.74748   1.57515   0.00000   3.429E-02   0.000E+00   9.657E-01
 345  7.71811161   0.710  -1.72228   3.52647   6.74788   1.57656   0.00000   3.469E-02   0.000E+00   9.653E-01
 346  7.71944708   0.710  -1.72319   3.52647   6.74828   1.57796   0.00000   3.508E-02   0.000E+00   9.649E-01
 347  7.72077846   0.710  -1.72404   3.52647   6.74865   1.57928   0.00000   3.545E-02   0.000E+00   9.646E-01
 348  7.72210577   0.710  -1.72489   3.52647   6.74903   1.58060   0.00000   3.582E-02   0.000E+00   9.642E-01
 349  7.72342903   0.710  -1.72574   3.52647   6.74940   1.58193   0.00000   3.618E-02   0.000E+00   9.638E-01
 350  7.72474827   0.710  -1.72659   3.52647   6.74977   1.58325   0.00000   3.655E-02   0.000E+00   9.634E-01
 351  7.72606352   0.710  -1.72745   3.52647   6.75014   1.58457   0.00000   3.692E-02   0.000E+00   9.631E-01
 352  7.72737480   0.710  -1.72830   3.52647   6.75051   1.58589   0.00000   3.729E-02   0.000E+00   9.627E-01
 353  7.72868213   0.710  -1.72915   3.52647   6.75089   1.58721   0.00000   3.766E-02   0.000E+00   9.623E-01
 354  7.72998554   0.710  -1.73000   3.52647   6.75126   1.58854   0.00000   3.802E-02   0.000E+00   9.620E-01
 355  7.73128504   0.710  -1.73085   3.52647   6.75163   1.58986   0.00000   3.839E-02   0.000E+00   9.616E-01
 356  7.73258067   0.710  -1.73171   3.52647   6.75200   1.59118   0.00000   3.876E-02   0.000E+00   9.612E-01
 357  7.73387245   0.710  -1.73256   3.52648   6.75237   1.59250   0.00000   3.913E-02   0.000E+00   9.609E-01
 358  7.73516039   0.710  -1.73341   3.52648   6.75275   1.59382   0.00000   3.949E-02   0.000E+00   9.605E-01
 359  7.73644453   0.710  -1.73426   3.52648   6.75312   1.59514   0.00000   3.986E-02   0.000E+00   9.601E-01
 360  7.73772488   0.710  -1.73511   3.52648   6.75349   1.59647   0.00000   4.023E-02   0.000E+00   9.598E-01
 361  7.73900147   0.710  -1.73597   3.52648   6.75386   1.59779   0.00000   4.060E-02   0.000E+00   9.594E-01
 362  7.74027431   0.710  -1.73682   3.52648   6.75423   1.59911   0.00000   4.097E-02   0.000E+00   9.590E-01
 363  7.74154344   0.710  -1.73767   3.52648   6.75461   1.60043   0.00000   4.133E-02   0.000E+00   9.587E-01
 364  7.74280887   0.710  -1.73852   3.52648   6.75498   1.60175   0.00000   4.170E-02   0.000E+00   9.583E-01
 365  7.74407062   0.710  -1.73937   3.52648   6.75535   1.60308   0.00000   4.207E-02   0.000E+00   9.579E-01
 366  7.74532872   0.710  -1.74023   3.52648   6.75572   1.60440   0.00000   4.244E-02   0.000E+00   9.576E-01
 367  7.74658318   0.710  -1.74108   3.52648   6.75609   1.60572   0.00000   4.281E-02   0.000E+00   9.572E-01
 368  7.74783403   0.710  -1.74190   3.52648   6.75645   1.60700   0.00000   4.324E-02   0.000E+00   9.568E-01
 369  7.74908129   0.710  -1.74269   3.52648   6.75679   1.60823   0.00000   4.375E-02   0.000E+00   9.562E-01
 370  7.75032497   0.710  -1.74348   3.52648   6.75714   1.60946   0.00000   4.426E-02   0.000E+00   9.557E-01
 371  7.75156511   0.710  -1.74426   3.52648   6.75748   1.61069   0.00000   4.477E-02   0.000E+00   9.552E-01
 372  7.75280171   0.710  -1.74505   3.52649   6.75782   1.61192   0.00000   4.529E-02   0.000E+00   9.547E-01
 373  7.75403480   0.710  -1.74584   3.52649   6.75816   1.61315   0.00000   4.580E-02   0.000E+00   9.542E-01
 374  7.75526440   0.710  -1.74663   3.52649   6.75851   1.61438   0.00000   4.631E-02   0.000E+00   9.537E-01
 375  7.75649053   0.710  -1.74742   3.52649   6.75885   1.61562   0.00000   4.682E-02   0.000E+00   9.532E-01
 376  7.75771321   0.710  -1.74820   3.52649   6.75919   1.61685   0.00000   4.733E-02   0.000E+00   9.527E-01
 377  7.75893245   0.710  -1.74899   3.52649   6.75953   1.61808   0.00000   4.784E-02   0.000E+00   9.522E-01
 378  7.76014828   0.710  -1.74978   3.52649   6.75988   1.61931   0.00000   4.835E-02   0.000E+00   9.516E-01
 379  7.76136072   0.710  -1.75057   3.52649   6.76022   1.62054   0.00000   4.886E-02   0.000E+00   9.511E-01
 380  7.76256978   0.710  -1.75135   3.52650   6.76056   1.62177   0.00000   4.938E-02   0.000E+00   9.506E-01
 381  7.76377549   0.710  -1.75214   3.52650   6.76090   1.62300   0.00000   4.989E-02   0.000E+00   9.501E-01
 382  7.76497785   0.710  -1.75293   3.52650   6.76125   1.62423   0.00000   5.040E-02   0.000E+00   9.496E-01
 383  7.76617690   0.710  -1.75372   3.52650   6.76159   1.62546   0.00000   5.091E-02   0.000E+00   9.491E-01
 384  7.76737265   0.710  -1.75451   3.52650   6.76193   1.62669   0.00000   5.142E-02   0.000E+00   9.486E-01
 385  7.76856511   0.710  -1.75529   3.52650   6.76227   1.62792   0.00000   5.193E-02   0.000E+00   9.481E-01
 386  7.76975431   0.710  -1.75608   3.52650   6.76262   1.62916   0.00000   5.244E-02   0.000E+00   9.476E-01
 387  7.77094026   0.710  -1.75687   3.52650   6.76296   1.63039   0.00000   5.295E-02   0.000E+00   9.470E-01
 388  7.77212298   0.710  -1.75766   3.52651   6.76330   1.63162   0.00000   5.347E-02   0.000E+00   9.465E-01
 389  7.77330249   0.710  -1.75844   3.52651   6.76364   1.63285   0.00000   5.398E-02   0.000E+00   9.460E-01
 390  7.77447880   0.710  -1.75923   3.52651   6.76399   1.63408   0.00000   5.449E-02   0.000E+00   9.455E-01
 391  7.77565194   0.710  -1.76002   3.52651   6.76433   1.63531   0.00000   5.500E-02   0.000E+00   9.450E-01
 392  7.86884157   0.710  -1.81822   3.52666   6.78988   1.72718   0.00000   1.115E-01   0.000E+00   8.885E-01
 393  7.94552474   0.710  -1.86249   3.52684   6.81007   1.79669   0.00000   1.912E-01   0.000E+00   8.088E-01
 394  8.01067835   0.710  -1.89657   3.52701   6.82659   1.84860   0.00000   2.884E-01   0.000E+00   7.116E-01
 395  8.06732054   0.710  -1.92293   3.52713   6.84032   1.88673   0.00000   3.944E-01   0.000E+00   6.056E-01
 396  8.11742034   0.710  -1.94258   3.52720   6.85143   1.91288   0.00000   4.997E-01   0.000E+00   5.003E-01
 397  8.16233381   0.710  -1.95736   3.52725   6.86046   1.93118   0.00078   5.949E-01   0.000E+00   4.051E-01
 398  8.20303471   0.710  -1.96853   3.52730   6.86756   1.94493   0.00242   6.781E-01   0.000E+00   3.219E-01
 399  8.24024595   0.709  -1.97591   3.52734   6.87105   1.95616   0.00084   7.420E-01   0.000E+00   2.580E-01
 400  8.27451894   0.709  -1.98173   3.52737   6.87380   1.96496   0.00000   7.937E-01   0.000E+00   2.061E-01
 401  8.30628395   0.710  -1.98576   3.52740   6.87571   1.97100   0.00000   8.316E-01   0.000E+00   1.679E-01
 402  8.33588313   0.710  -1.98980   3.52743   6.87761   1.97705   0.00000   8.694E-01   0.000E+00   1.296E-01
 403  8.36359306   0.710  -1.99164   3.52744   6.87849   1.97985   0.00000   8.891E-01   0.000E+00   1.102E-01
 404  8.38964052   0.710  -1.99338   3.52745   6.87932   1.98251   0.00000   9.079E-01   0.000E+00   9.155E-02
 405  8.41421374   0.710  -1.99512   3.52746   6.88015   1.98518   0.00000   9.268E-01   0.000E+00   7.294E-02
 406  8.43747071   0.710  -1.99664   3.52747   6.88087   1.98750   0.00000   9.433E-01   0.000E+00   5.660E-02
 407  8.45954529   0.710  -1.99722   3.52747   6.88115   1.98838   0.00000   9.500E-01   0.000E+00   4.986E-02
 408  8.48055192   0.710  -1.99780   3.52748   6.88143   1.98926   0.00000   9.567E-01   0.000E+00   4.311E-02
 409  8.50058917   0.710  -1.99837   3.52748   6.88171   1.99014   0.00000   9.635E-01   0.000E+00   3.637E-02
 410  8.51974258   0.710  -1.99895   3.52748   6.88199   1.99103   0.00000   9.702E-01   0.000E+00   2.962E-02
 411  8.53808684   0.710  -1.99953   3.52749   6.88227   1.99191   0.00000   9.769E-01   0.000E+00   2.288E-02
 412  8.55568756   0.710  -1.99986   3.52749   6.88243   1.99242   0.00000   9.810E-01   0.000E+00   1.882E-02
 413  8.57260266   0.710  -1.99998   3.52749   6.88250   1.99261   0.00000   9.829E-01   0.000E+00   1.700E-02
 414  8.58888357   0.710  -2.00011   3.52749   6.88256   1.99281   0.00000   9.848E-01   0.000E+00   1.519E-02
 415  8.60457613   0.710  -2.00023   3.52749   6.88263   1.99300   0.00000   9.867E-01   0.000E+00   1.338E-02
 416  8.61972138   0.710  -2.00036   3.52750   6.88269   1.99319   0.00000   9.886E-01   0.000E+00   1.157E-02
 417  8.63435622   0.710  -2.00048   3.52750   6.88275   1.99339   0.00000   9.905E-01   0.000E+00   9.763E-03
 418  8.64851392   0.710  -2.00061   3.52750   6.88282   1.99358   0.00000   9.924E-01   0.000E+00   7.952E-03
 419  8.66222463   0.710  -2.00073   3.52750   6.88288   1.99378   0.00000   9.942E-01   0.000E+00   6.142E-03
 420  8.67551571   0.710  -2.00085   3.52750   6.88294   1.99396   0.00000   9.960E-01   0.000E+00   4.434E-03
 421  8.68841207   0.710  -2.00084   3.52750   6.88294   1.99395   0.00000   9.963E-01   0.000E+00   4.065E-03
 422  8.70093650   0.710  -2.00083   3.52750   6.88294   1.99394   0.00000   9.967E-01   0.000E+00   3.696E-03
 423  8.71310984   0.710  -2.00082   3.52750   6.88295   1.99393   0.00000   9.970E-01   0.000E+00   3.327E-03
 424  8.72495125   0.710  -2.00081   3.52751   6.88295   1.99392   0.00000   9.973E-01   0.000E+00   2.958E-03
 425  8.73647834   0.710  -2.00080   3.52751   6.88295   1.99392   0.00000   9.976E-01   0.000E+00   2.589E-03
 426  8.74770737   0.710  -2.00079   3.52751   6.88295   1.99391   0.00000   9.979E-01   0.000E+00   2.220E-03
 427  8.75865337   0.710  -2.00078   3.52751   6.88296   1.99390   0.00000   9.982E-01   0.000E+00   1.852E-03
 428  8.76933025   0.710  -2.00077   3.52751   6.88296   1.99389   0.00000   9.985E-01   0.000E+00   1.483E-03
 429  8.77975093   0.710  -2.00076   3.52751   6.88296   1.99388   0.00000   9.989E-01   0.000E+00   1.114E-03
 430  8.78992743   0.710  -2.00075   3.52752   6.88296   1.99387   0.00000   9.992E-01   0.000E+00   7.450E-04
 431  8.79987091   0.710  -2.00075   3.52752   6.88297   1.99386   0.00000   9.995E-01   0.000E+00   3.761E-04
 432  8.80959182   0.710  -2.00074   3.52752   6.88297   1.99386   0.00000   9.998E-01   0.000E+00   7.240E-06
 433  8.81909989   0.710  -2.00071   3.52752   6.88296   1.99383   0.00000   1.000E+00   0.000E+00  -2.609E-04
 434  8.82840426   0.709  -2.00067   3.52752   6.88295   1.99376   0.00000   1.000E+00   0.000E+00  -3.517E-04
 435  8.83751346   0.709  -2.00062   3.52752   6.88293   1.99370   0.00000   1.000E+00   0.000E+00  -4.425E-04
 436  8.84643552   0.709  -2.00058   3.52752   6.88292   1.99364   0.00000   1.000E+00   0.000E+00  -5.333E-04
 437  8.85517797   0.709  -2.00053   3.52752   6.88290   1.99357   0.00000   1.000E+00   0.000E+00  -6.241E-04
 438  8.86374790   0.709  -2.00049   3.52752   6.88289   1.99351   0.00000   1.000E+00   0.000E+00  -7.149E-04
 439  8.87215199   0.709  -2.00044   3.52752   6.88287   1.99345   0.00000   1.000E+00   0.000E+00  -8.057E-04
 440  8.88039653   0.709  -2.00039   3.52753   6.88286   1.99338   0.00000   1.001E+00   0.000E+00  -8.965E-04
 441  8.88848747   0.709  -2.00035   3.52753   6.88284   1.99332   0.00000   1.001E+00   0.000E+00  -9.874E-04
 442  8.89643042   0.709  -2.00030   3.52753   6.88283   1.99326   0.00000   1.001E+00   0.000E+00  -1.078E-03
 443  8.90423072   0.709  -2.00026   3.52753   6.88281   1.99319   0.00000   1.001E+00   0.000E+00  -1.169E-03
 444  8.91189338   0.709  -2.00021   3.52753   6.88280   1.99313   0.00000   1.001E+00   0.000E+00  -1.260E-03
 445  8.91942318   0.709  -2.00017   3.52753   6.88278   1.99306   0.00000   1.001E+00   0.000E+00  -1.351E-03
 446  8.92682465   0.709  -2.00012   3.52753   6.88277   1.99300   0.00000   1.001E+00   0.000E+00  -1.441E-03
 447  8.93410209   0.709  -2.00007   3.52753   6.88275   1.99293   0.00000   1.001E+00   0.000E+00  -1.514E-03
 448  8.94125959   0.709  -2.00001   3.52753   6.88273   1.99284   0.00000   1.001E+00   0.000E+00  -1.554E-03
 449  8.94830104   0.709  -1.99994   3.52753   6.88271   1.99275   0.00000   1.001E+00   0.000E+00  -1.594E-03
 450  8.95523015   0.709  -1.99988   3.52753   6.88268   1.99266   0.00000   1.001E+00   0.000E+00  -1.634E-03
 451  8.96205043   0.709  -1.99982   3.52753   6.88266   1.99257   0.00000   1.001E+00   0.000E+00  -1.674E-03
 452  8.96876526   0.709  -1.99976   3.52753   6.88264   1.99248   0.00000   1.001E+00   0.000E+00  -1.714E-03
 453  8.97537785   0.709  -1.99970   3.52753   6.88261   1.99239   0.00000   1.001E+00   0.000E+00  -1.754E-03
 454  8.98189126   0.709  -1.99963   3.52753   6.88259   1.99230   0.00000   1.002E+00   0.000E+00  -1.794E-03
 455  8.98830843   0.709  -1.99957   3.52753   6.88257   1.99221   0.00000   1.002E+00   0.000E+00  -1.834E-03
 456  8.99463216   0.709  -1.99951   3.52753   6.88255   1.99212   0.00000   1.002E+00   0.000E+00  -1.874E-03
 457  9.00086512   0.709  -1.99945   3.52753   6.88252   1.99203   0.00000   1.002E+00   0.000E+00  -1.914E-03
 458  9.00700990   0.709  -1.99938   3.52753   6.88250   1.99194   0.00000   1.002E+00   0.000E+00  -1.954E-03
 459  9.01306895   0.709  -1.99932   3.52753   6.88248   1.99185   0.00000   1.002E+00   0.000E+00  -1.994E-03
 460  9.01904462   0.709  -1.99926   3.52753   6.88245   1.99176   0.00000   1.002E+00   0.000E+00  -2.034E-03
 461  9.02493919   0.709  -1.99919   3.52753   6.88243   1.99166   0.00000   1.002E+00   0.000E+00  -2.069E-03
 462  9.03075482   0.709  -1.99912   3.52753   6.88240   1.99156   0.00000   1.002E+00   0.000E+00  -2.095E-03
 463  9.03649361   0.709  -1.99905   3.52753   6.88237   1.99145   0.00000   1.002E+00   0.000E+00  -2.120E-03
 464  9.04215755   0.709  -1.99898   3.52753   6.88235   1.99135   0.00000   1.002E+00   0.000E+00  -2.146E-03
 465  9.04774857   0.709  -1.99891   3.52753   6.88232   1.99124   0.00000   1.002E+00   0.000E+00  -2.172E-03
 466  9.05326852   0.709  -1.99883   3.52753   6.88229   1.99114   0.00000   1.002E+00   0.000E+00  -2.197E-03
 467  9.05871920   0.709  -1.99876   3.52753   6.88226   1.99103   0.00000   1.002E+00   0.000E+00  -2.223E-03
 468  9.06410232   0.709  -1.99869   3.52754   6.88224   1.99093   0.00000   1.002E+00   0.000E+00  -2.249E-03
 469  9.06941952   0.709  -1.99862   3.52754   6.88221   1.99082   0.00000   1.002E+00   0.000E+00  -2.275E-03
 470  9.07467242   0.709  -1.99855   3.52754   6.88218   1.99072   0.00000   1.002E+00   0.000E+00  -2.300E-03
 471  9.07986254   0.709  -1.99847   3.52754   6.88215   1.99061   0.00000   1.002E+00   0.000E+00  -2.326E-03
 472  9.08499136   0.709  -1.99840   3.52754   6.88212   1.99051   0.00000   1.002E+00   0.000E+00  -2.352E-03
 473  9.09006032   0.709  -1.99833   3.52754   6.88210   1.99040   0.00000   1.002E+00   0.000E+00  -2.377E-03
 474  9.09507080   0.709  -1.99826   3.52754   6.88207   1.99030   0.00000   1.002E+00   0.000E+00  -2.403E-03
 475  9.10002413   0.709  -1.99818   3.52754   6.88204   1.99019   0.00000   1.002E+00   0.000E+00  -2.427E-03
 476  9.10492160   0.709  -1.99810   3.52754   6.88201   1.99007   0.00000   1.002E+00   0.000E+00  -2.446E-03
 477  9.10976446   0.709  -1.99802   3.52754   6.88197   1.98996   0.00000   1.002E+00   0.000E+00  -2.465E-03
 478  9.11455392   0.709  -1.99794   3.52754   6.88194   1.98984   0.00000   1.002E+00   0.000E+00  -2.484E-03
 479  9.11929112   0.709  -1.99786   3.52754   6.88191   1.98972   0.00000   1.002E+00   0.000E+00  -2.504E-03
 480  9.12397722   0.709  -1.99778   3.52754   6.88188   1.98960   0.00000   1.002E+00   0.000E+00  -2.523E-03
 481  9.12861329   0.709  -1.99770   3.52754   6.88185   1.98949   0.00000   1.002E+00   0.000E+00  -2.542E-03
 482  9.13320039   0.709  -1.99762   3.52755   6.88181   1.98937   0.00000   1.003E+00   0.000E+00  -2.561E-03
 483  9.13773955   0.709  -1.99754   3.52755   6.88178   1.98925   0.00000   1.003E+00   0.000E+00  -2.581E-03
 484  9.14223175   0.709  -1.99746   3.52755   6.88175   1.98914   0.00000   1.003E+00   0.000E+00  -2.600E-03
 485  9.14667797   0.709  -1.99738   3.52755   6.88172   1.98902   0.00000   1.003E+00   0.000E+00  -2.619E-03
 486  9.15107912   0.709  -1.99730   3.52755   6.88169   1.98890   0.00000   1.003E+00   0.000E+00  -2.639E-03
 487  9.15543613   0.709  -1.99721   3.52755   6.88165   1.98879   0.00000   1.003E+00   0.000E+00  -2.658E-03
 488  9.15974985   0.709  -1.99713   3.52755   6.88162   1.98867   0.00000   1.003E+00   0.000E+00  -2.677E-03
 489  9.16402115   0.709  -1.99705   3.52755   6.88159   1.98855   0.00000   1.003E+00   0.000E+00  -2.695E-03
 490  9.16825085   0.709  -1.99696   3.52755   6.88155   1.98842   0.00000   1.003E+00   0.000E+00  -2.709E-03
 491  9.17243975   0.709  -1.99688   3.52755   6.88152   1.98830   0.00000   1.003E+00   0.000E+00  -2.723E-03
 492  9.17658864   0.709  -1.99679   3.52755   6.88149   1.98817   0.00000   1.003E+00   0.000E+00  -2.738E-03
 493  9.18069826   0.709  -1.99671   3.52755   6.88145   1.98804   0.00000   1.003E+00   0.000E+00  -2.752E-03
 494  9.18476936   0.709  -1.99662   3.52755   6.88142   1.98792   0.00000   1.003E+00   0.000E+00  -2.766E-03
 495  9.18880265   0.709  -1.99653   3.52755   6.88138   1.98779   0.00000   1.003E+00   0.000E+00  -2.780E-03
 496  9.19279883   0.709  -1.99645   3.52755   6.88135   1.98766   0.00000   1.003E+00   0.000E+00  -2.795E-03
 497  9.19675858   0.709  -1.99636   3.52755   6.88131   1.98754   0.00000   1.003E+00   0.000E+00  -2.809E-03
 498  9.20068254   0.709  -1.99627   3.52755   6.88128   1.98741   0.00000   1.003E+00   0.000E+00  -2.823E-03
 499  9.20457137   0.709  -1.99619   3.52755   6.88125   1.98728   0.00000   1.003E+00   0.000E+00  -2.838E-03
 500  9.20842569   0.709  -1.99610   3.52755   6.88121   1.98716   0.00000   1.003E+00   0.000E+00  -2.852E-03
 501  9.21224610   0.709  -1.99601   3.52755   6.88118   1.98703   0.00000   1.003E+00   0.000E+00  -2.866E-03
 502  9.21603319   0.709  -1.99593   3.52755   6.88114   1.98691   0.00000   1.003E+00   0.000E+00  -2.880E-03
 503  9.21978755   0.709  -1.99584   3.52755   6.88111   1.98678   0.00000   1.003E+00   0.000E+00  -2.893E-03
 504  9.22350973   0.709  -1.99575   3.52755   6.88107   1.98665   0.00000   1.003E+00   0.000E+00  -2.902E-03
 505  9.22720027   0.709  -1.99566   3.52755   6.88103   1.98651   0.00000   1.003E+00   0.000E+00  -2.912E-03
 506  9.23085973   0.709  -1.99557   3.52755   6.88100   1.98638   0.00000   1.003E+00   0.000E+00  -2.921E-03
 507  9.23448860   0.709  -1.99548   3.52755   6.88096   1.98625   0.00000   1.003E+00   0.000E+00  -2.930E-03
 508  9.23808740   0.709  -1.99539   3.52755   6.88092   1.98612   0.00000   1.003E+00   0.000E+00  -2.939E-03
 509  9.24165663   0.708  -1.99530   3.52755   6.88089   1.98598   0.00000   1.003E+00   0.000E+00  -2.949E-03
 510  9.24519676   0.708  -1.99521   3.52756   6.88085   1.98585   0.00000   1.003E+00   0.000E+00  -2.958E-03
 511  9.24870826   0.708  -1.99512   3.52756   6.88081   1.98572   0.00000   1.003E+00   0.000E+00  -2.967E-03
 512  9.25219161   0.708  -1.99502   3.52756   6.88077   1.98559   0.00000   1.003E+00   0.000E+00  -2.977E-03
 513  9.25564723   0.708  -1.99493   3.52756   6.88074   1.98546   0.00000   1.003E+00   0.000E+00  -2.986E-03
 514  9.25907558   0.708  -1.99484   3.52756   6.88070   1.98532   0.00000   1.003E+00   0.000E+00  -2.995E-03
 515  9.26247707   0.708  -1.99475   3.52756   6.88066   1.98519   0.00000   1.003E+00   0.000E+00  -3.004E-03
 516  9.26585213   0.708  -1.99466   3.52756   6.88063   1.98506   0.00000   1.003E+00   0.000E+00  -3.014E-03
 517  9.26920117   0.708  -1.99457   3.52756   6.88059   1.98493   0.00000   1.003E+00   0.000E+00  -3.022E-03
 518  9.27252457   0.708  -1.99448   3.52756   6.88055   1.98479   0.00000   1.003E+00   0.000E+00  -3.027E-03
 519  9.27582274   0.708  -1.99438   3.52756   6.88051   1.98465   0.00000   1.003E+00   0.000E+00  -3.032E-03
 520  9.27909605   0.708  -1.99429   3.52756   6.88047   1.98452   0.00000   1.003E+00   0.000E+00  -3.037E-03
 521  9.28234487   0.708  -1.99420   3.52756   6.88044   1.98438   0.00000   1.003E+00   0.000E+00  -3.042E-03
 522  9.28556956   0.708  -1.99410   3.52756   6.88040   1.98425   0.00000   1.003E+00   0.000E+00  -3.047E-03
 523  9.28877049   0.708  -1.99401   3.52756   6.88036   1.98411   0.00000   1.003E+00   0.000E+00  -3.052E-03
 524  9.29194800   0.708  -1.99392   3.52756   6.88032   1.98397   0.00000   1.003E+00   0.000E+00  -3.057E-03
 525  9.29510244   0.708  -1.99382   3.52756   6.88029   1.98384   0.00000   1.003E+00   0.000E+00  -3.062E-03
 526  9.29823412   0.708  -1.99373   3.52756   6.88025   1.98370   0.00000   1.003E+00   0.000E+00  -3.067E-03
 527  9.30134338   0.708  -1.99364   3.52756   6.88021   1.98356   0.00000   1.003E+00   0.000E+00  -3.072E-03
 528  9.30443055   0.708  -1.99354   3.52756   6.88017   1.98343   0.00000   1.003E+00   0.000E+00  -3.077E-03
 529  9.30749592   0.708  -1.99345   3.52756   6.88013   1.98329   0.00000   1.003E+00   0.000E+00  -3.082E-03
 530  9.31053980   0.708  -1.99335   3.52756   6.88010   1.98315   0.00000   1.003E+00   0.000E+00  -3.087E-03
 531  9.31356250   0.708  -1.99326   3.52756   6.88006   1.98302   0.00000   1.003E+00   0.000E+00  -3.091E-03
 532  9.31656431   0.708  -1.99317   3.52756   6.88002   1.98288   0.00000   1.003E+00   0.000E+00  -3.093E-03
 533  9.31954551   0.708  -1.99307   3.52756   6.87998   1.98274   0.00000   1.003E+00   0.000E+00  -3.095E-03
 534  9.32250639   0.708  -1.99298   3.52756   6.87994   1.98260   0.00000   1.003E+00   0.000E+00  -3.097E-03
 535  9.32544722   0.708  -1.99288   3.52756   6.87990   1.98246   0.00000   1.003E+00   0.000E+00  -3.099E-03
 536  9.32836827   0.708  -1.99279   3.52756   6.87987   1.98232   0.00000   1.003E+00   0.000E+00  -3.101E-03
 537  9.33126980   0.708  -1.99270   3.52756   6.87983   1.98218   0.00000   1.003E+00   0.000E+00  -3.104E-03
 538  9.33415208   0.708  -1.99260   3.52757   6.87979   1.98204   0.00000   1.003E+00   0.000E+00  -3.106E-03
 539  9.33701535   0.708  -1.99251   3.52757   6.87975   1.98190   0.00000   1.003E+00   0.000E+00  -3.108E-03
 540  9.33985987   0.708  -1.99241   3.52757   6.87971   1.98176   0.00000   1.003E+00   0.000E+00  -3.110E-03
 541  9.34268588   0.708  -1.99232   3.52757   6.87967   1.98162   0.00000   1.003E+00   0.000E+00  -3.112E-03
 542  9.34549362   0.708  -1.99222   3.52757   6.87963   1.98149   0.00000   1.003E+00   0.000E+00  -3.114E-03
 543  9.34828332   0.708  -1.99213   3.52757   6.87960   1.98135   0.00000   1.003E+00   0.000E+00  -3.116E-03
 544  9.35105522   0.708  -1.99204   3.52757   6.87956   1.98121   0.00000   1.003E+00   0.000E+00  -3.119E-03
 545  9.35380953   0.708  -1.99194   3.52757   6.87952   1.98107   0.00000   1.003E+00   0.000E+00  -3.120E-03
 546  9.35654649   0.708  -1.99185   3.52757   6.87948   1.98093   0.00000   1.003E+00   0.000E+00  -3.119E-03
 547  9.35926631   0.708  -1.99175   3.52757   6.87944   1.98079   0.00000   1.003E+00   0.000E+00  -3.118E-03
 548  9.36196921   0.708  -1.99166   3.52757   6.87940   1.98065   0.00000   1.003E+00   0.000E+00  -3.118E-03
 549  9.36465538   0.708  -1.99156   3.52757   6.87936   1.98051   0.00000   1.003E+00   0.000E+00  -3.117E-03
 550  9.36732504   0.708  -1.99147   3.52757   6.87932   1.98037   0.00000   1.003E+00   0.000E+00  -3.116E-03
 551  9.36997840   0.708  -1.99138   3.52757   6.87928   1.98023   0.00000   1.003E+00   0.000E+00  -3.116E-03
 552  9.37261563   0.708  -1.99128   3.52757   6.87924   1.98009   0.00000   1.003E+00   0.000E+00  -3.115E-03
 553  9.37523696   0.708  -1.99119   3.52757   6.87920   1.97995   0.00000   1.003E+00   0.000E+00  -3.114E-03
 554  9.37784255   0.708  -1.99109   3.52757   6.87916   1.97982   0.00000   1.003E+00   0.000E+00  -3.113E-03
 555  9.38043261   0.708  -1.99100   3.52757   6.87913   1.97968   0.00000   1.003E+00   0.000E+00  -3.113E-03
 556  9.38300731   0.708  -1.99091   3.52757   6.87909   1.97954   0.00000   1.003E+00   0.000E+00  -3.112E-03
 557  9.38556683   0.708  -1.99081   3.52757   6.87905   1.97940   0.00000   1.003E+00   0.000E+00  -3.111E-03
 558  9.38811136   0.708  -1.99072   3.52757   6.87901   1.97926   0.00000   1.003E+00   0.000E+00  -3.111E-03
 559  9.39064107   0.708  -1.99062   3.52757   6.87897   1.97912   0.00000   1.003E+00   0.000E+00  -3.109E-03
 560  9.39315613   0.708  -1.99053   3.52757   6.87893   1.97898   0.00000   1.003E+00   0.000E+00  -3.107E-03
 561  9.39565670   0.708  -1.99043   3.52757   6.87889   1.97884   0.00000   1.003E+00   0.000E+00  -3.105E-03
 562  9.39814297   0.708  -1.99034   3.52757   6.87885   1.97870   0.00000   1.003E+00   0.000E+00  -3.103E-03
 563  9.40061507   0.708  -1.99025   3.52757   6.87881   1.97857   0.00000   1.003E+00   0.000E+00  -3.101E-03
 564  9.40307319   0.708  -1.99015   3.52757   6.87878   1.97843   0.00000   1.003E+00   0.000E+00  -3.099E-03
 565  9.40551747   0.708  -1.99006   3.52757   6.87874   1.97829   0.00000   1.003E+00   0.000E+00  -3.097E-03
 566  9.40794808   0.708  -1.98996   3.52757   6.87870   1.97815   0.00000   1.003E+00   0.000E+00  -3.094E-03
 567  9.41036515   0.708  -1.98987   3.52757   6.87866   1.97801   0.00000   1.003E+00   0.000E+00  -3.092E-03
 568  9.41276885   0.708  -1.98977   3.52757   6.87862   1.97787   0.00000   1.003E+00   0.000E+00  -3.090E-03
 569  9.41515931   0.708  -1.98968   3.52757   6.87858   1.97773   0.00000   1.003E+00   0.000E+00  -3.088E-03
 570  9.41753669   0.708  -1.98959   3.52757   6.87854   1.97760   0.00000   1.003E+00   0.000E+00  -3.086E-03
 571  9.41990113   0.708  -1.98949   3.52757   6.87851   1.97746   0.00000   1.003E+00   0.000E+00  -3.084E-03
 572  9.42225276   0.708  -1.98940   3.52757   6.87847   1.97732   0.00000   1.003E+00   0.000E+00  -3.082E-03
 573  9.42459173   0.708  -1.98930   3.52757   6.87843   1.97718   0.00000   1.003E+00   0.000E+00  -3.079E-03
 574  9.42691817   0.708  -1.98921   3.52757   6.87839   1.97704   0.00000   1.003E+00   0.000E+00  -3.077E-03
 575  9.42923222   0.708  -1.98912   3.52757   6.87835   1.97690   0.00000   1.003E+00   0.000E+00  -3.075E-03
 576  9.43153400   0.708  -1.98903   3.52757   6.87831   1.97676   0.00000   1.003E+00   0.000E+00  -3.073E-03
 577  9.43382364   0.708  -1.98893   3.52757   6.87827   1.97662   0.00000   1.003E+00   0.000E+00  -3.071E-03
 578  9.43610127   0.708  -1.98884   3.52757   6.87822   1.97648   0.00000   1.003E+00   0.000E+00  -3.069E-03
 579  9.43836703   0.708  -1.98875   3.52757   6.87818   1.97634   0.00000   1.003E+00   0.000E+00  -3.067E-03
 580  9.44062102   0.708  -1.98865   3.52758   6.87814   1.97620   0.00000   1.003E+00   0.000E+00  -3.064E-03
 581  9.44286338   0.708  -1.98856   3.52758   6.87810   1.97605   0.00000   1.003E+00   0.000E+00  -3.062E-03
 582  9.44509421   0.708  -1.98847   3.52758   6.87806   1.97591   0.00000   1.003E+00   0.000E+00  -3.060E-03
 583  9.44731365   0.708  -1.98838   3.52758   6.87802   1.97577   0.00000   1.003E+00   0.000E+00  -3.058E-03
 584  9.44952180   0.708  -1.98828   3.52758   6.87798   1.97563   0.00000   1.003E+00   0.000E+00  -3.056E-03
 585  9.45171879   0.708  -1.98819   3.52758   6.87794   1.97549   0.00000   1.003E+00   0.000E+00  -3.054E-03
 586  9.45390471   0.708  -1.98810   3.52758   6.87790   1.97535   0.00000   1.003E+00   0.000E+00  -3.052E-03
 587  9.45607969   0.708  -1.98800   3.52758   6.87786   1.97521   0.00000   1.003E+00   0.000E+00  -3.048E-03
 588  9.45824382   0.708  -1.98791   3.52758   6.87782   1.97508   0.00000   1.003E+00   0.000E+00  -3.042E-03
 589  9.46039723   0.708  -1.98782   3.52758   6.87779   1.97494   0.00000   1.003E+00   0.000E+00  -3.035E-03
 590  9.46254001   0.707  -1.98773   3.52758   6.87775   1.97481   0.00000   1.003E+00   0.000E+00  -3.029E-03
 591  9.46467228   0.707  -1.98764   3.52758   6.87771   1.97468   0.00000   1.003E+00   0.000E+00  -3.023E-03
 592  9.46679412   0.707  -1.98755   3.52758   6.87767   1.97454   0.00000   1.003E+00   0.000E+00  -3.016E-03
 593  9.46890565   0.707  -1.98746   3.52758   6.87764   1.97441   0.00000   1.003E+00   0.000E+00  -3.010E-03
 594  9.47100696   0.707  -1.98736   3.52758   6.87760   1.97427   0.00000   1.003E+00   0.000E+00  -3.003E-03
 595  9.47309816   0.707  -1.98727   3.52758   6.87756   1.97414   0.00000   1.003E+00   0.000E+00  -2.997E-03
 596  9.47517933   0.707  -1.98718   3.52758   6.87753   1.97400   0.00000   1.003E+00   0.000E+00  -2.990E-03
 597  9.47725057   0.707  -1.98709   3.52758   6.87749   1.97387   0.00000   1.003E+00   0.000E+00  -2.984E-03
 598  9.47931199   0.707  -1.98700   3.52758   6.87745   1.97374   0.00000   1.003E+00   0.000E+00  -2.978E-03
 599  9.48136367   0.707  -1.98691   3.52758   6.87741   1.97360   0.00000   1.003E+00   0.000E+00  -2.971E-03
 600  9.48340570   0.707  -1.98682   3.52758   6.87738   1.97347   0.00000   1.003E+00   0.000E+00  -2.965E-03
 601  9.48543817   0.707  -1.98673   3.52758   6.87734   1.97333   0.00000   1.003E+00   0.000E+00  -2.958E-03
 602  9.48746118   0.707  -1.98664   3.52758   6.87730   1.97320   0.00000   1.003E+00   0.000E+00  -2.953E-03
 603  9.48947480   0.707  -1.98655   3.52758   6.87727   1.97307   0.00000   1.003E+00   0.000E+00  -2.947E-03
 604  9.49147914   0.707  -1.98646   3.52758   6.87723   1.97294   0.00000   1.003E+00   0.000E+00  -2.941E-03
 605  9.49347426   0.707  -1.98637   3.52758   6.87719   1.97281   0.00000   1.003E+00   0.000E+00  -2.936E-03
 606  9.49546026   0.707  -1.98628   3.52758   6.87715   1.97268   0.00000   1.003E+00   0.000E+00  -2.930E-03
 607  9.49743722   0.707  -1.98619   3.52758   6.87712   1.97255   0.00000   1.003E+00   0.000E+00  -2.924E-03
 608  9.49940523   0.707  -1.98611   3.52758   6.87708   1.97242   0.00000   1.003E+00   0.000E+00  -2.918E-03
 609  9.50136435   0.707  -1.98602   3.52758   6.87704   1.97228   0.00000   1.003E+00   0.000E+00  -2.913E-03
 610  9.50331468   0.707  -1.98593   3.52758   6.87701   1.97215   0.00000   1.003E+00   0.000E+00  -2.907E-03
 611  9.50525628   0.707  -1.98584   3.52758   6.87697   1.97202   0.00000   1.003E+00   0.000E+00  -2.901E-03
 612  9.50718925   0.707  -1.98575   3.52758   6.87693   1.97189   0.00000   1.003E+00   0.000E+00  -2.896E-03
 613  9.50911365   0.707  -1.98566   3.52758   6.87689   1.97176   0.00000   1.003E+00   0.000E+00  -2.890E-03
 614  9.51102956   0.707  -1.98558   3.52758   6.87686   1.97163   0.00000   1.003E+00   0.000E+00  -2.884E-03
 615  9.51293706   0.707  -1.98549   3.52758   6.87682   1.97150   0.00000   1.003E+00   0.000E+00  -2.879E-03
 616  9.51483621   0.707  -1.98540   3.52758   6.87678   1.97137   0.00000   1.003E+00   0.000E+00  -2.873E-03
 617  9.51672710   0.707  -1.98531   3.52758   6.87675   1.97124   0.00000   1.003E+00   0.000E+00  -2.867E-03
 618  9.51860978   0.707  -1.98523   3.52758   6.87671   1.97111   0.00000   1.003E+00   0.000E+00  -2.861E-03
 619  9.52048435   0.707  -1.98514   3.52758   6.87667   1.97098   0.00000   1.003E+00   0.000E+00  -2.856E-03
 620  9.52235085   0.707  -1.98505   3.52758   6.87664   1.97085   0.00000   1.003E+00   0.000E+00  -2.850E-03
 621  9.52420937   0.707  -1.98496   3.52758   6.87660   1.97073   0.00000   1.003E+00   0.000E+00  -2.844E-03
 622  9.52605997   0.707  -1.98488   3.52759   6.87657   1.97060   0.00000   1.003E+00   0.000E+00  -2.839E-03
 623  9.52790272   0.707  -1.98479   3.52759   6.87653   1.97047   0.00000   1.003E+00   0.000E+00  -2.833E-03
 624  9.52973768   0.707  -1.98470   3.52759   6.87649   1.97034   0.00000   1.003E+00   0.000E+00  -2.827E-03
 625  9.53156492   0.707  -1.98462   3.52759   6.87646   1.97021   0.00000   1.003E+00   0.000E+00  -2.821E-03
 626  9.53338450   0.707  -1.98453   3.52759   6.87642   1.97008   0.00000   1.003E+00   0.000E+00  -2.816E-03
 627  9.53519649   0.707  -1.98444   3.52759   6.87638   1.96995   0.00000   1.003E+00   0.000E+00  -2.810E-03
 628  9.53700096   0.707  -1.98435   3.52759   6.87635   1.96983   0.00000   1.003E+00   0.000E+00  -2.804E-03
 629  9.53879795   0.707  -1.98427   3.52759   6.87631   1.96970   0.00000   1.003E+00   0.000E+00  -2.798E-03
 630  9.54058755   0.707  -1.98418   3.52759   6.87628   1.96957   0.00000   1.003E+00   0.000E+00  -2.792E-03
 631  9.54236980   0.707  -1.98410   3.52759   6.87624   1.96945   0.00000   1.003E+00   0.000E+00  -2.786E-03
 632  9.54414476   0.707  -1.98402   3.52759   6.87621   1.96933   0.00000   1.003E+00   0.000E+00  -2.779E-03
 633  9.54591250   0.707  -1.98393   3.52759   6.87617   1.96920   0.00000   1.003E+00   0.000E+00  -2.773E-03
 634  9.54767307   0.707  -1.98385   3.52759   6.87614   1.96908   0.00000   1.003E+00   0.000E+00  -2.766E-03
 635  9.54942654   0.707  -1.98376   3.52759   6.87610   1.96895   0.00000   1.003E+00   0.000E+00  -2.760E-03
 636  9.55117295   0.707  -1.98368   3.52759   6.87607   1.96883   0.00000   1.003E+00   0.000E+00  -2.753E-03
 637  9.55291237   0.707  -1.98359   3.52759   6.87603   1.96870   0.00000   1.003E+00   0.000E+00  -2.747E-03
 638  9.55464485   0.707  -1.98351   3.52759   6.87600   1.96858   0.00000   1.003E+00   0.000E+00  -2.741E-03
 639  9.55637045   0.707  -1.98343   3.52759   6.87596   1.96846   0.00000   1.003E+00   0.000E+00  -2.734E-03
 640  9.55808922   0.707  -1.98334   3.52759   6.87593   1.96833   0.00000   1.003E+00   0.000E+00  -2.728E-03
 641  9.55980121   0.707  -1.98326   3.52759   6.87589   1.96821   0.00000   1.003E+00   0.000E+00  -2.721E-03
 642  9.56150648   0.707  -1.98317   3.52759   6.87586   1.96808   0.00000   1.003E+00   0.000E+00  -2.715E-03
 643  9.56320508   0.707  -1.98309   3.52759   6.87582   1.96796   0.00000   1.003E+00   0.000E+00  -2.708E-03
 644  9.56489706   0.707  -1.98301   3.52759   6.87579   1.96784   0.00000   1.003E+00   0.000E+00  -2.701E-03
 645  9.56658248   0.707  -1.98293   3.52759   6.87575   1.96772   0.00000   1.003E+00   0.000E+00  -2.694E-03
 646  9.56826138   0.707  -1.98284   3.52759   6.87572   1.96760   0.00000   1.003E+00   0.000E+00  -2.687E-03
 647  9.56993381   0.707  -1.98276   3.52759   6.87569   1.96748   0.00000   1.003E+00   0.000E+00  -2.680E-03
 648  9.57159983   0.707  -1.98268   3.52759   6.87565   1.96736   0.00000   1.003E+00   0.000E+00  -2.673E-03
 649  9.57325948   0.707  -1.98260   3.52759   6.87562   1.96724   0.00000   1.003E+00   0.000E+00  -2.665E-03
 650  9.57491282   0.707  -1.98252   3.52760   6.87559   1.96712   0.00000   1.003E+00   0.000E+00  -2.658E-03
 651  9.57655988   0.707  -1.98243   3.52760   6.87555   1.96700   0.00000   1.003E+00   0.000E+00  -2.651E-03
 652  9.57820073   0.707  -1.98235   3.52760   6.87552   1.96687   0.00000   1.003E+00   0.000E+00  -2.644E-03
 653  9.57983539   0.707  -1.98227   3.52760   6.87549   1.96675   0.00000   1.003E+00   0.000E+00  -2.637E-03
 654  9.58146393   0.707  -1.98219   3.52760   6.87545   1.96663   0.00000   1.003E+00   0.000E+00  -2.630E-03
 655  9.58308638   0.707  -1.98210   3.52760   6.87542   1.96651   0.00000   1.003E+00   0.000E+00  -2.623E-03
 656  9.58470279   0.707  -1.98202   3.52760   6.87539   1.96639   0.00000   1.003E+00   0.000E+00  -2.615E-03
 657  9.58631321   0.707  -1.98194   3.52760   6.87535   1.96627   0.00000   1.003E+00   0.000E+00  -2.609E-03
 658  9.58791768   0.707  -1.98186   3.52760   6.87532   1.96616   0.00000   1.003E+00   0.000E+00  -2.603E-03
 659  9.58951625   0.707  -1.98178   3.52760   6.87529   1.96604   0.00000   1.003E+00   0.000E+00  -2.597E-03
 660  9.59110895   0.707  -1.98170   3.52760   6.87525   1.96592   0.00000   1.003E+00   0.000E+00  -2.592E-03
 661  9.59269583   0.707  -1.98162   3.52760   6.87522   1.96581   0.00000   1.003E+00   0.000E+00  -2.586E-03
 662  9.59427693   0.707  -1.98154   3.52760   6.87519   1.96569   0.00000   1.003E+00   0.000E+00  -2.580E-03
 663  9.59585230   0.707  -1.98147   3.52760   6.87516   1.96557   0.00000   1.003E+00   0.000E+00  -2.574E-03
 664  9.59742198   0.707  -1.98139   3.52760   6.87512   1.96546   0.00000   1.003E+00   0.000E+00  -2.569E-03
 665  9.59898600   0.707  -1.98131   3.52760   6.87509   1.96534   0.00000   1.003E+00   0.000E+00  -2.563E-03
 666  9.60054441   0.707  -1.98123   3.52760   6.87506   1.96522   0.00000   1.003E+00   0.000E+00  -2.557E-03
 667  9.60209725   0.707  -1.98115   3.52760   6.87502   1.96511   0.00000   1.003E+00   0.000E+00  -2.552E-03
 668  9.60364455   0.707  -1.98107   3.52760   6.87499   1.96499   0.00000   1.003E+00   0.000E+00  -2.546E-03
 669  9.60518637   0.707  -1.98099   3.52760   6.87496   1.96488   0.00000   1.003E+00   0.000E+00  -2.540E-03
 670  9.60672272   0.707  -1.98091   3.52760   6.87493   1.96476   0.00000   1.003E+00   0.000E+00  -2.534E-03
 671  9.60825367   0.707  -1.98083   3.52760   6.87489   1.96464   0.00000   1.003E+00   0.000E+00  -2.529E-03
 672  9.60977923   0.707  -1.98076   3.52760   6.87486   1.96453   0.00000   1.003E+00   0.000E+00  -2.522E-03
 673  9.61129946   0.707  -1.98068   3.52760   6.87483   1.96442   0.00000   1.003E+00   0.000E+00  -2.516E-03
 674  9.61281438   0.707  -1.98060   3.52760   6.87480   1.96431   0.00000   1.003E+00   0.000E+00  -2.509E-03
 675  9.61432403   0.707  -1.98052   3.52760   6.87477   1.96419   0.00000   1.003E+00   0.000E+00  -2.503E-03
 676  9.61582846   0.707  -1.98045   3.52760   6.87474   1.96408   0.00000   1.003E+00   0.000E+00  -2.496E-03
 677  9.61732769   0.707  -1.98037   3.52760   6.87470   1.96397   0.00000   1.003E+00   0.000E+00  -2.490E-03
 678  9.61882176   0.707  -1.98029   3.52760   6.87467   1.96385   0.00000   1.002E+00   0.000E+00  -2.484E-03
 679  9.62031072   0.707  -1.98022   3.52760   6.87464   1.96374   0.00000   1.002E+00   0.000E+00  -2.477E-03
 680  9.62179458   0.707  -1.98014   3.52760   6.87461   1.96363   0.00000   1.002E+00   0.000E+00  -2.471E-03
 681  9.62327339   0.706  -1.98006   3.52760   6.87458   1.96352   0.00000   1.002E+00   0.000E+00  -2.464E-03
 682  9.62474719   0.706  -1.97998   3.52760   6.87455   1.96340   0.00000   1.002E+00   0.000E+00  -2.458E-03
 683  9.62621600   0.706  -1.97991   3.52760   6.87452   1.96329   0.00000   1.002E+00   0.000E+00  -2.451E-03
 684  9.62767986   0.706  -1.97983   3.52760   6.87448   1.96318   0.00000   1.002E+00   0.000E+00  -2.445E-03
 685  9.62913880   0.706  -1.97975   3.52760   6.87445   1.96307   0.00000   1.002E+00   0.000E+00  -2.439E-03
 686  9.63059285   0.706  -1.97968   3.52760   6.87442   1.96296   0.00000   1.002E+00   0.000E+00  -2.432E-03
 687  9.63204206   0.706  -1.97960   3.52760   6.87439   1.96285   0.00000   1.002E+00   0.000E+00  -2.426E-03
 688  9.63348644   0.706  -1.97953   3.52760   6.87436   1.96274   0.00000   1.002E+00   0.000E+00  -2.419E-03
 689  9.63492604   0.706  -1.97946   3.52760   6.87433   1.96263   0.00000   1.002E+00   0.000E+00  -2.413E-03
 690  9.63636088   0.706  -1.97938   3.52760   6.87430   1.96252   0.00000   1.002E+00   0.000E+00  -2.406E-03
 691  9.63779099   0.706  -1.97931   3.52760   6.87427   1.96241   0.00000   1.002E+00   0.000E+00  -2.400E-03
 692  9.63921641   0.706  -1.97923   3.52761   6.87424   1.96230   0.00000   1.002E+00   0.000E+00  -2.394E-03
 693  9.64063717   0.706  -1.97916   3.52761   6.87421   1.96219   0.00000   1.002E+00   0.000E+00  -2.387E-03
 694  9.64205330   0.706  -1.97909   3.52761   6.87418   1.96208   0.00000   1.002E+00   0.000E+00  -2.381E-03
 695  9.64346482   0.706  -1.97901   3.52761   6.87415   1.96197   0.00000   1.002E+00   0.000E+00  -2.374E-03
 696  9.64487177   0.706  -1.97894   3.52761   6.87412   1.96186   0.00000   1.002E+00   0.000E+00  -2.368E-03
 697  9.64627418   0.706  -1.97886   3.52761   6.87409   1.96175   0.00000   1.002E+00   0.000E+00  -2.361E-03
 698  9.64767207   0.706  -1.97879   3.52761   6.87406   1.96165   0.00000   1.002E+00   0.000E+00  -2.355E-03
 699  9.64906548   0.706  -1.97871   3.52761   6.87403   1.96154   0.00000   1.002E+00   0.000E+00  -2.349E-03
 700  9.65045443   0.706  -1.97864   3.52761   6.87400   1.96143   0.00000   1.002E+00   0.000E+00  -2.342E-03
 701  9.65183896   0.706  -1.97857   3.52761   6.87398   1.96133   0.00000   1.002E+00   0.000E+00  -2.336E-03
 702  9.65321908   0.706  -1.97850   3.52761   6.87395   1.96122   0.00000   1.002E+00   0.000E+00  -2.329E-03
 703  9.65459483   0.706  -1.97843   3.52761   6.87392   1.96111   0.00000   1.002E+00   0.000E+00  -2.323E-03
 704  9.65596624   0.706  -1.97835   3.52761   6.87389   1.96101   0.00000   1.002E+00   0.000E+00  -2.316E-03
 705  9.65733333   0.706  -1.97828   3.52761   6.87386   1.96090   0.00000   1.002E+00   0.000E+00  -2.310E-03
 706  9.65869613   0.706  -1.97821   3.52761   6.87383   1.96080   0.00000   1.002E+00   0.000E+00  -2.304E-03
 707  9.66005467   0.706  -1.97814   3.52761   6.87380   1.96069   0.00000   1.002E+00   0.000E+00  -2.297E-03
 708  9.66140897   0.706  -1.97807   3.52761   6.87377   1.96059   0.00000   1.002E+00   0.000E+00  -2.291E-03
 709  9.66275906   0.706  -1.97799   3.52761   6.87374   1.96048   0.00000   1.002E+00   0.000E+00  -2.284E-03
 710  9.66410497   0.706  -1.97792   3.52761   6.87371   1.96037   0.00000   1.002E+00   0.000E+00  -2.278E-03
 711  9.66544671   0.706  -1.97785   3.52761   6.87368   1.96027   0.00000   1.002E+00   0.000E+00  -2.272E-03
 712  9.66678433   0.706  -1.97778   3.52761   6.87365   1.96016   0.00000   1.002E+00   0.000E+00  -2.265E-03
 713  9.66811784   0.706  -1.97771   3.52761   6.87362   1.96006   0.00000   1.002E+00   0.000E+00  -2.259E-03
 714  9.66944727   0.706  -1.97764   3.52761   6.87360   1.95996   0.00000   1.002E+00   0.000E+00  -2.253E-03
 715  9.67077264   0.706  -1.97757   3.52761   6.87357   1.95985   0.00000   1.002E+00   0.000E+00  -2.247E-03
 716  9.67209397   0.706  -1.97750   3.52761   6.87354   1.95975   0.00000   1.002E+00   0.000E+00  -2.242E-03
 717  9.67341130   0.706  -1.97743   3.52761   6.87351   1.95965   0.00000   1.002E+00   0.000E+00  -2.236E-03
 718  9.67472465   0.706  -1.97736   3.52761   6.87348   1.95955   0.00000   1.002E+00   0.000E+00  -2.230E-03
 719  9.67603404   0.706  -1.97729   3.52761   6.87345   1.95945   0.00000   1.002E+00   0.000E+00  -2.225E-03
 720  9.67733949   0.706  -1.97722   3.52762   6.87342   1.95934   0.00000   1.002E+00   0.000E+00  -2.219E-03
 721  9.67864102   0.706  -1.97715   3.52762   6.87340   1.95924   0.00000   1.002E+00   0.000E+00  -2.213E-03
 722  9.67993867   0.706  -1.97708   3.52762   6.87337   1.95914   0.00000   1.002E+00   0.000E+00  -2.207E-03
 723  9.68123246   0.706  -1.97701   3.52762   6.87334   1.95904   0.00000   1.002E+00   0.000E+00  -2.202E-03
 724  9.68252240   0.706  -1.97694   3.52762   6.87331   1.95894   0.00000   1.002E+00   0.000E+00  -2.196E-03
 725  9.68380852   0.706  -1.97687   3.52762   6.87328   1.95883   0.00000   1.002E+00   0.000E+00  -2.190E-03
 726  9.68509084   0.706  -1.97680   3.52762   6.87325   1.95873   0.00000   1.002E+00   0.000E+00  -2.185E-03
 727  9.68636939   0.706  -1.97673   3.52762   6.87322   1.95863   0.00000   1.002E+00   0.000E+00  -2.179E-03
 728  9.68764418   0.706  -1.97666   3.52762   6.87320   1.95853   0.00000   1.002E+00   0.000E+00  -2.173E-03
 729  9.68891525   0.706  -1.97659   3.52762   6.87317   1.95843   0.00000   1.002E+00   0.000E+00  -2.167E-03
 730  9.69018260   0.706  -1.97653   3.52762   6.87314   1.95833   0.00000   1.002E+00   0.000E+00  -2.162E-03
 731  9.69144627   0.706  -1.97646   3.52762   6.87312   1.95824   0.00000   1.002E+00   0.000E+00  -2.156E-03
 732  9.69270627   0.706  -1.97639   3.52762   6.87309   1.95814   0.00000   1.002E+00   0.000E+00  -2.150E-03
 733  9.69396262   0.706  -1.97632   3.52762   6.87306   1.95804   0.00000   1.002E+00   0.000E+00  -2.145E-03
 734  9.69521536   0.706  -1.97626   3.52762   6.87303   1.95794   0.00000   1.002E+00   0.000E+00  -2.139E-03
 735  9.69646448   0.706  -1.97619   3.52762   6.87301   1.95784   0.00000   1.002E+00   0.000E+00  -2.133E-03
 736  9.69771003   0.706  -1.97612   3.52762   6.87298   1.95774   0.00000   1.002E+00   0.000E+00  -2.127E-03
 737  9.69895201   0.706  -1.97606   3.52762   6.87295   1.95765   0.00000   1.002E+00   0.000E+00  -2.122E-03
 738  9.70019046   0.706  -1.97599   3.52762   6.87293   1.95755   0.00000   1.002E+00   0.000E+00  -2.116E-03
 739  9.70142538   0.706  -1.97592   3.52762   6.87290   1.95745   0.00000   1.002E+00   0.000E+00  -2.110E-03
 740  9.70265680   0.706  -1.97585   3.52762   6.87287   1.95735   0.00000   1.002E+00   0.000E+00  -2.105E-03
 741  9.70388473   0.706  -1.97579   3.52762   6.87284   1.95725   0.00000   1.002E+00   0.000E+00  -2.099E-03
 742  9.70510921   0.706  -1.97572   3.52762   6.87282   1.95716   0.00000   1.002E+00   0.000E+00  -2.093E-03
 743  9.70633024   0.706  -1.97566   3.52762   6.87279   1.95706   0.00000   1.002E+00   0.000E+00  -2.087E-03
 744  9.70754785   0.706  -1.97559   3.52762   6.87277   1.95697   0.00000   1.002E+00   0.000E+00  -2.082E-03
 745  9.70876206   0.706  -1.97552   3.52762   6.87274   1.95687   0.00000   1.002E+00   0.000E+00  -2.076E-03
 746  9.70997288   0.706  -1.97546   3.52762   6.87271   1.95678   0.00000   1.002E+00   0.000E+00  -2.070E-03
 747  9.71118033   0.706  -1.97539   3.52762   6.87269   1.95668   0.00000   1.002E+00   0.000E+00  -2.065E-03
 748  9.71238444   0.706  -1.97533   3.52762   6.87266   1.95659   0.00000   1.002E+00   0.000E+00  -2.059E-03
 749  9.71358521   0.706  -1.97526   3.52762   6.87263   1.95649   0.00000   1.002E+00   0.000E+00  -2.053E-03
 750  9.71478268   0.706  -1.97520   3.52762   6.87261   1.95640   0.00000   1.002E+00   0.000E+00  -2.047E-03
 751  9.71597685   0.706  -1.97513   3.52762   6.87258   1.95630   0.00000   1.002E+00   0.000E+00  -2.042E-03
 752  9.71716775   0.706  -1.97506   3.52762   6.87255   1.95621   0.00000   1.002E+00   0.000E+00  -2.036E-03
 753  9.71835539   0.706  -1.97500   3.52762   6.87253   1.95611   0.00000   1.002E+00   0.000E+00  -2.030E-03
 754  9.71953980   0.706  -1.97493   3.52762   6.87250   1.95602   0.00000   1.002E+00   0.000E+00  -2.025E-03
 755  9.72072098   0.706  -1.97487   3.52762   6.87248   1.95592   0.00000   1.002E+00   0.000E+00  -2.019E-03
 756  9.72189896   0.706  -1.97481   3.52762   6.87245   1.95583   0.00000   1.002E+00   0.000E+00  -2.014E-03
 757  9.72307375   0.706  -1.97474   3.52762   6.87242   1.95574   0.00000   1.002E+00   0.000E+00  -2.009E-03
 758  9.72424537   0.706  -1.97468   3.52762   6.87240   1.95565   0.00000   1.002E+00   0.000E+00  -2.004E-03
 759  9.72541384   0.706  -1.97462   3.52762   6.87237   1.95555   0.00000   1.002E+00   0.000E+00  -1.999E-03
 760  9.72657917   0.706  -1.97455   3.52762   6.87235   1.95546   0.00000   1.002E+00   0.000E+00  -1.994E-03
 761  9.72774139   0.706  -1.97449   3.52762   6.87232   1.95537   0.00000   1.002E+00   0.000E+00  -1.989E-03
 762  9.72890050   0.706  -1.97443   3.52763   6.87230   1.95528   0.00000   1.002E+00   0.000E+00  -1.984E-03
 763  9.73005653   0.706  -1.97437   3.52763   6.87227   1.95519   0.00000   1.002E+00   0.000E+00  -1.979E-03
 764  9.73120949   0.706  -1.97430   3.52763   6.87224   1.95509   0.00000   1.002E+00   0.000E+00  -1.974E-03
 765  9.73235940   0.706  -1.97424   3.52763   6.87222   1.95500   0.00000   1.002E+00   0.000E+00  -1.969E-03
 766  9.73350627   0.706  -1.97418   3.52763   6.87219   1.95491   0.00000   1.002E+00   0.000E+00  -1.964E-03
 767  9.73465012   0.706  -1.97411   3.52763   6.87217   1.95482   0.00000   1.002E+00   0.000E+00  -1.959E-03
 768  9.73579096   0.706  -1.97405   3.52763   6.87214   1.95473   0.00000   1.002E+00   0.000E+00  -1.954E-03
 769  9.73692882   0.706  -1.97399   3.52763   6.87212   1.95463   0.00000   1.002E+00   0.000E+00  -1.949E-03
 770  9.73806370   0.706  -1.97393   3.52763   6.87209   1.95454   0.00000   1.002E+00   0.000E+00  -1.944E-03
 771  9.73919563   0.706  -1.97387   3.52763   6.87207   1.95446   0.00000   1.002E+00   0.000E+00  -1.939E-03
 772  9.74032461   0.706  -1.97380   3.52763   6.87204   1.95437   0.00000   1.002E+00   0.000E+00  -1.934E-03
 773  9.74145066   0.706  -1.97374   3.52763   6.87202   1.95428   0.00000   1.002E+00   0.000E+00  -1.929E-03
 774  9.74257380   0.706  -1.97368   3.52763   6.87199   1.95419   0.00000   1.002E+00   0.000E+00  -1.924E-03
 775  9.74369405   0.706  -1.97362   3.52763   6.87197   1.95410   0.00000   1.002E+00   0.000E+00  -1.919E-03
 776  9.74481141   0.706  -1.97356   3.52763   6.87195   1.95401   0.00000   1.002E+00   0.000E+00  -1.914E-03
 777  9.74592591   0.706  -1.97350   3.52763   6.87192   1.95392   0.00000   1.002E+00   0.000E+00  -1.909E-03
 778  9.74703755   0.706  -1.97344   3.52763   6.87190   1.95383   0.00000   1.002E+00   0.000E+00  -1.904E-03
 779  9.74814636   0.706  -1.97338   3.52763   6.87187   1.95374   0.00000   1.002E+00   0.000E+00  -1.899E-03
 780  9.74925234   0.706  -1.97331   3.52763   6.87185   1.95365   0.00000   1.002E+00   0.000E+00  -1.894E-03
 781  9.75035551   0.705  -1.97325   3.52763   6.87182   1.95356   0.00000   1.002E+00   0.000E+00  -1.889E-03
 782  9.75145589   0.705  -1.97319   3.52763   6.87180   1.95347   0.00000   1.002E+00   0.000E+00  -1.884E-03
 783  9.75255348   0.705  -1.97313   3.52763   6.87178   1.95339   0.00000   1.002E+00   0.000E+00  -1.879E-03
 784  9.75364831   0.705  -1.97307   3.52763   6.87175   1.95330   0.00000   1.002E+00   0.000E+00  -1.874E-03
 785  9.75474039   0.705  -1.97301   3.52763   6.87173   1.95321   0.00000   1.002E+00   0.000E+00  -1.869E-03
 786  9.75582972   0.705  -1.97295   3.52763   6.87171   1.95313   0.00000   1.002E+00   0.000E+00  -1.864E-03
 787  9.75691633   0.705  -1.97289   3.52763   6.87168   1.95304   0.00000   1.002E+00   0.000E+00  -1.859E-03
 788  9.75800023   0.705  -1.97283   3.52763   6.87166   1.95296   0.00000   1.002E+00   0.000E+00  -1.854E-03
 789  9.75908143   0.705  -1.97277   3.52763   6.87163   1.95287   0.00000   1.002E+00   0.000E+00  -1.849E-03
 790  9.76015995   0.705  -1.97272   3.52764   6.87161   1.95279   0.00000   1.002E+00   0.000E+00  -1.844E-03
 791  9.76123579   0.705  -1.97266   3.52764   6.87159   1.95270   0.00000   1.002E+00   0.000E+00  -1.839E-03
 792  9.76230898   0.705  -1.97260   3.52764   6.87156   1.95261   0.00000   1.002E+00   0.000E+00  -1.834E-03
 793  9.76337952   0.705  -1.97254   3.52764   6.87154   1.95253   0.00000   1.002E+00   0.000E+00  -1.829E-03
 794  9.76444743   0.705  -1.97248   3.52764   6.87152   1.95244   0.00000   1.002E+00   0.000E+00  -1.824E-03
 795  9.76551271   0.705  -1.97242   3.52764   6.87149   1.95236   0.00000   1.002E+00   0.000E+00  -1.819E-03
 796  9.76657540   0.705  -1.97236   3.52764   6.87147   1.95227   0.00000   1.002E+00   0.000E+00  -1.814E-03
 797  9.76763548   0.705  -1.97230   3.52764   6.87145   1.95219   0.00000   1.002E+00   0.000E+00  -1.809E-03
 798  9.76869299   0.705  -1.97224   3.52764   6.87142   1.95210   0.00000   1.002E+00   0.000E+00  -1.805E-03
 799  9.76974793   0.705  -1.97219   3.52764   6.87140   1.95202   0.00000   1.002E+00   0.000E+00  -1.801E-03
 800  9.77080031   0.705  -1.97213   3.52764   6.87138   1.95194   0.00000   1.002E+00   0.000E+00  -1.796E-03
 801  9.77185014   0.705  -1.97207   3.52764   6.87135   1.95185   0.00000   1.002E+00   0.000E+00  -1.792E-03
 802  9.77289745   0.705  -1.97202   3.52764   6.87133   1.95177   0.00000   1.002E+00   0.000E+00  -1.788E-03
 803  9.77394224   0.705  -1.97196   3.52764   6.87131   1.95169   0.00000   1.002E+00   0.000E+00  -1.784E-03
 804  9.77498451   0.705  -1.97190   3.52764   6.87129   1.95160   0.00000   1.002E+00   0.000E+00  -1.779E-03
 805  9.77602430   0.705  -1.97184   3.52764   6.87126   1.95152   0.00000   1.002E+00   0.000E+00  -1.775E-03
 806  9.77706160   0.705  -1.97179   3.52764   6.87124   1.95143   0.00000   1.002E+00   0.000E+00  -1.771E-03
 807  9.77809642   0.705  -1.97173   3.52764   6.87122   1.95135   0.00000   1.002E+00   0.000E+00  -1.766E-03
 808  9.77912879   0.705  -1.97167   3.52764   6.87120   1.95127   0.00000   1.002E+00   0.000E+00  -1.762E-03
 809  9.78015871   0.705  -1.97162   3.52764   6.87117   1.95118   0.00000   1.002E+00   0.000E+00  -1.758E-03
 810  9.78118620   0.705  -1.97156   3.52764   6.87115   1.95110   0.00000   1.002E+00   0.000E+00  -1.754E-03
 811  9.78221125   0.705  -1.97150   3.52764   6.87113   1.95102   0.00000   1.002E+00   0.000E+00  -1.749E-03
 812  9.78323390   0.705  -1.97145   3.52764   6.87111   1.95094   0.00000   1.002E+00   0.000E+00  -1.745E-03
 813  9.78425414   0.705  -1.97139   3.52764   6.87108   1.95086   0.00000   1.002E+00   0.000E+00  -1.741E-03
 814  9.78527199   0.705  -1.97133   3.52764   6.87106   1.95078   0.00000   1.002E+00   0.000E+00  -1.736E-03
 815  9.78628746   0.705  -1.97128   3.52764   6.87104   1.95070   0.00000   1.002E+00   0.000E+00  -1.732E-03
 816  9.78730056   0.705  -1.97122   3.52764   6.87102   1.95062   0.00000   1.002E+00   0.000E+00  -1.728E-03
 817  9.78831131   0.705  -1.97117   3.52764   6.87100   1.95054   0.00000   1.002E+00   0.000E+00  -1.724E-03
 818  9.78931970   0.705  -1.97111   3.52764   6.87098   1.95046   0.00000   1.002E+00   0.000E+00  -1.719E-03
 819  9.79032576   0.705  -1.97106   3.52764   6.87096   1.95038   0.00000   1.002E+00   0.000E+00  -1.715E-03
 820  9.79132950   0.705  -1.97100   3.52764   6.87093   1.95030   0.00000   1.002E+00   0.000E+00  -1.711E-03
 821  9.79233092   0.705  -1.97094   3.52764   6.87091   1.95022   0.00000   1.002E+00   0.000E+00  -1.707E-03
 822  9.79333004   0.705  -1.97089   3.52764   6.87089   1.95014   0.00000   1.002E+00   0.000E+00  -1.702E-03
 823  9.79432686   0.705  -1.97083   3.52764   6.87087   1.95006   0.00000   1.002E+00   0.000E+00  -1.698E-03
 824  9.79532141   0.705  -1.97078   3.52764   6.87085   1.94998   0.00000   1.002E+00   0.000E+00  -1.694E-03
 825  9.79631368   0.705  -1.97072   3.52764   6.87083   1.94990   0.00000   1.002E+00   0.000E+00  -1.689E-03
 826  9.79730368   0.705  -1.97067   3.52764   6.87081   1.94982   0.00000   1.002E+00   0.000E+00  -1.685E-03
 827  9.79829144   0.705  -1.97062   3.52764   6.87078   1.94974   0.00000   1.002E+00   0.000E+00  -1.681E-03
 828  9.79927695   0.705  -1.97056   3.52764   6.87076   1.94966   0.00000   1.002E+00   0.000E+00  -1.677E-03
 829  9.80026024   0.705  -1.97051   3.52764   6.87074   1.94958   0.00000   1.002E+00   0.000E+00  -1.672E-03
 830  9.80124130   0.705  -1.97045   3.52764   6.87072   1.94951   0.00000   1.002E+00   0.000E+00  -1.668E-03
 831  9.80222015   0.705  -1.97040   3.52764   6.87070   1.94943   0.00000   1.002E+00   0.000E+00  -1.664E-03
 832  9.80319680   0.705  -1.97035   3.52765   6.87068   1.94935   0.00000   1.002E+00   0.000E+00  -1.659E-03
 833  9.80417126   0.705  -1.97029   3.52765   6.87066   1.94927   0.00000   1.002E+00   0.000E+00  -1.655E-03
 834  9.80514353   0.705  -1.97024   3.52765   6.87063   1.94919   0.00000   1.002E+00   0.000E+00  -1.651E-03
 835  9.80611364   0.705  -1.97019   3.52765   6.87061   1.94911   0.00000   1.002E+00   0.000E+00  -1.647E-03
 836  9.80708158   0.705  -1.97013   3.52765   6.87059   1.94903   0.00000   1.002E+00   0.000E+00  -1.642E-03
 837  9.80804737   0.705  -1.97008   3.52765   6.87057   1.94896   0.00000   1.002E+00   0.000E+00  -1.638E-03
 838  9.80901102   0.705  -1.97003   3.52765   6.87055   1.94888   0.00000   1.002E+00   0.000E+00  -1.634E-03
 839  9.80997253   0.705  -1.96997   3.52765   6.87053   1.94880   0.00000   1.002E+00   0.000E+00  -1.629E-03
 840  9.81093192   0.705  -1.96992   3.52765   6.87051   1.94872   0.00000   1.002E+00   0.000E+00  -1.625E-03
 841  9.81188919   0.705  -1.96987   3.52765   6.87049   1.94865   0.00000   1.002E+00   0.000E+00  -1.621E-03
 842  9.81284436   0.705  -1.96982   3.52765   6.87047   1.94857   0.00000   1.002E+00   0.000E+00  -1.617E-03
 843  9.81379744   0.705  -1.96976   3.52765   6.87044   1.94850   0.00000   1.002E+00   0.000E+00  -1.612E-03
 844  9.81474842   0.705  -1.96971   3.52765   6.87042   1.94842   0.00000   1.002E+00   0.000E+00  -1.608E-03
 845  9.81569733   0.705  -1.96966   3.52765   6.87040   1.94835   0.00000   1.002E+00   0.000E+00  -1.604E-03
 846  9.81664417   0.705  -1.96961   3.52765   6.87038   1.94827   0.00000   1.002E+00   0.000E+00  -1.599E-03
 847  9.81758895   0.705  -1.96956   3.52765   6.87036   1.94820   0.00000   1.002E+00   0.000E+00  -1.595E-03
 848  9.81853168   0.705  -1.96950   3.52765   6.87034   1.94812   0.00000   1.002E+00   0.000E+00  -1.591E-03
 849  9.81947237   0.705  -1.96945   3.52765   6.87032   1.94805   0.00000   1.002E+00   0.000E+00  -1.587E-03
 850  9.82041102   0.705  -1.96940   3.52765   6.87030   1.94798   0.00000   1.002E+00   0.000E+00  -1.582E-03
 851  9.82134765   0.705  -1.96935   3.52765   6.87028   1.94790   0.00000   1.002E+00   0.000E+00  -1.578E-03
 852  9.82228226   0.705  -1.96930   3.52765   6.87026   1.94783   0.00000   1.002E+00   0.000E+00  -1.574E-03
 853  9.82321487   0.705  -1.96924   3.52765   6.87024   1.94775   0.00000   1.002E+00   0.000E+00  -1.570E-03
 854  9.82414548   0.705  -1.96919   3.52765   6.87022   1.94768   0.00000   1.002E+00   0.000E+00  -1.566E-03
 855  9.82507410   0.705  -1.96914   3.52765   6.87020   1.94760   0.00000   1.002E+00   0.000E+00  -1.562E-03
 856  9.82600073   0.705  -1.96909   3.52765   6.87018   1.94753   0.00000   1.002E+00   0.000E+00  -1.559E-03
 857  9.82692540   0.705  -1.96904   3.52765   6.87016   1.94746   0.00000   1.002E+00   0.000E+00  -1.555E-03
 858  9.82784810   0.705  -1.96899   3.52765   6.87014   1.94739   0.00000   1.002E+00   0.000E+00  -1.552E-03
 859  9.82876884   0.705  -1.96894   3.52765   6.87012   1.94731   0.00000   1.002E+00   0.000E+00  -1.548E-03
 860  9.82968764   0.705  -1.96889   3.52766   6.87010   1.94724   0.00000   1.002E+00   0.000E+00  -1.545E-03
 861  9.83060449   0.705  -1.96884   3.52766   6.87008   1.94717   0.00000   1.002E+00   0.000E+00  -1.541E-03
 862  9.83151942   0.705  -1.96879   3.52766   6.87006   1.94710   0.00000   1.002E+00   0.000E+00  -1.537E-03
 863  9.83243242   0.705  -1.96874   3.52766   6.87004   1.94702   0.00000   1.002E+00   0.000E+00  -1.534E-03
 864  9.83334350   0.705  -1.96869   3.52766   6.87003   1.94695   0.00000   1.002E+00   0.000E+00  -1.530E-03
 865  9.83425268   0.705  -1.96864   3.52766   6.87001   1.94688   0.00000   1.002E+00   0.000E+00  -1.527E-03
 866  9.83515996   0.705  -1.96858   3.52766   6.86999   1.94680   0.00000   1.002E+00   0.000E+00  -1.523E-03
 867  9.83606535   0.705  -1.96853   3.52766   6.86997   1.94673   0.00000   1.002E+00   0.000E+00  -1.520E-03
 868  9.83696885   0.705  -1.96849   3.52766   6.86995   1.94666   0.00000   1.002E+00   0.000E+00  -1.516E-03
 869  9.83787048   0.705  -1.96844   3.52766   6.86993   1.94659   0.00000   1.002E+00   0.000E+00  -1.512E-03
 870  9.83877024   0.705  -1.96839   3.52766   6.86991   1.94652   0.00000   1.002E+00   0.000E+00  -1.509E-03
 871  9.83966814   0.705  -1.96834   3.52766   6.86989   1.94645   0.00000   1.002E+00   0.000E+00  -1.505E-03
 872  9.84056419   0.705  -1.96829   3.52766   6.86987   1.94638   0.00000   1.002E+00   0.000E+00  -1.502E-03
 873  9.84145839   0.705  -1.96824   3.52766   6.86985   1.94631   0.00000   1.002E+00   0.000E+00  -1.498E-03
 874  9.84235076   0.705  -1.96819   3.52766   6.86983   1.94624   0.00000   1.001E+00   0.000E+00  -1.495E-03
 875  9.84324129   0.705  -1.96815   3.52766   6.86981   1.94617   0.00000   1.001E+00   0.000E+00  -1.491E-03
 876  9.84413000   0.705  -1.96810   3.52766   6.86979   1.94610   0.00000   1.001E+00   0.000E+00  -1.487E-03
 877  9.84501690   0.705  -1.96805   3.52766   6.86977   1.94602   0.00000   1.001E+00   0.000E+00  -1.484E-03
 878  9.84590199   0.705  -1.96800   3.52766   6.86976   1.94595   0.00000   1.001E+00   0.000E+00  -1.480E-03
 879  9.84678528   0.705  -1.96795   3.52766   6.86974   1.94588   0.00000   1.001E+00   0.000E+00  -1.477E-03
 880  9.84766678   0.705  -1.96790   3.52766   6.86972   1.94581   0.00000   1.001E+00   0.000E+00  -1.473E-03
 881  9.84854649   0.705  -1.96785   3.52766   6.86970   1.94574   0.00000   1.001E+00   0.000E+00  -1.470E-03
 882  9.84942443   0.705  -1.96781   3.52766   6.86968   1.94567   0.00000   1.001E+00   0.000E+00  -1.468E-03
 883  9.85030059   0.705  -1.96776   3.52766   6.86965   1.94559   0.00000   1.001E+00   0.000E+00  -1.467E-03
 884  9.85117499   0.705  -1.96771   3.52766   6.86963   1.94552   0.00000   1.001E+00   0.000E+00  -1.466E-03
 885  9.85204763   0.705  -1.96766   3.52766   6.86961   1.94544   0.00000   1.001E+00   0.000E+00  -1.464E-03
 886  9.85291852   0.705  -1.96761   3.52766   6.86959   1.94537   0.00000   1.001E+00   0.000E+00  -1.463E-03
 887  9.85378767   0.705  -1.96756   3.52766   6.86957   1.94530   0.00000   1.001E+00   0.000E+00  -1.461E-03
 888  9.85465508   0.705  -1.96751   3.52767   6.86955   1.94522   0.00000   1.001E+00   0.000E+00  -1.460E-03
 889  9.85552076   0.705  -1.96747   3.52767   6.86953   1.94515   0.00000   1.001E+00   0.000E+00  -1.458E-03
 890  9.85638473   0.705  -1.96742   3.52767   6.86950   1.94507   0.00000   1.001E+00   0.000E+00  -1.457E-03
 891  9.85724697   0.705  -1.96737   3.52767   6.86948   1.94500   0.00000   1.001E+00   0.000E+00  -1.456E-03
 892  9.85810751   0.704  -1.96732   3.52767   6.86946   1.94492   0.00000   1.001E+00   0.000E+00  -1.454E-03
 893  9.85896635   0.704  -1.96727   3.52767   6.86944   1.94485   0.00000   1.001E+00   0.000E+00  -1.453E-03
 894  9.85982349   0.704  -1.96722   3.52767   6.86942   1.94478   0.00000   1.001E+00   0.000E+00  -1.451E-03
 895  9.86067894   0.704  -1.96717   3.52767   6.86940   1.94470   0.00000   1.001E+00   0.000E+00  -1.449E-03
 896  9.86153271   0.704  -1.96713   3.52767   6.86938   1.94464   0.00000   1.001E+00   0.000E+00  -1.444E-03
 897  9.86238481   0.704  -1.96708   3.52767   6.86936   1.94457   0.00000   1.001E+00   0.000E+00  -1.439E-03
 898  9.86323523   0.704  -1.96704   3.52767   6.86934   1.94450   0.00000   1.001E+00   0.000E+00  -1.434E-03
 899  9.86408400   0.704  -1.96699   3.52767   6.86933   1.94444   0.00000   1.001E+00   0.000E+00  -1.429E-03
 900  9.86493111   0.704  -1.96694   3.52767   6.86931   1.94437   0.00000   1.001E+00   0.000E+00  -1.424E-03
 901  9.86577657   0.704  -1.96690   3.52767   6.86929   1.94430   0.00000   1.001E+00   0.000E+00  -1.419E-03
 902  9.86662039   0.704  -1.96685   3.52767   6.86927   1.94424   0.00000   1.001E+00   0.000E+00  -1.414E-03
 903  9.86746257   0.704  -1.96680   3.52767   6.86926   1.94417   0.00000   1.001E+00   0.000E+00  -1.409E-03
 904  9.86830312   0.704  -1.96676   3.52767   6.86924   1.94411   0.00000   1.001E+00   0.000E+00  -1.404E-03
 905  9.86914205   0.704  -1.96671   3.52767   6.86922   1.94404   0.00000   1.001E+00   0.000E+00  -1.399E-03
 906  9.86997936   0.704  -1.96666   3.52767   6.86920   1.94397   0.00000   1.001E+00   0.000E+00  -1.394E-03
 907  9.87081506   0.704  -1.96662   3.52767   6.86918   1.94391   0.00000   1.001E+00   0.000E+00  -1.389E-03
 908  9.87164915   0.704  -1.96657   3.52767   6.86917   1.94384   0.00000   1.001E+00   0.000E+00  -1.384E-03
 909  9.87248165   0.704  -1.96653   3.52767   6.86915   1.94377   0.00000   1.001E+00   0.000E+00  -1.380E-03
 910  9.87331255   0.704  -1.96648   3.52767   6.86913   1.94371   0.00000   1.001E+00   0.000E+00  -1.376E-03
 911  9.87414186   0.704  -1.96644   3.52767   6.86911   1.94364   0.00000   1.001E+00   0.000E+00  -1.373E-03
 912  9.87496960   0.704  -1.96639   3.52767   6.86910   1.94358   0.00000   1.001E+00   0.000E+00  -1.369E-03
 913  9.87579576   0.704  -1.96635   3.52767   6.86908   1.94351   0.00000   1.001E+00   0.000E+00  -1.365E-03
 914  9.87662035   0.704  -1.96630   3.52767   6.86906   1.94345   0.00000   1.001E+00   0.000E+00  -1.362E-03
 915  9.87744338   0.704  -1.96626   3.52767   6.86905   1.94338   0.00000   1.001E+00   0.000E+00  -1.358E-03
 916  9.87826485   0.704  -1.96622   3.52768   6.86903   1.94332   0.00000   1.001E+00   0.000E+00  -1.355E-03
 917  9.87908478   0.704  -1.96617   3.52768   6.86901   1.94325   0.00000   1.001E+00   0.000E+00  -1.351E-03
 918  9.87990315   0.704  -1.96613   3.52768   6.86899   1.94319   0.00000   1.001E+00   0.000E+00  -1.348E-03
 919  9.88071999   0.704  -1.96608   3.52768   6.86898   1.94312   0.00000   1.001E+00   0.000E+00  -1.344E-03
 920  9.88153529   0.704  -1.96604   3.52768   6.86896   1.94306   0.00000   1.001E+00   0.000E+00  -1.340E-03
 921  9.88234907   0.704  -1.96599   3.52768   6.86894   1.94299   0.00000   1.001E+00   0.000E+00  -1.337E-03
 922  9.88316132   0.704  -1.96595   3.52768   6.86893   1.94293   0.00000   1.001E+00   0.000E+00  -1.333E-03
 923  9.88397206   0.704  -1.96591   3.52768   6.86891   1.94286   0.00000   1.001E+00   0.000E+00  -1.330E-03
 924  9.88478129   0.704  -1.96586   3.52768   6.86889   1.94280   0.00000   1.001E+00   0.000E+00  -1.327E-03
 925  9.88558901   0.704  -1.96582   3.52768   6.86888   1.94274   0.00000   1.001E+00   0.000E+00  -1.324E-03
 926  9.88639523   0.704  -1.96578   3.52768   6.86886   1.94268   0.00000   1.001E+00   0.000E+00  -1.321E-03
 927  9.88719996   0.704  -1.96573   3.52768   6.86884   1.94261   0.00000   1.001E+00   0.000E+00  -1.318E-03
 928  9.88800320   0.704  -1.96569   3.52768   6.86883   1.94255   0.00000   1.001E+00   0.000E+00  -1.315E-03
 929  9.88880496   0.704  -1.96564   3.52768   6.86881   1.94249   0.00000   1.001E+00   0.000E+00  -1.313E-03
 930  9.88960524   0.704  -1.96560   3.52768   6.86879   1.94242   0.00000   1.001E+00   0.000E+00  -1.310E-03
 931  9.89040405   0.704  -1.96556   3.52768   6.86878   1.94236   0.00000   1.001E+00   0.000E+00  -1.307E-03
 932  9.89120139   0.704  -1.96551   3.52768   6.86876   1.94230   0.00000   1.001E+00   0.000E+00  -1.304E-03
 933  9.89199727   0.704  -1.96547   3.52768   6.86874   1.94224   0.00000   1.001E+00   0.000E+00  -1.301E-03
 934  9.89279170   0.704  -1.96543   3.52768   6.86873   1.94217   0.00000   1.001E+00   0.000E+00  -1.298E-03
 935  9.89358467   0.704  -1.96538   3.52768   6.86871   1.94211   0.00000   1.001E+00   0.000E+00  -1.295E-03
 936  9.89437620   0.704  -1.96534   3.52768   6.86870   1.94205   0.00000   1.001E+00   0.000E+00  -1.293E-03
 937  9.89516629   0.704  -1.96530   3.52768   6.86868   1.94198   0.00000   1.001E+00   0.000E+00  -1.290E-03
 938  9.89595494   0.704  -1.96525   3.52768   6.86866   1.94192   0.00000   1.001E+00   0.000E+00  -1.287E-03
 939  9.89674217   0.704  -1.96521   3.52768   6.86865   1.94186   0.00000   1.001E+00   0.000E+00  -1.284E-03
 940  9.89752797   0.704  -1.96517   3.52768   6.86863   1.94180   0.00000   1.001E+00   0.000E+00  -1.281E-03
 941  9.89831235   0.704  -1.96513   3.52768   6.86862   1.94174   0.00000   1.001E+00   0.000E+00  -1.278E-03
 942  9.89909531   0.704  -1.96508   3.52768   6.86860   1.94168   0.00000   1.001E+00   0.000E+00  -1.275E-03
 943  9.89987687   0.704  -1.96504   3.52768   6.86858   1.94162   0.00000   1.001E+00   0.000E+00  -1.273E-03
 944  9.90065703   0.704  -1.96500   3.52769   6.86857   1.94156   0.00000   1.001E+00   0.000E+00  -1.270E-03
 945  9.90143578   0.704  -1.96495   3.52769   6.86855   1.94150   0.00000   1.001E+00   0.000E+00  -1.267E-03
 946  9.90221314   0.704  -1.96491   3.52769   6.86854   1.94144   0.00000   1.001E+00   0.000E+00  -1.264E-03
 947  9.90298911   0.704  -1.96487   3.52769   6.86852   1.94138   0.00000   1.001E+00   0.000E+00  -1.261E-03
 948  9.90376370   0.704  -1.96483   3.52769   6.86851   1.94132   0.00000   1.001E+00   0.000E+00  -1.258E-03
 949  9.90453691   0.704  -1.96478   3.52769   6.86849   1.94126   0.00000   1.001E+00   0.000E+00  -1.255E-03
 950  9.90530874   0.704  -1.96474   3.52769   6.86847   1.94120   0.00000   1.001E+00   0.000E+00  -1.253E-03
 951  9.90607921   0.704  -1.96470   3.52769   6.86846   1.94114   0.00000   1.001E+00   0.000E+00  -1.250E-03
 952  9.90684831   0.704  -1.96466   3.52769   6.86844   1.94108   0.00000   1.001E+00   0.000E+00  -1.247E-03
 953  9.90761605   0.704  -1.96462   3.52769   6.86843   1.94102   0.00000   1.001E+00   0.000E+00  -1.244E-03
 954  9.90838244   0.704  -1.96457   3.52769   6.86841   1.94096   0.00000   1.001E+00   0.000E+00  -1.241E-03
 955  9.90914748   0.704  -1.96453   3.52769   6.86840   1.94090   0.00000   1.001E+00   0.000E+00  -1.238E-03
 956  9.90991117   0.704  -1.96449   3.52769   6.86838   1.94084   0.00000   1.001E+00   0.000E+00  -1.236E-03
 957  9.91067352   0.704  -1.96445   3.52769   6.86836   1.94078   0.00000   1.001E+00   0.000E+00  -1.233E-03
 958  9.91143453   0.704  -1.96441   3.52769   6.86835   1.94072   0.00000   1.001E+00   0.000E+00  -1.230E-03
 959  9.91219422   0.704  -1.96437   3.52769   6.86833   1.94066   0.00000   1.001E+00   0.000E+00  -1.227E-03
 960  9.91295257   0.704  -1.96433   3.52769   6.86832   1.94060   0.00000   1.001E+00   0.000E+00  -1.224E-03
 961  9.91370961   0.704  -1.96429   3.52769   6.86830   1.94054   0.00000   1.001E+00   0.000E+00  -1.221E-03
 962  9.91446533   0.704  -1.96425   3.52769   6.86829   1.94048   0.00000   1.001E+00   0.000E+00  -1.218E-03
 963  9.91521973   0.704  -1.96421   3.52769   6.86827   1.94042   0.00000   1.001E+00   0.000E+00  -1.216E-03
 964  9.91597283   0.704  -1.96417   3.52769   6.86825   1.94037   0.00000   1.001E+00   0.000E+00  -1.213E-03
 965  9.91672462   0.704  -1.96413   3.52769   6.86824   1.94031   0.00000   1.001E+00   0.000E+00  -1.210E-03
 966  9.91747512   0.704  -1.96409   3.52769   6.86822   1.94025   0.00000   1.001E+00   0.000E+00  -1.207E-03
 967  9.91822432   0.704  -1.96405   3.52769   6.86821   1.94019   0.00000   1.001E+00   0.000E+00  -1.204E-03
 968  9.91897222   0.704  -1.96401   3.52769   6.86819   1.94013   0.00000   1.001E+00   0.000E+00  -1.201E-03
 969  9.91971885   0.704  -1.96397   3.52769   6.86818   1.94008   0.00000   1.001E+00   0.000E+00  -1.198E-03
 970  9.92046419   0.704  -1.96393   3.52769   6.86816   1.94002   0.00000   1.001E+00   0.000E+00  -1.196E-03
 971  9.92120826   0.704  -1.96389   3.52769   6.86815   1.93996   0.00000   1.001E+00   0.000E+00  -1.193E-03
 972  9.92195105   0.704  -1.96385   3.52770   6.86813   1.93991   0.00000   1.001E+00   0.000E+00  -1.190E-03
 973  9.92269257   0.704  -1.96381   3.52770   6.86812   1.93985   0.00000   1.001E+00   0.000E+00  -1.187E-03
 974  9.92343283   0.704  -1.96377   3.52770   6.86810   1.93979   0.00000   1.001E+00   0.000E+00  -1.184E-03
 975  9.92417183   0.704  -1.96373   3.52770   6.86809   1.93973   0.00000   1.001E+00   0.000E+00  -1.181E-03
 976  9.92490958   0.704  -1.96369   3.52770   6.86807   1.93968   0.00000   1.001E+00   0.000E+00  -1.178E-03
 977  9.92564607   0.704  -1.96365   3.52770   6.86806   1.93962   0.00000   1.001E+00   0.000E+00  -1.176E-03
 978  9.92638132   0.704  -1.96361   3.52770   6.86804   1.93956   0.00000   1.001E+00   0.000E+00  -1.173E-03
 979  9.92711532   0.704  -1.96357   3.52770   6.86803   1.93951   0.00000   1.001E+00   0.000E+00  -1.170E-03
 980  9.92784809   0.704  -1.96353   3.52770   6.86801   1.93945   0.00000   1.001E+00   0.000E+00  -1.167E-03
 981  9.92857962   0.704  -1.96349   3.52770   6.86800   1.93940   0.00000   1.001E+00   0.000E+00  -1.164E-03
 982  9.92930992   0.704  -1.96345   3.52770   6.86799   1.93934   0.00000   1.001E+00   0.000E+00  -1.161E-03
 983  9.93003900   0.704  -1.96341   3.52770   6.86797   1.93928   0.00000   1.001E+00   0.000E+00  -1.158E-03
 984  9.93076685   0.704  -1.96337   3.52770   6.86796   1.93923   0.00000   1.001E+00   0.000E+00  -1.156E-03
 985  9.93149349   0.704  -1.96334   3.52770   6.86794   1.93917   0.00000   1.001E+00   0.000E+00  -1.153E-03
 986  9.93221891   0.704  -1.96330   3.52770   6.86793   1.93912   0.00000   1.001E+00   0.000E+00  -1.150E-03
 987  9.93294313   0.704  -1.96326   3.52770   6.86791   1.93906   0.00000   1.001E+00   0.000E+00  -1.147E-03
 988  9.93366613   0.704  -1.96322   3.52770   6.86790   1.93901   0.00000   1.001E+00   0.000E+00  -1.144E-03
 989  9.93438794   0.704  -1.96318   3.52770   6.86789   1.93895   0.00000   1.001E+00   0.000E+00  -1.141E-03
 990  9.93510855   0.704  -1.96314   3.52770   6.86787   1.93889   0.00000   1.001E+00   0.000E+00  -1.138E-03
 991  9.93582796   0.704  -1.96311   3.52770   6.86786   1.93884   0.00000   1.001E+00   0.000E+00  -1.136E-03
 992  9.93654618   0.704  -1.96307   3.52770   6.86784   1.93878   0.00000   1.001E+00   0.000E+00  -1.133E-03
 993  9.93726322   0.704  -1.96303   3.52770   6.86783   1.93873   0.00000   1.001E+00   0.000E+00  -1.130E-03
 994  9.93797908   0.704  -1.96299   3.52770   6.86781   1.93867   0.00000   1.001E+00   0.000E+00  -1.128E-03
 995  9.93869376   0.704  -1.96295   3.52770   6.86780   1.93862   0.00000   1.001E+00   0.000E+00  -1.126E-03
 996  9.93940726   0.704  -1.96291   3.52770   6.86779   1.93856   0.00000   1.001E+00   0.000E+00  -1.123E-03
 997  9.94011960   0.704  -1.96288   3.52770   6.86777   1.93851   0.00000   1.001E+00   0.000E+00  -1.121E-03
 998  9.94083076   0.704  -1.96284   3.52770   6.86776   1.93846   0.00000   1.001E+00   0.000E+00  -1.119E-03
 999  9.94154077   0.704  -1.96280   3.52770   6.86774   1.93840   0.00000   1.001E+00   0.000E+00  -1.117E-03
1000  9.94224962   0.704  -1.96276   3.52770   6.86773   1.93835   0.00000   1.001E+00   0.000E+00  -1.115E-03
1001  9.94295731   0.704  -1.96273   3.52770   6.86772   1.93829   0.00000   1.001E+00   0.000E+00  -1.113E-03
1002  9.94366385   0.704  -1.96269   3.52770   6.86770   1.93824   0.00000   1.001E+00   0.000E+00  -1.111E-03
1003  9.94436924   0.704  -1.96265   3.52770   6.86769   1.93818   0.00000   1.001E+00   0.000E+00  -1.108E-03
1004  9.94507349   0.704  -1.96261   3.52770   6.86767   1.93813   0.00000   1.001E+00   0.000E+00  -1.106E-03
1005  9.94577659   0.704  -1.96257   3.52770   6.86766   1.93808   0.00000   1.001E+00   0.000E+00  -1.104E-03
1006  9.94647857   0.704  -1.96254   3.52770   6.86764   1.93802   0.00000   1.001E+00   0.000E+00  -1.102E-03
1007  9.94717941   0.704  -1.96250   3.52770   6.86763   1.93797   0.00000   1.001E+00   0.000E+00  -1.100E-03
1008  9.94787912   0.704  -1.96246   3.52770   6.86762   1.93792   0.00000   1.001E+00   0.000E+00  -1.098E-03
1009  9.94857770   0.704  -1.96242   3.52770   6.86760   1.93786   0.00000   1.001E+00   0.000E+00  -1.096E-03
1010  9.94927516   0.704  -1.96239   3.52770   6.86759   1.93781   0.00000   1.001E+00   0.000E+00  -1.093E-03
1011  9.94997151   0.704  -1.96235   3.52770   6.86758   1.93776   0.00000   1.001E+00   0.000E+00  -1.091E-03
1012  9.95066673   0.704  -1.96231   3.52770   6.86756   1.93771   0.00000   1.001E+00   0.000E+00  -1.089E-03
1013  9.95136085   0.703  -1.96228   3.52770   6.86755   1.93765   0.00000   1.001E+00   0.000E+00  -1.087E-03
1014  9.95205386   0.703  -1.96224   3.52771   6.86753   1.93760   0.00000   1.001E+00   0.000E+00  -1.085E-03
1015  9.95274577   0.703  -1.96220   3.52771   6.86752   1.93755   0.00000   1.001E+00   0.000E+00  -1.083E-03
1016  9.95343658   0.703  -1.96216   3.52771   6.86751   1.93750   0.00000   1.001E+00   0.000E+00  -1.081E-03
1017  9.95412628   0.703  -1.96213   3.52771   6.86749   1.93745   0.00000   1.001E+00   0.000E+00  -1.078E-03
1018  9.95481490   0.703  -1.96209   3.52771   6.86748   1.93739   0.00000   1.001E+00   0.000E+00  -1.076E-03
1019  9.95550242   0.703  -1.96205   3.52771   6.86747   1.93734   0.00000   1.001E+00   0.000E+00  -1.074E-03
1020  9.95618886   0.703  -1.96202   3.52771   6.86745   1.93729   0.00000   1.001E+00   0.000E+00  -1.072E-03
1021  9.95687422   0.703  -1.96198   3.52771   6.86744   1.93724   0.00000   1.001E+00   0.000E+00  -1.070E-03
1022  9.95755849   0.703  -1.96194   3.52771   6.86743   1.93719   0.00000   1.001E+00   0.000E+00  -1.068E-03
1023  9.95824169   0.703  -1.96191   3.52771   6.86741   1.93714   0.00000   1.001E+00   0.000E+00  -1.066E-03
1024  9.95892382   0.703  -1.96187   3.52771   6.86740   1.93709   0.00000   1.001E+00   0.000E+00  -1.063E-03
1025  9.95960487   0.703  -1.96184   3.52771   6.86739   1.93704   0.00000   1.001E+00   0.000E+00  -1.061E-03
1026  9.96028486   0.703  -1.96180   3.52771   6.86737   1.93698   0.00000   1.001E+00   0.000E+00  -1.059E-03
1027  9.96096379   0.703  -1.96176   3.52771   6.86736   1.93693   0.00000   1.001E+00   0.000E+00  -1.057E-03
1028  9.96164166   0.703  -1.96173   3.52771   6.86734   1.93688   0.00000   1.001E+00   0.000E+00  -1.055E-03
1029  9.96231847   0.703  -1.96169   3.52771   6.86733   1.93683   0.00000   1.001E+00   0.000E+00  -1.053E-03
1030  9.96299423   0.703  -1.96166   3.52771   6.86732   1.93678   0.00000   1.001E+00   0.000E+00  -1.051E-03
1031  9.96366893   0.703  -1.96162   3.52771   6.86730   1.93673   0.00000   1.001E+00   0.000E+00  -1.049E-03
1032  9.96434259   0.703  -1.96159   3.52771   6.86729   1.93668   0.00000   1.001E+00   0.000E+00  -1.046E-03
1033  9.96501521   0.703  -1.96155   3.52771   6.86728   1.93663   0.00000   1.001E+00   0.000E+00  -1.044E-03
1034  9.96568679   0.703  -1.96151   3.52771   6.86726   1.93658   0.00000   1.001E+00   0.000E+00  -1.042E-03
1035  9.96635733   0.703  -1.96148   3.52771   6.86725   1.93653   0.00000   1.001E+00   0.000E+00  -1.040E-03
1036  9.96702684   0.703  -1.96144   3.52771   6.86724   1.93648   0.00000   1.001E+00   0.000E+00  -1.038E-03
1037  9.96769531   0.703  -1.96141   3.52771   6.86723   1.93643   0.00000   1.001E+00   0.000E+00  -1.036E-03
1038  9.96836276   0.703  -1.96138   3.52771   6.86721   1.93638   0.00000   1.001E+00   0.000E+00  -1.034E-03
1039  9.96902919   0.703  -1.96134   3.52771   6.86720   1.93633   0.00000   1.001E+00   0.000E+00  -1.031E-03
1040  9.96969459   0.703  -1.96131   3.52771   6.86719   1.93628   0.00000   1.001E+00   0.000E+00  -1.029E-03
1041  9.97035898   0.703  -1.96127   3.52771   6.86718   1.93623   0.00000   1.001E+00   0.000E+00  -1.027E-03
1042  9.97102235   0.703  -1.96124   3.52772   6.86716   1.93618   0.00000   1.001E+00   0.000E+00  -1.025E-03
1043  9.97168471   0.703  -1.96120   3.52772   6.86715   1.93613   0.00000   1.001E+00   0.000E+00  -1.023E-03
1044  9.97234606   0.703  -1.96117   3.52772   6.86714   1.93608   0.00000   1.001E+00   0.000E+00  -1.021E-03
1045  9.97300640   0.703  -1.96114   3.52772   6.86713   1.93603   0.00000   1.001E+00   0.000E+00  -1.019E-03
1046  9.97366575   0.703  -1.96110   3.52772   6.86712   1.93598   0.00000   1.001E+00   0.000E+00  -1.016E-03
1047  9.97432409   0.703  -1.96107   3.52772   6.86710   1.93593   0.00000   1.001E+00   0.000E+00  -1.014E-03
1048  9.97498144   0.703  -1.96103   3.52772   6.86709   1.93588   0.00000   1.001E+00   0.000E+00  -1.012E-03
1049  9.97563779   0.703  -1.96100   3.52772   6.86708   1.93583   0.00000   1.001E+00   0.000E+00  -1.010E-03
1050  9.97629315   0.703  -1.96096   3.52772   6.86707   1.93578   0.00000   1.001E+00   0.000E+00  -1.008E-03
1051  9.97694753   0.703  -1.96093   3.52772   6.86705   1.93573   0.00000   1.001E+00   0.000E+00  -1.005E-03
1052  9.97760092   0.703  -1.96090   3.52772   6.86704   1.93569   0.00000   1.001E+00   0.000E+00  -1.003E-03
1053  9.97825333   0.703  -1.96086   3.52772   6.86703   1.93564   0.00000   1.001E+00   0.000E+00  -1.001E-03
1054  9.97890476   0.703  -1.96083   3.52772   6.86702   1.93559   0.00000   1.001E+00   0.000E+00  -9.982E-04
1055  9.97955521   0.703  -1.96079   3.52772   6.86700   1.93554   0.00000   1.001E+00   0.000E+00  -9.958E-04
1056  9.98020469   0.703  -1.96076   3.52772   6.86699   1.93549   0.00000   1.001E+00   0.000E+00  -9.935E-04
1057  9.98085321   0.703  -1.96073   3.52772   6.86698   1.93545   0.00000   1.001E+00   0.000E+00  -9.911E-04
1058  9.98150075   0.703  -1.96069   3.52772   6.86696   1.93540   0.00000   1.001E+00   0.000E+00  -9.887E-04
1059  9.98214733   0.703  -1.96066   3.52772   6.86695   1.93535   0.00000   1.001E+00   0.000E+00  -9.864E-04
1060  9.98279295   0.703  -1.96062   3.52772   6.86694   1.93530   0.00000   1.001E+00   0.000E+00  -9.840E-04
1061  9.98343761   0.703  -1.96059   3.52772   6.86693   1.93525   0.00000   1.001E+00   0.000E+00  -9.817E-04
1062  9.98408132   0.703  -1.96055   3.52772   6.86691   1.93521   0.00000   1.001E+00   0.000E+00  -9.793E-04
1063  9.98472407   0.703  -1.96052   3.52772   6.86690   1.93516   0.00000   1.001E+00   0.000E+00  -9.770E-04
1064  9.98536588   0.703  -1.96048   3.52772   6.86689   1.93511   0.00000   1.001E+00   0.000E+00  -9.801E-04
1065  9.98600673   0.703  -1.96045   3.52772   6.86687   1.93506   0.00000   1.001E+00   0.000E+00  -9.832E-04
1066  9.98664665   0.703  -1.96041   3.52772   6.86686   1.93501   0.00000   1.001E+00   0.000E+00  -9.863E-04
1067  9.98728562   0.703  -1.96038   3.52772   6.86685   1.93496   0.00000   1.001E+00   0.000E+00  -9.893E-04
1068  9.98792365   0.703  -1.96034   3.52772   6.86684   1.93491   0.00000   1.001E+00   0.000E+00  -9.924E-04
1069  9.98856075   0.703  -1.96031   3.52772   6.86682   1.93486   0.00000   1.001E+00   0.000E+00  -9.955E-04
1070  9.98919691   0.703  -1.96027   3.52773   6.86681   1.93480   0.00000   1.001E+00   0.000E+00  -9.985E-04
1071  9.98983214   0.703  -1.96024   3.52773   6.86680   1.93475   0.00000   1.001E+00   0.000E+00  -1.002E-03
1072  9.99046645   0.703  -1.96020   3.52773   6.86678   1.93470   0.00000   1.001E+00   0.000E+00  -1.005E-03
1073  9.99109983   0.703  -1.96017   3.52773   6.86677   1.93465   0.00000   1.001E+00   0.000E+00  -1.008E-03
1074  9.99173228   0.703  -1.96013   3.52773   6.86676   1.93460   0.00000   1.001E+00   0.000E+00  -1.011E-03
1075  9.99236382   0.703  -1.96010   3.52773   6.86675   1.93455   0.00000   1.001E+00   0.000E+00  -1.014E-03
1076  9.99299444   0.703  -1.96006   3.52773   6.86673   1.93450   0.00000   1.001E+00   0.000E+00  -1.017E-03
1077  9.99362415   0.703  -1.96003   3.52773   6.86672   1.93445   0.00000   1.001E+00   0.000E+00  -1.020E-03
1078  9.99425294   0.703  -1.95999   3.52773   6.86671   1.93440   0.00000   1.001E+00   0.000E+00  -1.019E-03
1079  9.99488083   0.703  -1.95996   3.52773   6.86669   1.93435   0.00000   1.001E+00   0.000E+00  -1.017E-03
1080  9.99550781   0.703  -1.95992   3.52773   6.86668   1.93430   0.00000   1.001E+00   0.000E+00  -1.016E-03
1081  9.99613388   0.703  -1.95989   3.52773   6.86667   1.93425   0.00000   1.001E+00   0.000E+00  -1.014E-03
1082  9.99675905   0.703  -1.95985   3.52773   6.86666   1.93420   0.00000   1.001E+00   0.000E+00  -1.013E-03
1083  9.99738333   0.703  -1.95982   3.52773   6.86664   1.93415   0.00000   1.001E+00   0.000E+00  -1.011E-03
1084  9.99800671   0.703  -1.95978   3.52773   6.86663   1.93410   0.00000   1.001E+00   0.000E+00  -1.010E-03
1085  9.99862919   0.703  -1.95975   3.52773   6.86662   1.93406   0.00000   1.001E+00   0.000E+00  -1.009E-03
1086  9.99925079   0.703  -1.95971   3.52773   6.86660   1.93401   0.00000   1.001E+00   0.000E+00  -1.007E-03
1087  9.99987149   0.703  -1.95968   3.52773   6.86659   1.93396   0.00000   1.001E+00   0.000E+00  -1.006E-03
1088 10.00049131   0.703  -1.95964   3.52773   6.86658   1.93391   0.00000   1.001E+00   0.000E+00  -1.004E-03
1089 10.00111025   0.703  -1.95961   3.52773   6.86657   1.93386   0.00000   1.001E+00   0.000E+00  -1.003E-03
1090 10.00172831   0.703  -1.95957   3.52773   6.86655   1.93381   0.00000   1.001E+00   0.000E+00  -1.001E-03
1091 10.00234549   0.703  -1.95954   3.52773   6.86654   1.93376   0.00000   1.001E+00   0.000E+00  -1.000E-03
