 # M = 0.35 Mo, Y = 0.2880, Z = 2.00000E-02, alpha = 1.68, X_D = 4.0E-05
 # Solar Mixture: Asplund et al. (2005)         
 # ------------------------------------------------------------------------------------------------------------
 # NMD   LOG AGE    Xc      LOG L     LOG TE    LOG Tc   LOG RHOc    M-CC       L-PP       L-CNO       L-GRA
 #        (yr)              (Lo)        (K)       (K)   (gr/cm^3)    (Mo)        (L)         (L)         (L)
 # ------------------------------------------------------------------------------------------------------------
   1  5.09904211   0.692   0.05315   3.55497   6.02006  -0.79585   0.00000   9.840E-01   0.000E+00   1.570E-02
   2  5.32663524   0.692   0.04445   3.55475   6.02379  -0.78466   0.00000   9.441E-01   0.000E+00   5.584E-02
   3  5.47520209   0.692   0.03531   3.55452   6.02772  -0.77284   0.00000   9.397E-01   0.000E+00   6.046E-02
   4  5.58569556   0.692   0.02698   3.55433   6.03132  -0.76204   0.00000   9.429E-01   0.000E+00   5.725E-02
   5  5.67370201   0.692   0.01950   3.55413   6.03451  -0.75246   0.00000   9.461E-01   0.000E+00   5.396E-02
   6  5.74684450   0.692   0.01250   3.55394   6.03747  -0.74356   0.00000   9.495E-01   0.000E+00   5.061E-02
   7  5.80942589   0.692   0.00564   3.55375   6.04038  -0.73481   0.00000   9.521E-01   0.000E+00   4.802E-02
   8  5.86411475   0.692  -0.00081   3.55358   6.04314  -0.72652   0.00000   9.524E-01   0.000E+00   4.771E-02
   9  5.91268073   0.692  -0.00726   3.55340   6.04590  -0.71823   0.00000   9.528E-01   0.000E+00   4.739E-02
  10  5.95635783   0.692  -0.01377   3.55322   6.04867  -0.70992   0.00000   9.526E-01   0.000E+00   4.761E-02
  11  5.99604094   0.692  -0.02036   3.55303   6.05144  -0.70158   0.00000   9.517E-01   0.000E+00   4.864E-02
  12  6.03239969   0.692  -0.02695   3.55283   6.05421  -0.69324   0.00000   9.507E-01   0.000E+00   4.967E-02
  13  6.06594827   0.692  -0.03372   3.55263   6.05706  -0.68467   0.00000   9.491E-01   0.000E+00   5.120E-02
  14  6.09709009   0.692  -0.04091   3.55241   6.06009  -0.67558   0.00000   9.462E-01   0.000E+00   5.390E-02
  15  6.12614746   0.692  -0.04810   3.55220   6.06311  -0.66649   0.00000   9.432E-01   0.000E+00   5.660E-02
  16  6.15338201   0.692  -0.05558   3.55197   6.06625  -0.65705   0.00000   9.398E-01   0.000E+00   5.987E-02
  17  6.17900900   0.692  -0.06387   3.55171   6.06972  -0.64662   0.00000   9.351E-01   0.000E+00   6.476E-02
  18  6.20320768   0.692  -0.07217   3.55145   6.07319  -0.63619   0.00000   9.304E-01   0.000E+00   6.965E-02
  19  6.22612888   0.692  -0.08127   3.55115   6.07699  -0.62479   0.00000   9.238E-01   0.000E+00   7.629E-02
  20  6.24790076   0.692  -0.09124   3.55083   6.08113  -0.61232   0.00000   9.151E-01   0.000E+00   8.484E-02
  21  6.26863308   0.692  -0.10137   3.55049   6.08534  -0.59966   0.00000   9.060E-01   0.000E+00   9.383E-02
  22  6.28842062   0.692  -0.11362   3.55008   6.09041  -0.58439   0.00000   8.910E-01   0.000E+00   1.089E-01
  23  6.30734573   0.692  -0.12604   3.54966   6.09556  -0.56889   0.00000   8.754E-01   0.000E+00   1.246E-01
  24  6.32548048   0.692  -0.14120   3.54914   6.10184  -0.54999   0.00000   8.497E-01   0.000E+00   1.503E-01
  25  6.34288823   0.692  -0.15788   3.54857   6.10875  -0.52923   0.00000   8.171E-01   0.000E+00   1.829E-01
  26  6.35962504   0.692  -0.17700   3.54791   6.11666  -0.50545   0.00000   7.729E-01   0.000E+00   2.271E-01
  27  6.37574071   0.692  -0.19971   3.54714   6.12611  -0.47707   0.00000   7.073E-01   0.000E+00   2.927E-01
  28  6.39127970   0.692  -0.22690   3.54622   6.13743  -0.44302   0.00000   6.120E-01   0.000E+00   3.880E-01
  29  6.40628185   0.692  -0.25845   3.54521   6.15067  -0.40317   0.00000   4.873E-01   0.000E+00   5.127E-01
  30  6.42078304   0.692  -0.29396   3.54412   6.16573  -0.35793   0.00000   3.431E-01   0.000E+00   6.569E-01
  31  6.43481563   0.692  -0.33175   3.54307   6.18193  -0.30920   0.00000   2.061E-01   0.000E+00   7.938E-01
  32  6.44840897   0.692  -0.36877   3.54213   6.19809  -0.26067   0.00000   1.340E-01   0.000E+00   8.660E-01
  33  6.46158972   0.692  -0.40257   3.54135   6.21293  -0.21603   0.00000   1.003E-01   0.000E+00   8.997E-01
  34  6.47438219   0.692  -0.43373   3.54068   6.22671  -0.17454   0.00000   7.105E-02   0.000E+00   9.289E-01
  35  6.48680861   0.692  -0.46257   3.54013   6.23956  -0.13586   0.00000   4.800E-02   0.000E+00   9.520E-01
  36  6.49888934   0.692  -0.48902   3.53965   6.25145  -0.10004   0.00000   3.174E-02   0.000E+00   9.683E-01
  37  6.51064309   0.692  -0.51354   3.53924   6.26251  -0.06668   0.00000   2.062E-02   0.000E+00   9.794E-01
  38  6.52208711   0.692  -0.53632   3.53888   6.27285  -0.03553   0.00000   1.298E-02   0.000E+00   9.870E-01
  39  6.53323729   0.692  -0.55752   3.53857   6.28250  -0.00642   0.00000   8.143E-03   0.000E+00   9.919E-01
  40  6.54410835   0.692  -0.57722   3.53830   6.29153   0.02079   0.00000   4.968E-03   0.000E+00   9.950E-01
  41  6.55471392   0.692  -0.59569   3.53806   6.30001   0.04636   0.00000   3.000E-03   0.000E+00   9.970E-01
  42  6.57277783   0.692  -0.62538   3.53771   6.31371   0.08772   0.00000   1.414E-03   0.000E+00   9.986E-01
  43  6.59012031   0.692  -0.65250   3.53741   6.32629   0.12570   0.00000   9.646E-04   0.000E+00   9.990E-01
  44  6.60679676   0.692  -0.67703   3.53718   6.33772   0.16020   0.00000   0.000E+00   0.000E+00   1.000E+00
  45  6.62285647   0.692  -0.69967   3.53698   6.34832   0.19219   0.00000   0.000E+00   0.000E+00   1.000E+00
  46  6.63834343   0.692  -0.72064   3.53682   6.35818   0.22197   0.00000   0.000E+00   0.000E+00   1.000E+00
  47  6.65329708   0.692  -0.74016   3.53668   6.36738   0.24976   0.00000   0.000E+00   0.000E+00   1.000E+00
  48  6.66775294   0.692  -0.75836   3.53657   6.37600   0.27581   0.00000   0.000E+00   0.000E+00   1.000E+00
  49  6.68174308   0.692  -0.77546   3.53647   6.38411   0.30033   0.00000   0.000E+00   0.000E+00   1.000E+00
  50  6.69529659   0.692  -0.79158   3.53639   6.39179   0.32352   0.00000   0.000E+00   0.000E+00   1.000E+00
  51  6.70843988   0.692  -0.80684   3.53633   6.39907   0.34555   0.00000   0.000E+00   0.000E+00   1.000E+00
  52  6.72119707   0.692  -0.82139   3.53628   6.40603   0.36659   0.00000   0.000E+00   0.000E+00   1.000E+00
  53  6.73359018   0.692  -0.83506   3.53623   6.41259   0.38645   0.00000   0.000E+00   0.000E+00   1.000E+00
  54  6.74563944   0.692  -0.84810   3.53620   6.41886   0.40542   0.00000   0.000E+00   0.000E+00   1.000E+00
  55  6.75736340   0.692  -0.86068   3.53617   6.42492   0.42375   0.00000   0.000E+00   0.000E+00   1.000E+00
  56  6.76877917   0.692  -0.87267   3.53615   6.43069   0.44123   0.00000   0.000E+00   0.000E+00   1.000E+00
  57  6.77990254   0.692  -0.88411   3.53613   6.43622   0.45795   0.00000   0.000E+00   0.000E+00   1.000E+00
  58  6.79074811   0.692  -0.89527   3.53612   6.44163   0.47432   0.00000   0.000E+00   0.000E+00   1.000E+00
  59  6.80132942   0.692  -0.90577   3.53611   6.44671   0.48971   0.00000   0.000E+00   0.000E+00   1.000E+00
  60  6.81165905   0.692  -0.91610   3.53610   6.45172   0.50486   0.00000   0.000E+00   0.000E+00   1.000E+00
  61  6.82174868   0.692  -0.92591   3.53610   6.45647   0.51928   0.00000   0.000E+00   0.000E+00   1.000E+00
  62  6.83160922   0.692  -0.93552   3.53610   6.46114   0.53341   0.00000   0.000E+00   0.000E+00   1.000E+00
  63  6.84125084   0.692  -0.94472   3.53609   6.46560   0.54693   0.00000   0.000E+00   0.000E+00   1.000E+00
  64  6.85068305   0.692  -0.95374   3.53609   6.46998   0.56021   0.00000   0.000E+00   0.000E+00   1.000E+00
  65  6.85991476   0.692  -0.96234   3.53609   6.47417   0.57289   0.00000   0.000E+00   0.000E+00   1.000E+00
  66  6.86895430   0.692  -0.97089   3.53609   6.47832   0.58548   0.00000   0.000E+00   0.000E+00   1.000E+00
  67  6.87780953   0.692  -0.97895   3.53609   6.48224   0.59737   0.00000   0.000E+00   0.000E+00   1.000E+00
  68  6.88648780   0.692  -0.98701   3.53609   6.48617   0.60926   0.00000   0.000E+00   0.000E+00   1.000E+00
  69  6.89499604   0.692  -0.99468   3.53609   6.48989   0.62057   0.00000   0.000E+00   0.000E+00   1.000E+00
  70  6.90334080   0.692  -1.00225   3.53609   6.49356   0.63171   0.00000   0.000E+00   0.000E+00   1.000E+00
  71  6.91152824   0.692  -1.00966   3.53609   6.49717   0.64264   0.00000   0.000E+00   0.000E+00   1.000E+00
  72  6.91956418   0.692  -1.01674   3.53609   6.50061   0.65308   0.00000   0.000E+00   0.000E+00   1.000E+00
  73  6.92745412   0.692  -1.02383   3.53609   6.50406   0.66353   0.00000   0.000E+00   0.000E+00   1.000E+00
  74  6.93520328   0.692  -1.03061   3.53609   6.50736   0.67354   0.00000   0.000E+00   0.000E+00   1.000E+00
  75  6.94281659   0.692  -1.03724   3.53610   6.51059   0.68334   0.00000   0.000E+00   0.000E+00   1.000E+00
  76  6.95029873   0.692  -1.04387   3.53610   6.51381   0.69314   0.00000   0.000E+00   0.000E+00   1.000E+00
  77  6.95765415   0.692  -1.05016   3.53610   6.51687   0.70242   0.00000   0.000E+00   0.000E+00   1.000E+00
  78  6.96488707   0.692  -1.05639   3.53610   6.51989   0.71161   0.00000   0.000E+00   0.000E+00   1.000E+00
  79  6.97200149   0.692  -1.06261   3.53610   6.52292   0.72079   0.00000   0.000E+00   0.000E+00   1.000E+00
  80  6.97900125   0.692  -1.06851   3.53610   6.52579   0.72951   0.00000   0.000E+00   0.000E+00   1.000E+00
  81  6.98588997   0.692  -1.07434   3.53611   6.52862   0.73812   0.00000   0.000E+00   0.000E+00   1.000E+00
  82  6.99267113   0.692  -1.08016   3.53611   6.53146   0.74673   0.00000   0.000E+00   0.000E+00   1.000E+00
  83  6.99934804   0.692  -1.08577   3.53611   6.53419   0.75502   0.00000   0.000E+00   0.000E+00   1.000E+00
  84  7.00592384   0.692  -1.09124   3.53611   6.53684   0.76310   0.00000   0.000E+00   0.000E+00   1.000E+00
  85  7.01240156   0.692  -1.09671   3.53611   6.53950   0.77118   0.00000   0.000E+00   0.000E+00   1.000E+00
  86  7.01878409   0.692  -1.10212   3.53611   6.54212   0.77917   0.00000   0.000E+00   0.000E+00   1.000E+00
  87  7.02507416   0.692  -1.10725   3.53611   6.54461   0.78674   0.00000   0.000E+00   0.000E+00   1.000E+00
  88  7.03127444   0.692  -1.11237   3.53611   6.54711   0.79431   0.00000   0.000E+00   0.000E+00   1.000E+00
  89  7.03738744   0.692  -1.11750   3.53611   6.54960   0.80189   0.00000   0.000E+00   0.000E+00   1.000E+00
  90  7.04341559   0.692  -1.12246   3.53611   6.55201   0.80921   0.00000   0.000E+00   0.000E+00   1.000E+00
  91  7.04936121   0.692  -1.12727   3.53611   6.55434   0.81631   0.00000   0.000E+00   0.000E+00   1.000E+00
  92  7.05522653   0.692  -1.13208   3.53610   6.55668   0.82341   0.00000   0.000E+00   0.000E+00   1.000E+00
  93  7.06101369   0.692  -1.13689   3.53610   6.55901   0.83050   0.00000   0.000E+00   0.000E+00   1.000E+00
  94  7.06672475   0.692  -1.14152   3.53610   6.56125   0.83732   0.00000   0.000E+00   0.000E+00   1.000E+00
  95  7.07236168   0.692  -1.14603   3.53610   6.56344   0.84397   0.00000   0.000E+00   0.000E+00   1.000E+00
  96  7.07792639   0.692  -1.15054   3.53609   6.56563   0.85062   0.00000   0.000E+00   0.000E+00   1.000E+00
  97  7.08342069   0.692  -1.15505   3.53609   6.56781   0.85727   0.00000   0.000E+00   0.000E+00   1.000E+00
  98  7.08884635   0.692  -1.15942   3.53609   6.56994   0.86373   0.00000   0.000E+00   0.000E+00   1.000E+00
  99  7.09420506   0.692  -1.16366   3.53609   6.57198   0.86996   0.00000   0.000E+00   0.000E+00   1.000E+00
 100  7.09949846   0.692  -1.16789   3.53608   6.57403   0.87620   0.00000   0.000E+00   0.000E+00   1.000E+00
 101  7.10472812   0.692  -1.17212   3.53608   6.57608   0.88243   0.00000   0.000E+00   0.000E+00   1.000E+00
 102  7.10989555   0.692  -1.17634   3.53608   6.57812   0.88865   0.00000   0.000E+00   0.000E+00   1.000E+00
 103  7.11500222   0.692  -1.18031   3.53608   6.58004   0.89449   0.00000   0.000E+00   0.000E+00   1.000E+00
 104  7.12004953   0.692  -1.18428   3.53607   6.58196   0.90034   0.00000   0.000E+00   0.000E+00   1.000E+00
 105  7.12503887   0.692  -1.18825   3.53607   6.58387   0.90618   0.00000   0.000E+00   0.000E+00   1.000E+00
 106  7.12997153   0.692  -1.19222   3.53606   6.58579   0.91202   0.00000   0.000E+00   0.000E+00   1.000E+00
 107  7.13484880   0.692  -1.19611   3.53606   6.58767   0.91776   0.00000   0.000E+00   0.000E+00   1.000E+00
 108  7.13967190   0.692  -1.19983   3.53605   6.58947   0.92323   0.00000   0.000E+00   0.000E+00   1.000E+00
 109  7.14444202   0.692  -1.20355   3.53605   6.59126   0.92871   0.00000   0.000E+00   0.000E+00   1.000E+00
 110  7.14916033   0.692  -1.20727   3.53604   6.59306   0.93418   0.00000   0.000E+00   0.000E+00   1.000E+00
 111  7.15382792   0.692  -1.21098   3.53603   6.59486   0.93966   0.00000   0.000E+00   0.000E+00   1.000E+00
 112  7.15844587   0.692  -1.21464   3.53603   6.59662   0.94505   0.00000   0.000E+00   0.000E+00   1.000E+00
 113  7.16301525   0.692  -1.21813   3.53602   6.59831   0.95018   0.00000   0.000E+00   0.000E+00   1.000E+00
 114  7.16753704   0.692  -1.22162   3.53602   6.59999   0.95530   0.00000   0.000E+00   0.000E+00   1.000E+00
 115  7.17201224   0.692  -1.22511   3.53601   6.60167   0.96043   0.00000   0.000E+00   0.000E+00   1.000E+00
 116  7.17644180   0.692  -1.22860   3.53601   6.60335   0.96556   0.00000   0.000E+00   0.000E+00   1.000E+00
 117  7.18082663   0.692  -1.23209   3.53600   6.60503   0.97069   0.00000   0.000E+00   0.000E+00   1.000E+00
 118  7.18516763   0.692  -1.23539   3.53599   6.60662   0.97553   0.00000   0.000E+00   0.000E+00   1.000E+00
 119  7.18946567   0.692  -1.23866   3.53599   6.60820   0.98034   0.00000   0.000E+00   0.000E+00   1.000E+00
 120  7.19372159   0.692  -1.24194   3.53598   6.60977   0.98514   0.00000   0.000E+00   0.000E+00   1.000E+00
 121  7.19793621   0.692  -1.24521   3.53597   6.61135   0.98994   0.00000   0.000E+00   0.000E+00   1.000E+00
 122  7.20211032   0.692  -1.24848   3.53597   6.61292   0.99475   0.00000   0.000E+00   0.000E+00   1.000E+00
 123  7.20624470   0.692  -1.25173   3.53596   6.61448   0.99950   0.00000   2.592E-05   0.000E+00   1.000E+00
 124  7.21034009   0.692  -1.25479   3.53595   6.61596   1.00400   0.00000   1.896E-04   0.000E+00   9.998E-01
 125  7.21439722   0.692  -1.25786   3.53595   6.61743   1.00850   0.00000   3.532E-04   0.000E+00   9.996E-01
 126  7.21841679   0.692  -1.26093   3.53594   6.61891   1.01300   0.00000   5.169E-04   0.000E+00   9.995E-01
 127  7.22239951   0.692  -1.26400   3.53593   6.62038   1.01750   0.00000   6.805E-04   0.000E+00   9.993E-01
 128  7.22634603   0.692  -1.26707   3.53593   6.62186   1.02200   0.00000   8.442E-04   0.000E+00   9.992E-01
 129  7.23025702   0.692  -1.27013   3.53592   6.62333   1.02649   0.00000   1.000E-03   0.000E+00   9.990E-01
 130  7.23413309   0.692  -1.27301   3.53591   6.62471   1.03071   0.00000   1.000E-03   0.000E+00   9.990E-01
 131  7.23797488   0.692  -1.27589   3.53590   6.62609   1.03493   0.00000   1.000E-03   0.000E+00   9.990E-01
 132  7.24178299   0.692  -1.27877   3.53590   6.62747   1.03915   0.00000   1.000E-03   0.000E+00   9.990E-01
 133  7.24555799   0.692  -1.28165   3.53589   6.62885   1.04337   0.00000   1.000E-03   0.000E+00   9.990E-01
 134  7.24930046   0.692  -1.28453   3.53588   6.63023   1.04759   0.00000   1.000E-03   0.000E+00   9.990E-01
 135  7.25301096   0.692  -1.28741   3.53587   6.63161   1.05181   0.00000   1.000E-03   0.000E+00   9.990E-01
 136  7.25669002   0.692  -1.29020   3.53587   6.63295   1.05588   0.00000   1.000E-03   0.000E+00   9.990E-01
 137  7.26033818   0.692  -1.29290   3.53586   6.63424   1.05984   0.00000   1.000E-03   0.000E+00   9.990E-01
 138  7.26395594   0.692  -1.29560   3.53585   6.63553   1.06379   0.00000   1.000E-03   0.000E+00   9.990E-01
 139  7.26754382   0.692  -1.29830   3.53584   6.63683   1.06774   0.00000   1.000E-03   0.000E+00   9.990E-01
 140  7.27110231   0.692  -1.30100   3.53583   6.63812   1.07169   0.00000   1.000E-03   0.000E+00   9.990E-01
 141  7.27463187   0.692  -1.30370   3.53582   6.63941   1.07565   0.00000   1.000E-03   0.000E+00   9.990E-01
 142  7.27813297   0.692  -1.30641   3.53581   6.64071   1.07960   0.00000   1.000E-03   0.000E+00   9.990E-01
 143  7.28160608   0.692  -1.30901   3.53581   6.64195   1.08341   0.00000   1.000E-03   0.000E+00   9.990E-01
 144  7.28505164   0.692  -1.31155   3.53580   6.64317   1.08712   0.00000   1.000E-03   0.000E+00   9.990E-01
 145  7.28847007   0.692  -1.31408   3.53579   6.64438   1.09082   0.00000   1.000E-03   0.000E+00   9.990E-01
 146  7.29186180   0.692  -1.31662   3.53578   6.64559   1.09453   0.00000   1.000E-03   0.000E+00   9.990E-01
 147  7.29522725   0.692  -1.31916   3.53577   6.64680   1.09824   0.00000   1.000E-03   0.000E+00   9.990E-01
 148  7.29856683   0.692  -1.32169   3.53576   6.64802   1.10195   0.00000   1.000E-03   0.000E+00   9.990E-01
 149  7.30188092   0.692  -1.32423   3.53576   6.64923   1.10565   0.00000   1.000E-03   0.000E+00   9.990E-01
 150  7.30516991   0.692  -1.32674   3.53575   6.65043   1.10932   0.00000   1.023E-03   0.000E+00   9.990E-01
 151  7.30843417   0.692  -1.32912   3.53574   6.65156   1.11279   0.00000   1.150E-03   0.000E+00   9.988E-01
 152  7.31167409   0.692  -1.33149   3.53573   6.65270   1.11627   0.00000   1.277E-03   0.000E+00   9.987E-01
 153  7.31489002   0.692  -1.33387   3.53572   6.65383   1.11974   0.00000   1.404E-03   0.000E+00   9.986E-01
 154  7.31808230   0.692  -1.33625   3.53571   6.65497   1.12322   0.00000   1.531E-03   0.000E+00   9.985E-01
 155  7.32125130   0.692  -1.33863   3.53570   6.65610   1.12669   0.00000   1.657E-03   0.000E+00   9.983E-01
 156  7.32439733   0.692  -1.34101   3.53570   6.65724   1.13016   0.00000   1.784E-03   0.000E+00   9.982E-01
 157  7.32752074   0.692  -1.34339   3.53569   6.65837   1.13364   0.00000   1.911E-03   0.000E+00   9.981E-01
 158  7.33062185   0.692  -1.34572   3.53568   6.65949   1.13705   0.00000   2.000E-03   0.000E+00   9.980E-01
 159  7.33370097   0.692  -1.34796   3.53567   6.66055   1.14030   0.00000   2.000E-03   0.000E+00   9.980E-01
 160  7.33675841   0.692  -1.35019   3.53566   6.66161   1.14356   0.00000   2.000E-03   0.000E+00   9.980E-01
 161  7.33979448   0.692  -1.35242   3.53565   6.66268   1.14682   0.00000   2.000E-03   0.000E+00   9.980E-01
 162  7.34280947   0.692  -1.35466   3.53564   6.66374   1.15007   0.00000   2.000E-03   0.000E+00   9.980E-01
 163  7.34580368   0.692  -1.35689   3.53564   6.66480   1.15333   0.00000   2.000E-03   0.000E+00   9.980E-01
 164  7.34877738   0.692  -1.35912   3.53563   6.66587   1.15658   0.00000   2.000E-03   0.000E+00   9.980E-01
 165  7.35173086   0.692  -1.36135   3.53562   6.66693   1.15984   0.00000   2.000E-03   0.000E+00   9.980E-01
 166  7.35466439   0.692  -1.36359   3.53561   6.66799   1.16310   0.00000   2.000E-03   0.000E+00   9.980E-01
 167  7.35757824   0.692  -1.36570   3.53560   6.66899   1.16617   0.00000   2.100E-03   0.000E+00   9.979E-01
 168  7.36047267   0.692  -1.36779   3.53559   6.66998   1.16923   0.00000   2.211E-03   0.000E+00   9.978E-01
 169  7.36334793   0.692  -1.36988   3.53558   6.67097   1.17228   0.00000   2.323E-03   0.000E+00   9.977E-01
 170  7.36620429   0.692  -1.37198   3.53557   6.67196   1.17534   0.00000   2.434E-03   0.000E+00   9.976E-01
 171  7.36904198   0.692  -1.37407   3.53556   6.67295   1.17839   0.00000   2.546E-03   0.000E+00   9.975E-01
 172  7.37186125   0.692  -1.37617   3.53555   6.67394   1.18145   0.00000   2.658E-03   0.000E+00   9.973E-01
 173  7.37466233   0.692  -1.37826   3.53554   6.67493   1.18450   0.00000   2.769E-03   0.000E+00   9.972E-01
 174  7.37744547   0.692  -1.38036   3.53553   6.67592   1.18756   0.00000   2.881E-03   0.000E+00   9.971E-01
 175  7.38021088   0.692  -1.38245   3.53552   6.67691   1.19061   0.00000   2.993E-03   0.000E+00   9.970E-01
 176  7.38295880   0.692  -1.38442   3.53551   6.67782   1.19352   0.00000   3.000E-03   0.000E+00   9.970E-01
 177  7.38568944   0.692  -1.38639   3.53550   6.67873   1.19641   0.00000   3.000E-03   0.000E+00   9.970E-01
 178  7.38840301   0.692  -1.38835   3.53550   6.67963   1.19930   0.00000   3.000E-03   0.000E+00   9.970E-01
 179  7.39109974   0.692  -1.39032   3.53549   6.68053   1.20220   0.00000   3.000E-03   0.000E+00   9.970E-01
 180  7.39377983   0.692  -1.39228   3.53548   6.68144   1.20509   0.00000   3.000E-03   0.000E+00   9.970E-01
 181  7.39644347   0.692  -1.39425   3.53547   6.68234   1.20798   0.00000   3.000E-03   0.000E+00   9.970E-01
 182  7.39909088   0.692  -1.39621   3.53546   6.68325   1.21087   0.00000   3.000E-03   0.000E+00   9.970E-01
 183  7.40172225   0.692  -1.39817   3.53545   6.68415   1.21377   0.00000   3.000E-03   0.000E+00   9.970E-01
 184  7.40433777   0.692  -1.40014   3.53545   6.68505   1.21666   0.00000   3.000E-03   0.000E+00   9.970E-01
 185  7.40693764   0.692  -1.40206   3.53544   6.68593   1.21949   0.00000   3.038E-03   0.000E+00   9.970E-01
 186  7.40952203   0.692  -1.40390   3.53543   6.68675   1.22223   0.00000   3.136E-03   0.000E+00   9.969E-01
 187  7.41209113   0.692  -1.40574   3.53542   6.68758   1.22496   0.00000   3.234E-03   0.000E+00   9.968E-01
 188  7.41464513   0.692  -1.40758   3.53541   6.68841   1.22770   0.00000   3.332E-03   0.000E+00   9.967E-01
 189  7.41718419   0.692  -1.40942   3.53540   6.68923   1.23044   0.00000   3.431E-03   0.000E+00   9.966E-01
 190  7.41970850   0.692  -1.41127   3.53539   6.69006   1.23318   0.00000   3.529E-03   0.000E+00   9.965E-01
 191  7.42221822   0.692  -1.41311   3.53538   6.69088   1.23591   0.00000   3.627E-03   0.000E+00   9.964E-01
 192  7.42471352   0.692  -1.41495   3.53537   6.69171   1.23865   0.00000   3.725E-03   0.000E+00   9.963E-01
 193  7.42719456   0.692  -1.41679   3.53537   6.69254   1.24139   0.00000   3.824E-03   0.000E+00   9.962E-01
 194  7.42966151   0.692  -1.41863   3.53536   6.69336   1.24412   0.00000   3.922E-03   0.000E+00   9.961E-01
 195  7.43211453   0.692  -1.42045   3.53535   6.69418   1.24683   0.00000   4.019E-03   0.000E+00   9.960E-01
 196  7.43455377   0.692  -1.42218   3.53534   6.69493   1.24942   0.00000   4.111E-03   0.000E+00   9.959E-01
 197  7.43697938   0.692  -1.42390   3.53533   6.69569   1.25201   0.00000   4.203E-03   0.000E+00   9.958E-01
 198  7.43939152   0.692  -1.42563   3.53532   6.69645   1.25460   0.00000   4.295E-03   0.000E+00   9.957E-01
 199  7.44179034   0.692  -1.42735   3.53531   6.69721   1.25718   0.00000   4.387E-03   0.000E+00   9.956E-01
 200  7.44417599   0.692  -1.42908   3.53530   6.69796   1.25977   0.00000   4.479E-03   0.000E+00   9.955E-01
 201  7.44654859   0.692  -1.43080   3.53529   6.69872   1.26236   0.00000   4.571E-03   0.000E+00   9.954E-01
 202  7.44890831   0.692  -1.43253   3.53528   6.69948   1.26495   0.00000   4.663E-03   0.000E+00   9.953E-01
 203  7.45125528   0.692  -1.43425   3.53527   6.70024   1.26754   0.00000   4.755E-03   0.000E+00   9.952E-01
 204  7.45358963   0.692  -1.43598   3.53527   6.70099   1.27013   0.00000   4.847E-03   0.000E+00   9.952E-01
 205  7.45591150   0.692  -1.43771   3.53526   6.70175   1.27272   0.00000   4.939E-03   0.000E+00   9.951E-01
 206  7.45822102   0.692  -1.43939   3.53525   6.70249   1.27526   0.00000   5.030E-03   0.000E+00   9.950E-01
 207  7.46051833   0.692  -1.44101   3.53524   6.70318   1.27770   0.00000   5.116E-03   0.000E+00   9.949E-01
 208  7.46280354   0.692  -1.44262   3.53523   6.70388   1.28015   0.00000   5.202E-03   0.000E+00   9.948E-01
 209  7.46507680   0.692  -1.44423   3.53522   6.70457   1.28260   0.00000   5.288E-03   0.000E+00   9.947E-01
 210  7.46733822   0.692  -1.44585   3.53522   6.70526   1.28504   0.00000   5.375E-03   0.000E+00   9.946E-01
 211  7.46958792   0.692  -1.44746   3.53521   6.70596   1.28749   0.00000   5.461E-03   0.000E+00   9.945E-01
 212  7.47182603   0.692  -1.44908   3.53520   6.70665   1.28994   0.00000   5.547E-03   0.000E+00   9.945E-01
 213  7.47405267   0.692  -1.45069   3.53519   6.70734   1.29238   0.00000   5.634E-03   0.000E+00   9.944E-01
 214  7.47626795   0.692  -1.45230   3.53519   6.70804   1.29483   0.00000   5.720E-03   0.000E+00   9.943E-01
 215  7.47847198   0.692  -1.45392   3.53518   6.70873   1.29728   0.00000   5.806E-03   0.000E+00   9.942E-01
 216  7.48066489   0.692  -1.45553   3.53517   6.70943   1.29972   0.00000   5.893E-03   0.000E+00   9.941E-01
 217  7.48284678   0.692  -1.45715   3.53516   6.71012   1.30217   0.00000   5.979E-03   0.000E+00   9.940E-01
 218  7.48501776   0.692  -1.45868   3.53515   6.71077   1.30452   0.00000   6.122E-03   0.000E+00   9.939E-01
 219  7.48717794   0.692  -1.46019   3.53515   6.71141   1.30683   0.00000   6.283E-03   0.000E+00   9.937E-01
 220  7.48932744   0.692  -1.46170   3.53514   6.71205   1.30915   0.00000   6.445E-03   0.000E+00   9.936E-01
 221  7.49146634   0.692  -1.46321   3.53513   6.71269   1.31146   0.00000   6.606E-03   0.000E+00   9.934E-01
 222  7.49359476   0.692  -1.46472   3.53513   6.71333   1.31378   0.00000   6.767E-03   0.000E+00   9.932E-01
 223  7.49571281   0.692  -1.46622   3.53512   6.71396   1.31609   0.00000   6.929E-03   0.000E+00   9.931E-01
 224  7.49782057   0.692  -1.46773   3.53511   6.71460   1.31841   0.00000   7.090E-03   0.000E+00   9.929E-01
 225  7.49991815   0.692  -1.46924   3.53510   6.71524   1.32072   0.00000   7.252E-03   0.000E+00   9.927E-01
 226  7.50200566   0.692  -1.47075   3.53510   6.71588   1.32304   0.00000   7.413E-03   0.000E+00   9.926E-01
 227  7.50408317   0.692  -1.47226   3.53509   6.71652   1.32535   0.00000   7.574E-03   0.000E+00   9.924E-01
 228  7.50615079   0.692  -1.47377   3.53508   6.71715   1.32767   0.00000   7.736E-03   0.000E+00   9.923E-01
 229  7.50820862   0.692  -1.47528   3.53507   6.71779   1.32998   0.00000   7.897E-03   0.000E+00   9.921E-01
 230  7.51025674   0.692  -1.47675   3.53507   6.71841   1.33225   0.00000   8.055E-03   0.000E+00   9.919E-01
 231  7.51229525   0.692  -1.47816   3.53506   6.71900   1.33444   0.00000   8.205E-03   0.000E+00   9.918E-01
 232  7.51432424   0.692  -1.47956   3.53506   6.71959   1.33663   0.00000   8.356E-03   0.000E+00   9.916E-01
 233  7.51634379   0.692  -1.48097   3.53505   6.72017   1.33882   0.00000   8.507E-03   0.000E+00   9.915E-01
 234  7.51835399   0.692  -1.48238   3.53504   6.72076   1.34100   0.00000   8.658E-03   0.000E+00   9.913E-01
 235  7.52035493   0.692  -1.48379   3.53504   6.72135   1.34319   0.00000   8.809E-03   0.000E+00   9.912E-01
 236  7.52234669   0.692  -1.48519   3.53503   6.72193   1.34538   0.00000   8.960E-03   0.000E+00   9.910E-01
 237  7.52432936   0.692  -1.48660   3.53503   6.72252   1.34757   0.00000   9.111E-03   0.000E+00   9.909E-01
 238  7.52630303   0.692  -1.48801   3.53502   6.72311   1.34976   0.00000   9.261E-03   0.000E+00   9.907E-01
 239  7.52826776   0.692  -1.48942   3.53501   6.72369   1.35194   0.00000   9.412E-03   0.000E+00   9.906E-01
 240  7.53022364   0.692  -1.49082   3.53501   6.72428   1.35413   0.00000   9.563E-03   0.000E+00   9.904E-01
 241  7.53217075   0.692  -1.49223   3.53500   6.72487   1.35632   0.00000   9.714E-03   0.000E+00   9.903E-01
 242  7.53410918   0.692  -1.49364   3.53500   6.72545   1.35851   0.00000   9.865E-03   0.000E+00   9.901E-01
 243  7.53603899   0.692  -1.49504   3.53499   6.72604   1.36068   0.00000   1.002E-02   0.000E+00   9.900E-01
 244  7.53796026   0.692  -1.49635   3.53498   6.72658   1.36275   0.00000   1.023E-02   0.000E+00   9.898E-01
 245  7.53987307   0.692  -1.49766   3.53498   6.72712   1.36482   0.00000   1.044E-02   0.000E+00   9.896E-01
 246  7.54177749   0.692  -1.49897   3.53497   6.72766   1.36689   0.00000   1.066E-02   0.000E+00   9.893E-01
 247  7.54367360   0.692  -1.50028   3.53497   6.72820   1.36895   0.00000   1.087E-02   0.000E+00   9.891E-01
 248  7.54556147   0.692  -1.50159   3.53496   6.72874   1.37102   0.00000   1.108E-02   0.000E+00   9.889E-01
 249  7.54744116   0.692  -1.50290   3.53496   6.72928   1.37309   0.00000   1.129E-02   0.000E+00   9.887E-01
 250  7.54931276   0.692  -1.50421   3.53496   6.72982   1.37516   0.00000   1.150E-02   0.000E+00   9.885E-01
 251  7.55117632   0.692  -1.50552   3.53495   6.73036   1.37722   0.00000   1.171E-02   0.000E+00   9.883E-01
 252  7.55303192   0.692  -1.50684   3.53495   6.73090   1.37929   0.00000   1.192E-02   0.000E+00   9.881E-01
 253  7.55487963   0.692  -1.50815   3.53494   6.73144   1.38136   0.00000   1.213E-02   0.000E+00   9.879E-01
 254  7.55671951   0.692  -1.50946   3.53494   6.73198   1.38343   0.00000   1.234E-02   0.000E+00   9.877E-01
 255  7.55855162   0.692  -1.51077   3.53493   6.73252   1.38550   0.00000   1.256E-02   0.000E+00   9.874E-01
 256  7.56037604   0.692  -1.51208   3.53493   6.73306   1.38756   0.00000   1.277E-02   0.000E+00   9.872E-01
 257  7.56219283   0.692  -1.51339   3.53492   6.73360   1.38963   0.00000   1.298E-02   0.000E+00   9.870E-01
 258  7.56400205   0.692  -1.51462   3.53492   6.73411   1.39159   0.00000   1.318E-02   0.000E+00   9.868E-01
 259  7.56580376   0.692  -1.51584   3.53491   6.73460   1.39355   0.00000   1.337E-02   0.000E+00   9.866E-01
 260  7.56759803   0.692  -1.51706   3.53491   6.73510   1.39550   0.00000   1.357E-02   0.000E+00   9.864E-01
 261  7.56938492   0.692  -1.51828   3.53490   6.73560   1.39745   0.00000   1.377E-02   0.000E+00   9.862E-01
 262  7.57116449   0.692  -1.51950   3.53490   6.73610   1.39940   0.00000   1.396E-02   0.000E+00   9.860E-01
 263  7.57293679   0.692  -1.52072   3.53490   6.73660   1.40135   0.00000   1.416E-02   0.000E+00   9.858E-01
 264  7.57470189   0.692  -1.52194   3.53489   6.73710   1.40331   0.00000   1.436E-02   0.000E+00   9.856E-01
 265  7.57645984   0.692  -1.52316   3.53489   6.73759   1.40526   0.00000   1.455E-02   0.000E+00   9.854E-01
 266  7.57821071   0.692  -1.52438   3.53489   6.73809   1.40721   0.00000   1.475E-02   0.000E+00   9.853E-01
 267  7.57995455   0.692  -1.52560   3.53488   6.73859   1.40916   0.00000   1.495E-02   0.000E+00   9.851E-01
 268  7.58169141   0.692  -1.52681   3.53488   6.73909   1.41111   0.00000   1.514E-02   0.000E+00   9.849E-01
 269  7.58342136   0.692  -1.52803   3.53487   6.73959   1.41306   0.00000   1.534E-02   0.000E+00   9.847E-01
 270  7.58514444   0.692  -1.52925   3.53487   6.74008   1.41502   0.00000   1.554E-02   0.000E+00   9.845E-01
 271  7.58686071   0.692  -1.53047   3.53487   6.74058   1.41697   0.00000   1.573E-02   0.000E+00   9.843E-01
 272  7.58857023   0.692  -1.53169   3.53486   6.74108   1.41892   0.00000   1.593E-02   0.000E+00   9.841E-01
 273  7.59027304   0.692  -1.53286   3.53486   6.74156   1.42080   0.00000   1.616E-02   0.000E+00   9.838E-01
 274  7.59196921   0.692  -1.53399   3.53485   6.74202   1.42264   0.00000   1.640E-02   0.000E+00   9.836E-01
 275  7.59365877   0.692  -1.53512   3.53485   6.74248   1.42447   0.00000   1.664E-02   0.000E+00   9.834E-01
 276  7.59534179   0.692  -1.53625   3.53485   6.74294   1.42631   0.00000   1.689E-02   0.000E+00   9.831E-01
 277  7.59701831   0.692  -1.53738   3.53485   6.74340   1.42815   0.00000   1.713E-02   0.000E+00   9.829E-01
 278  7.59868838   0.692  -1.53852   3.53484   6.74386   1.42999   0.00000   1.738E-02   0.000E+00   9.826E-01
 279  7.60035205   0.692  -1.53965   3.53484   6.74432   1.43183   0.00000   1.762E-02   0.000E+00   9.824E-01
 280  7.60200938   0.692  -1.54078   3.53484   6.74478   1.43366   0.00000   1.786E-02   0.000E+00   9.821E-01
 281  7.60366041   0.692  -1.54191   3.53483   6.74524   1.43550   0.00000   1.811E-02   0.000E+00   9.819E-01
 282  7.60530518   0.692  -1.54304   3.53483   6.74570   1.43734   0.00000   1.835E-02   0.000E+00   9.816E-01
 283  7.60694375   0.692  -1.54418   3.53483   6.74616   1.43918   0.00000   1.859E-02   0.000E+00   9.814E-01
 284  7.60857615   0.692  -1.54531   3.53482   6.74662   1.44102   0.00000   1.884E-02   0.000E+00   9.812E-01
 285  7.61020245   0.692  -1.54644   3.53482   6.74708   1.44285   0.00000   1.908E-02   0.000E+00   9.809E-01
 286  7.61182268   0.692  -1.54757   3.53482   6.74754   1.44469   0.00000   1.933E-02   0.000E+00   9.807E-01
 287  7.61343688   0.692  -1.54870   3.53482   6.74800   1.44653   0.00000   1.957E-02   0.000E+00   9.804E-01
 288  7.61504511   0.692  -1.54984   3.53481   6.74846   1.44837   0.00000   1.981E-02   0.000E+00   9.802E-01
 289  7.61664741   0.692  -1.55095   3.53481   6.74891   1.45018   0.00000   2.007E-02   0.000E+00   9.799E-01
 290  7.61824381   0.692  -1.55200   3.53481   6.74934   1.45191   0.00000   2.035E-02   0.000E+00   9.797E-01
 291  7.61983437   0.692  -1.55304   3.53481   6.74976   1.45364   0.00000   2.063E-02   0.000E+00   9.794E-01
 292  7.62141913   0.692  -1.55409   3.53481   6.75019   1.45537   0.00000   2.092E-02   0.000E+00   9.791E-01
 293  7.62299812   0.692  -1.55514   3.53481   6.75061   1.45710   0.00000   2.120E-02   0.000E+00   9.788E-01
 294  7.62457139   0.692  -1.55619   3.53480   6.75104   1.45883   0.00000   2.148E-02   0.000E+00   9.785E-01
 295  7.62613899   0.692  -1.55724   3.53480   6.75146   1.46056   0.00000   2.176E-02   0.000E+00   9.782E-01
 296  7.62770094   0.692  -1.55829   3.53480   6.75189   1.46229   0.00000   2.205E-02   0.000E+00   9.780E-01
 297  7.62925730   0.692  -1.55933   3.53480   6.75232   1.46402   0.00000   2.233E-02   0.000E+00   9.777E-01
 298  7.63080810   0.692  -1.56038   3.53480   6.75274   1.46575   0.00000   2.261E-02   0.000E+00   9.774E-01
 299  7.63235338   0.692  -1.56143   3.53480   6.75317   1.46748   0.00000   2.290E-02   0.000E+00   9.771E-01
 300  7.63389319   0.692  -1.56248   3.53480   6.75359   1.46921   0.00000   2.318E-02   0.000E+00   9.768E-01
 301  7.63542755   0.692  -1.56353   3.53480   6.75402   1.47094   0.00000   2.346E-02   0.000E+00   9.765E-01
 302  7.63695651   0.692  -1.56458   3.53480   6.75444   1.47267   0.00000   2.375E-02   0.000E+00   9.763E-01
 303  7.63848011   0.692  -1.56562   3.53479   6.75487   1.47440   0.00000   2.403E-02   0.000E+00   9.760E-01
 304  7.63999838   0.692  -1.56667   3.53479   6.75530   1.47613   0.00000   2.431E-02   0.000E+00   9.757E-01
 305  7.64151137   0.692  -1.56772   3.53479   6.75572   1.47786   0.00000   2.460E-02   0.000E+00   9.754E-01
 306  7.64301910   0.692  -1.56877   3.53479   6.75615   1.47959   0.00000   2.488E-02   0.000E+00   9.751E-01
 307  7.64452161   0.692  -1.56977   3.53479   6.75655   1.48127   0.00000   2.521E-02   0.000E+00   9.748E-01
 308  7.64601894   0.692  -1.57074   3.53479   6.75695   1.48289   0.00000   2.558E-02   0.000E+00   9.744E-01
 309  7.64751113   0.692  -1.57171   3.53479   6.75734   1.48452   0.00000   2.594E-02   0.000E+00   9.741E-01
 310  7.64899821   0.692  -1.57268   3.53479   6.75774   1.48614   0.00000   2.631E-02   0.000E+00   9.737E-01
 311  7.65048022   0.692  -1.57365   3.53479   6.75813   1.48777   0.00000   2.668E-02   0.000E+00   9.733E-01
 312  7.65195718   0.692  -1.57462   3.53479   6.75852   1.48939   0.00000   2.704E-02   0.000E+00   9.730E-01
 313  7.65342914   0.692  -1.57559   3.53479   6.75892   1.49102   0.00000   2.741E-02   0.000E+00   9.726E-01
 314  7.65489613   0.692  -1.57656   3.53479   6.75931   1.49265   0.00000   2.778E-02   0.000E+00   9.722E-01
 315  7.65635817   0.692  -1.57753   3.53479   6.75970   1.49427   0.00000   2.814E-02   0.000E+00   9.719E-01
 316  7.65781532   0.692  -1.57850   3.53478   6.76010   1.49590   0.00000   2.851E-02   0.000E+00   9.715E-01
 317  7.65926759   0.692  -1.57947   3.53478   6.76049   1.49752   0.00000   2.888E-02   0.000E+00   9.711E-01
 318  7.66071502   0.692  -1.58043   3.53478   6.76089   1.49915   0.00000   2.925E-02   0.000E+00   9.708E-01
 319  7.66215764   0.692  -1.58140   3.53478   6.76128   1.50077   0.00000   2.961E-02   0.000E+00   9.704E-01
 320  7.66359548   0.692  -1.58237   3.53478   6.76167   1.50240   0.00000   2.998E-02   0.000E+00   9.700E-01
 321  7.66502858   0.692  -1.58334   3.53478   6.76207   1.50403   0.00000   3.035E-02   0.000E+00   9.697E-01
 322  7.66645697   0.692  -1.58431   3.53478   6.76246   1.50565   0.00000   3.071E-02   0.000E+00   9.693E-01
 323  7.66788068   0.692  -1.58528   3.53478   6.76285   1.50728   0.00000   3.108E-02   0.000E+00   9.689E-01
 324  7.66929973   0.692  -1.58625   3.53478   6.76325   1.50890   0.00000   3.145E-02   0.000E+00   9.686E-01
 325  7.67071416   0.692  -1.58722   3.53478   6.76364   1.51053   0.00000   3.181E-02   0.000E+00   9.682E-01
 326  7.67212400   0.692  -1.58815   3.53478   6.76402   1.51210   0.00000   3.219E-02   0.000E+00   9.678E-01
 327  7.67352928   0.692  -1.58904   3.53478   6.76439   1.51363   0.00000   3.259E-02   0.000E+00   9.674E-01
 328  7.67493002   0.692  -1.58994   3.53478   6.76475   1.51515   0.00000   3.298E-02   0.000E+00   9.670E-01
 329  7.67632627   0.692  -1.59083   3.53478   6.76511   1.51667   0.00000   3.337E-02   0.000E+00   9.666E-01
 330  7.67771803   0.692  -1.59172   3.53478   6.76548   1.51820   0.00000   3.376E-02   0.000E+00   9.662E-01
 331  7.67910535   0.692  -1.59262   3.53479   6.76584   1.51972   0.00000   3.416E-02   0.000E+00   9.658E-01
 332  7.68048826   0.692  -1.59351   3.53479   6.76621   1.52124   0.00000   3.455E-02   0.000E+00   9.654E-01
 333  7.68186677   0.692  -1.59440   3.53479   6.76657   1.52276   0.00000   3.494E-02   0.000E+00   9.651E-01
 334  7.68324093   0.692  -1.59529   3.53479   6.76694   1.52429   0.00000   3.534E-02   0.000E+00   9.647E-01
 335  7.68461074   0.692  -1.59619   3.53479   6.76730   1.52581   0.00000   3.573E-02   0.000E+00   9.643E-01
 336  7.68597626   0.692  -1.59708   3.53479   6.76767   1.52733   0.00000   3.612E-02   0.000E+00   9.639E-01
 337  7.68733749   0.692  -1.59797   3.53479   6.76803   1.52886   0.00000   3.651E-02   0.000E+00   9.635E-01
 338  7.68869446   0.692  -1.59887   3.53479   6.76840   1.53038   0.00000   3.691E-02   0.000E+00   9.631E-01
 339  7.69004722   0.692  -1.59976   3.53479   6.76876   1.53190   0.00000   3.730E-02   0.000E+00   9.627E-01
 340  7.69139577   0.692  -1.60065   3.53479   6.76913   1.53343   0.00000   3.769E-02   0.000E+00   9.623E-01
 341  7.69274014   0.692  -1.60154   3.53480   6.76949   1.53495   0.00000   3.808E-02   0.000E+00   9.619E-01
 342  7.69408037   0.692  -1.60244   3.53480   6.76986   1.53647   0.00000   3.848E-02   0.000E+00   9.615E-01
 343  7.69541648   0.692  -1.60333   3.53480   6.77022   1.53799   0.00000   3.887E-02   0.000E+00   9.611E-01
 344  7.69674848   0.692  -1.60422   3.53480   6.77058   1.53952   0.00000   3.926E-02   0.000E+00   9.607E-01
 345  7.69807642   0.692  -1.60511   3.53480   6.77095   1.54104   0.00000   3.965E-02   0.000E+00   9.603E-01
 346  7.69940030   0.692  -1.60600   3.53480   6.77131   1.54255   0.00000   4.006E-02   0.000E+00   9.599E-01
 347  7.70072016   0.692  -1.60682   3.53480   6.77165   1.54398   0.00000   4.051E-02   0.000E+00   9.595E-01
 348  7.70203603   0.692  -1.60764   3.53480   6.77199   1.54540   0.00000   4.097E-02   0.000E+00   9.590E-01
 349  7.70334791   0.692  -1.60846   3.53480   6.77233   1.54682   0.00000   4.143E-02   0.000E+00   9.586E-01
 350  7.70465585   0.692  -1.60929   3.53481   6.77267   1.54825   0.00000   4.189E-02   0.000E+00   9.581E-01
 351  7.70595986   0.692  -1.61011   3.53481   6.77300   1.54967   0.00000   4.235E-02   0.000E+00   9.577E-01
 352  7.70725997   0.692  -1.61093   3.53481   6.77334   1.55110   0.00000   4.281E-02   0.000E+00   9.572E-01
 353  7.70855619   0.692  -1.61175   3.53481   6.77368   1.55252   0.00000   4.327E-02   0.000E+00   9.567E-01
 354  7.70984856   0.692  -1.61257   3.53481   6.77402   1.55394   0.00000   4.373E-02   0.000E+00   9.563E-01
 355  7.71113710   0.692  -1.61340   3.53481   6.77436   1.55537   0.00000   4.419E-02   0.000E+00   9.558E-01
 356  7.71242182   0.692  -1.61422   3.53481   6.77470   1.55679   0.00000   4.464E-02   0.000E+00   9.554E-01
 357  7.71370275   0.692  -1.61504   3.53482   6.77504   1.55822   0.00000   4.510E-02   0.000E+00   9.549E-01
 358  7.71497992   0.692  -1.61586   3.53482   6.77538   1.55964   0.00000   4.556E-02   0.000E+00   9.544E-01
 359  7.71625334   0.692  -1.61668   3.53482   6.77571   1.56106   0.00000   4.602E-02   0.000E+00   9.540E-01
 360  7.71752304   0.692  -1.61751   3.53482   6.77605   1.56249   0.00000   4.648E-02   0.000E+00   9.535E-01
 361  7.71878904   0.692  -1.61833   3.53482   6.77639   1.56391   0.00000   4.694E-02   0.000E+00   9.531E-01
 362  7.72005136   0.692  -1.61915   3.53482   6.77673   1.56534   0.00000   4.740E-02   0.000E+00   9.526E-01
 363  7.72131002   0.692  -1.61997   3.53482   6.77707   1.56676   0.00000   4.786E-02   0.000E+00   9.521E-01
 364  7.72256504   0.692  -1.62079   3.53482   6.77741   1.56819   0.00000   4.832E-02   0.000E+00   9.517E-01
 365  7.72381644   0.692  -1.62162   3.53483   6.77775   1.56961   0.00000   4.878E-02   0.000E+00   9.512E-01
 366  7.72506425   0.692  -1.62244   3.53483   6.77808   1.57103   0.00000   4.923E-02   0.000E+00   9.508E-01
 367  7.72630849   0.692  -1.62326   3.53483   6.77842   1.57246   0.00000   4.969E-02   0.000E+00   9.503E-01
 368  7.72754917   0.692  -1.62406   3.53483   6.77875   1.57385   0.00000   5.017E-02   0.000E+00   9.498E-01
 369  7.72878631   0.692  -1.62481   3.53483   6.77907   1.57517   0.00000   5.068E-02   0.000E+00   9.493E-01
 370  7.73001995   0.692  -1.62557   3.53484   6.77938   1.57650   0.00000   5.120E-02   0.000E+00   9.488E-01
 371  7.73125009   0.692  -1.62632   3.53484   6.77970   1.57782   0.00000   5.171E-02   0.000E+00   9.483E-01
 372  7.73247675   0.692  -1.62708   3.53484   6.78001   1.57915   0.00000   5.223E-02   0.000E+00   9.478E-01
 373  7.73369996   0.692  -1.62783   3.53484   6.78033   1.58047   0.00000   5.274E-02   0.000E+00   9.473E-01
 374  7.73491973   0.692  -1.62859   3.53485   6.78064   1.58180   0.00000   5.326E-02   0.000E+00   9.467E-01
 375  7.73613609   0.692  -1.62934   3.53485   6.78095   1.58312   0.00000   5.377E-02   0.000E+00   9.462E-01
 376  7.73734905   0.692  -1.63009   3.53485   6.78127   1.58444   0.00000   5.429E-02   0.000E+00   9.457E-01
 377  7.73855863   0.692  -1.63085   3.53485   6.78158   1.58577   0.00000   5.480E-02   0.000E+00   9.452E-01
 378  7.73976485   0.692  -1.63160   3.53486   6.78190   1.58709   0.00000   5.531E-02   0.000E+00   9.447E-01
 379  7.74096773   0.692  -1.63236   3.53486   6.78221   1.58842   0.00000   5.583E-02   0.000E+00   9.442E-01
 380  7.74216729   0.692  -1.63311   3.53486   6.78252   1.58974   0.00000   5.634E-02   0.000E+00   9.437E-01
 381  7.74336354   0.692  -1.63387   3.53486   6.78284   1.59107   0.00000   5.686E-02   0.000E+00   9.431E-01
 382  7.74455651   0.692  -1.63462   3.53487   6.78315   1.59239   0.00000   5.737E-02   0.000E+00   9.426E-01
 383  7.74574621   0.692  -1.63538   3.53487   6.78347   1.59371   0.00000   5.789E-02   0.000E+00   9.421E-01
 384  7.74693266   0.692  -1.63613   3.53487   6.78378   1.59504   0.00000   5.840E-02   0.000E+00   9.416E-01
 385  7.74811588   0.692  -1.63688   3.53487   6.78410   1.59636   0.00000   5.891E-02   0.000E+00   9.411E-01
 386  7.74929588   0.692  -1.63764   3.53488   6.78441   1.59769   0.00000   5.943E-02   0.000E+00   9.406E-01
 387  7.75047269   0.692  -1.63839   3.53488   6.78472   1.59901   0.00000   5.994E-02   0.000E+00   9.401E-01
 388  7.75164631   0.692  -1.63915   3.53488   6.78504   1.60034   0.00000   6.046E-02   0.000E+00   9.395E-01
 389  7.75281677   0.692  -1.63990   3.53488   6.78535   1.60166   0.00000   6.097E-02   0.000E+00   9.390E-01
 390  7.75398409   0.692  -1.64066   3.53489   6.78567   1.60299   0.00000   6.149E-02   0.000E+00   9.385E-01
 391  7.75514828   0.692  -1.64141   3.53489   6.78598   1.60431   0.00000   6.200E-02   0.000E+00   9.380E-01
 392  7.77396318   0.692  -1.65283   3.53494   6.79081   1.62465   0.00000   7.191E-02   0.000E+00   9.281E-01
 393  7.79199670   0.692  -1.66376   3.53499   6.79549   1.64424   0.00000   8.237E-02   0.000E+00   9.176E-01
 394  7.80931116   0.692  -1.67418   3.53505   6.79998   1.66303   0.00000   9.341E-02   0.000E+00   9.066E-01
 395  7.82596170   0.692  -1.68378   3.53511   6.80421   1.68051   0.00000   1.057E-01   0.000E+00   8.943E-01
 396  7.84199738   0.692  -1.69316   3.53518   6.80836   1.69762   0.00000   1.183E-01   0.000E+00   8.817E-01
 397  7.85746199   0.692  -1.70172   3.53525   6.81224   1.71338   0.00000   1.319E-01   0.000E+00   8.681E-01
 398  7.87239481   0.692  -1.71012   3.53532   6.81607   1.72884   0.00000   1.459E-01   0.000E+00   8.541E-01
 399  7.88683120   0.692  -1.71781   3.53539   6.81966   1.74304   0.00000   1.617E-01   0.000E+00   8.383E-01
 400  7.90080311   0.692  -1.72542   3.53547   6.82322   1.75709   0.00000   1.776E-01   0.000E+00   8.224E-01
 401  7.91433950   0.692  -1.73226   3.53554   6.82656   1.76978   0.00000   1.945E-01   0.000E+00   8.055E-01
 402  7.92746669   0.692  -1.73911   3.53561   6.82989   1.78247   0.00000   2.114E-01   0.000E+00   7.886E-01
 403  7.94020871   0.692  -1.74532   3.53569   6.83301   1.79392   0.00000   2.294E-01   0.000E+00   7.706E-01
 404  7.95258752   0.692  -1.75136   3.53576   6.83607   1.80504   0.00000   2.477E-01   0.000E+00   7.523E-01
 405  7.96462324   0.692  -1.75722   3.53582   6.83907   1.81580   0.00000   2.664E-01   0.000E+00   7.336E-01
 406  7.97633440   0.692  -1.76248   3.53589   6.84186   1.82533   0.00000   2.860E-01   0.000E+00   7.140E-01
 407  7.98773802   0.692  -1.76775   3.53595   6.84464   1.83486   0.00000   3.056E-01   0.000E+00   6.944E-01
 408  7.99884986   0.692  -1.77276   3.53601   6.84734   1.84385   0.00000   3.255E-01   0.000E+00   6.745E-01
 409  8.00968446   0.692  -1.77723   3.53607   6.84984   1.85170   0.00000   3.459E-01   0.000E+00   6.541E-01
 410  8.02025534   0.692  -1.78171   3.53612   6.85234   1.85955   0.00000   3.662E-01   0.000E+00   6.338E-01
 411  8.03057502   0.692  -1.78619   3.53618   6.85483   1.86741   0.00000   3.866E-01   0.000E+00   6.134E-01
 412  8.04065516   0.692  -1.78993   3.53622   6.85702   1.87363   0.00000   4.067E-01   0.000E+00   5.933E-01
 413  8.05050664   0.692  -1.79365   3.53627   6.85921   1.87982   0.00000   4.269E-01   0.000E+00   5.731E-01
 414  8.06013960   0.692  -1.79737   3.53632   6.86139   1.88602   0.00000   4.470E-01   0.000E+00   5.530E-01
 415  8.06956352   0.692  -1.80109   3.53636   6.86357   1.89219   0.00000   4.672E-01   0.000E+00   5.328E-01
 416  8.07878728   0.692  -1.80406   3.53639   6.86539   1.89673   0.00000   4.864E-01   0.000E+00   5.136E-01
 417  8.08781921   0.692  -1.80703   3.53643   6.86722   1.90127   0.00000   5.055E-01   0.000E+00   4.945E-01
 418  8.09666712   0.692  -1.81000   3.53646   6.86904   1.90580   0.00000   5.247E-01   0.000E+00   4.753E-01
 419  8.10533837   0.692  -1.81298   3.53649   6.87087   1.91034   0.00000   5.439E-01   0.000E+00   4.561E-01
 420  8.11383987   0.692  -1.81587   3.53652   6.87265   1.91471   0.00000   5.629E-01   0.000E+00   4.371E-01
 421  8.12217814   0.692  -1.81810   3.53654   6.87408   1.91766   0.00000   5.798E-01   0.000E+00   4.202E-01
 422  8.13035933   0.692  -1.82033   3.53655   6.87552   1.92061   0.00000   5.967E-01   0.000E+00   4.033E-01
 423  8.13838924   0.692  -1.82256   3.53657   6.87696   1.92356   0.00000   6.137E-01   0.000E+00   3.863E-01
 424  8.14627338   0.692  -1.82480   3.53658   6.87839   1.92651   0.00000   6.306E-01   0.000E+00   3.694E-01
 425  8.15401694   0.692  -1.82703   3.53660   6.87983   1.92947   0.00000   6.475E-01   0.000E+00   3.525E-01
 426  8.16162485   0.692  -1.82926   3.53662   6.88126   1.93242   0.00000   6.645E-01   0.000E+00   3.355E-01
 427  8.16910177   0.691  -1.83096   3.53662   6.88239   1.93430   0.00000   6.785E-01   0.000E+00   3.215E-01
 428  8.17645215   0.691  -1.83246   3.53662   6.88340   1.93579   0.00000   6.914E-01   0.000E+00   3.086E-01
 429  8.18368019   0.691  -1.83396   3.53662   6.88442   1.93727   0.00000   7.044E-01   0.000E+00   2.956E-01
 430  8.19078989   0.691  -1.83546   3.53662   6.88543   1.93876   0.00000   7.173E-01   0.000E+00   2.827E-01
 431  8.19778508   0.691  -1.83697   3.53663   6.88644   1.94025   0.00000   7.302E-01   0.000E+00   2.698E-01
 432  8.20466938   0.691  -1.83847   3.53663   6.88746   1.94174   0.00000   7.432E-01   0.000E+00   2.568E-01
 433  8.21144625   0.691  -1.83997   3.53663   6.88847   1.94322   0.00000   7.561E-01   0.000E+00   2.439E-01
 434  8.21811900   0.691  -1.84147   3.53663   6.88948   1.94471   0.00000   7.691E-01   0.000E+00   2.309E-01
 435  8.22469078   0.691  -1.84297   3.53663   6.89050   1.94620   0.00000   7.820E-01   0.000E+00   2.180E-01
 436  8.23116458   0.691  -1.84398   3.53662   6.89122   1.94684   0.00018   7.915E-01   0.000E+00   2.085E-01
 437  8.23754331   0.691  -1.84484   3.53661   6.89186   1.94722   0.00041   7.999E-01   0.000E+00   2.001E-01
 438  8.24382970   0.691  -1.84569   3.53660   6.89249   1.94760   0.00064   8.083E-01   0.000E+00   1.917E-01
 439  8.25002639   0.691  -1.84655   3.53659   6.89313   1.94799   0.00087   8.167E-01   0.000E+00   1.833E-01
 440  8.25613591   0.691  -1.84741   3.53659   6.89377   1.94837   0.00110   8.251E-01   0.000E+00   1.749E-01
 441  8.26216067   0.691  -1.84826   3.53658   6.89440   1.94875   0.00134   8.335E-01   0.000E+00   1.665E-01
 442  8.26810299   0.691  -1.84912   3.53657   6.89504   1.94914   0.00157   8.419E-01   0.000E+00   1.581E-01
 443  8.27396510   0.691  -1.84997   3.53656   6.89568   1.94952   0.00180   8.503E-01   0.000E+00   1.497E-01
 444  8.27974914   0.691  -1.85083   3.53655   6.89631   1.94991   0.00203   8.587E-01   0.000E+00   1.413E-01
 445  8.28545716   0.691  -1.85169   3.53654   6.89695   1.95029   0.00226   8.671E-01   0.000E+00   1.329E-01
 446  8.29109113   0.691  -1.85254   3.53653   6.89759   1.95067   0.00249   8.755E-01   0.000E+00   1.245E-01
 447  8.29665295   0.691  -1.85340   3.53652   6.89822   1.95106   0.00273   8.839E-01   0.000E+00   1.161E-01
 448  8.30214443   0.691  -1.85424   3.53651   6.89885   1.95142   0.00296   8.921E-01   0.000E+00   1.079E-01
 449  8.30756735   0.691  -1.85459   3.53650   6.89911   1.95118   0.00341   8.965E-01   0.000E+00   1.035E-01
 450  8.31292339   0.691  -1.85494   3.53648   6.89938   1.95094   0.00386   9.008E-01   0.000E+00   9.920E-02
 451  8.31821417   0.691  -1.85529   3.53647   6.89965   1.95070   0.00430   9.052E-01   0.000E+00   9.487E-02
 452  8.32344128   0.691  -1.85564   3.53646   6.89992   1.95045   0.00475   9.095E-01   0.000E+00   9.054E-02
 453  8.32860622   0.691  -1.85599   3.53644   6.90018   1.95021   0.00519   9.138E-01   0.000E+00   8.620E-02
 454  8.33371045   0.691  -1.85634   3.53643   6.90045   1.94997   0.00564   9.182E-01   0.000E+00   8.187E-02
 455  8.33875539   0.691  -1.85669   3.53642   6.90072   1.94973   0.00608   9.225E-01   0.000E+00   7.754E-02
 456  8.34374241   0.691  -1.85704   3.53640   6.90098   1.94948   0.00653   9.269E-01   0.000E+00   7.321E-02
 457  8.34867280   0.691  -1.85739   3.53639   6.90125   1.94924   0.00698   9.312E-01   0.000E+00   6.887E-02
 458  8.35354785   0.691  -1.85774   3.53638   6.90152   1.94900   0.00742   9.356E-01   0.000E+00   6.454E-02
 459  8.35836878   0.691  -1.85809   3.53637   6.90178   1.94876   0.00787   9.399E-01   0.000E+00   6.021E-02
 460  8.36313679   0.691  -1.85844   3.53635   6.90205   1.94852   0.00831   9.443E-01   0.000E+00   5.587E-02
 461  8.36785301   0.691  -1.85878   3.53634   6.90232   1.94827   0.00876   9.486E-01   0.000E+00   5.154E-02
 462  8.37251857   0.691  -1.85913   3.53633   6.90258   1.94803   0.00921   9.529E-01   0.000E+00   4.721E-02
 463  8.37713454   0.691  -1.85948   3.53631   6.90285   1.94779   0.00965   9.573E-01   0.000E+00   4.288E-02
 464  8.38170196   0.691  -1.85983   3.53630   6.90312   1.94755   0.01010   9.616E-01   0.000E+00   3.854E-02
 465  8.38622185   0.691  -1.86018   3.53629   6.90339   1.94730   0.01054   9.660E-01   0.000E+00   3.421E-02
 466  8.39069518   0.690  -1.86053   3.53627   6.90365   1.94706   0.01099   9.703E-01   0.000E+00   2.988E-02
 467  8.39512291   0.690  -1.86088   3.53626   6.90392   1.94682   0.01143   9.747E-01   0.000E+00   2.554E-02
 468  8.39950595   0.690  -1.86089   3.53621   6.90420   1.94434   0.01470   9.988E-01   0.000E+00   1.346E-03
 469  8.40384519   0.690  -1.86086   3.53617   6.90447   1.94167   0.01821   1.025E+00   0.000E+00  -2.457E-02
 470  8.40814151   0.690  -1.86084   3.53612   6.90475   1.93900   0.02172   1.051E+00   0.000E+00  -5.049E-02
 471  8.41239575   0.690  -1.86081   3.53607   6.90503   1.93632   0.02524   1.076E+00   0.000E+00  -7.640E-02
 472  8.41660871   0.691  -1.86079   3.53602   6.90531   1.93365   0.02875   1.102E+00   0.000E+00  -1.023E-01
 473  8.42078120   0.691  -1.86068   3.53597   6.90549   1.93090   0.03195   1.125E+00   0.000E+00  -1.250E-01
 474  8.42491398   0.691  -1.86026   3.53591   6.90529   1.92786   0.03391   1.135E+00   0.000E+00  -1.348E-01
 475  8.42900780   0.691  -1.85983   3.53585   6.90510   1.92481   0.03587   1.145E+00   0.000E+00  -1.446E-01
 476  8.43306339   0.691  -1.85940   3.53579   6.90490   1.92176   0.03784   1.154E+00   0.000E+00  -1.544E-01
 477  8.43708146   0.691  -1.85897   3.53574   6.90471   1.91871   0.03980   1.164E+00   0.000E+00  -1.642E-01
 478  8.44106270   0.691  -1.85854   3.53568   6.90451   1.91567   0.04176   1.174E+00   0.000E+00  -1.739E-01
 479  8.44500777   0.691  -1.85812   3.53562   6.90432   1.91262   0.04373   1.184E+00   0.000E+00  -1.837E-01
 480  8.44891733   0.691  -1.85769   3.53556   6.90412   1.90957   0.04569   1.194E+00   0.000E+00  -1.935E-01
 481  8.45279201   0.691  -1.85726   3.53550   6.90392   1.90652   0.04765   1.203E+00   0.000E+00  -2.033E-01
 482  8.45663242   0.691  -1.85661   3.53545   6.90362   1.90344   0.05008   1.211E+00   0.000E+00  -2.110E-01
 483  8.46043917   0.691  -1.85582   3.53540   6.90324   1.90033   0.05278   1.217E+00   0.000E+00  -2.174E-01
 484  8.46421284   0.691  -1.85503   3.53536   6.90286   1.89722   0.05549   1.224E+00   0.000E+00  -2.238E-01
 485  8.46795401   0.691  -1.85424   3.53531   6.90249   1.89411   0.05819   1.230E+00   0.000E+00  -2.302E-01
 486  8.47166322   0.691  -1.85345   3.53526   6.90211   1.89100   0.06090   1.237E+00   0.000E+00  -2.366E-01
 487  8.47534102   0.691  -1.85252   3.53525   6.90166   1.88925   0.05285   1.228E+00   0.000E+00  -2.281E-01
 488  8.47898794   0.691  -1.85157   3.53524   6.90120   1.88758   0.04416   1.219E+00   0.000E+00  -2.187E-01
 489  8.48260448   0.691  -1.85062   3.53523   6.90075   1.88591   0.03547   1.209E+00   0.000E+00  -2.093E-01
 490  8.48619116   0.691  -1.84967   3.53522   6.90029   1.88425   0.02677   1.200E+00   0.000E+00  -1.999E-01
 491  8.48974846   0.691  -1.84872   3.53520   6.89984   1.88258   0.01808   1.191E+00   0.000E+00  -1.905E-01
 492  8.49327686   0.691  -1.84777   3.53519   6.89938   1.88091   0.00938   1.181E+00   0.000E+00  -1.811E-01
 493  8.49677683   0.691  -1.84683   3.53518   6.89893   1.87924   0.00069   1.172E+00   0.000E+00  -1.717E-01
 494  8.50024881   0.691  -1.84727   3.53523   6.89869   1.88245   0.00000   1.140E+00   0.000E+00  -1.396E-01
 495  8.50369326   0.691  -1.84783   3.53528   6.89848   1.88608   0.00000   1.106E+00   0.000E+00  -1.055E-01
 496  8.50711060   0.691  -1.84840   3.53533   6.89826   1.88971   0.00000   1.071E+00   0.000E+00  -7.146E-02
 497  8.51050126   0.691  -1.84896   3.53538   6.89805   1.89334   0.00000   1.037E+00   0.000E+00  -3.738E-02
 498  8.51386566   0.691  -1.84953   3.53543   6.89783   1.89697   0.00000   1.003E+00   0.000E+00  -3.295E-03
 499  8.51720419   0.691  -1.85009   3.53548   6.89761   1.90060   0.00000   9.692E-01   0.000E+00   3.079E-02
 500  8.52051725   0.691  -1.85066   3.53553   6.89740   1.90423   0.00000   9.351E-01   0.000E+00   6.487E-02
 501  8.52380523   0.692  -1.85122   3.53559   6.89718   1.90786   0.00000   9.010E-01   0.000E+00   9.895E-02
 502  8.52706851   0.692  -1.85179   3.53564   6.89697   1.91149   0.00000   8.670E-01   0.000E+00   1.330E-01
 503  8.53030745   0.692  -1.85235   3.53569   6.89675   1.91513   0.00000   8.329E-01   0.000E+00   1.671E-01
 504  8.53352241   0.692  -1.85285   3.53573   6.89672   1.91790   0.00008   8.146E-01   0.000E+00   1.854E-01
 505  8.53671374   0.692  -1.85323   3.53575   6.89699   1.91931   0.00028   8.213E-01   0.000E+00   1.787E-01
 506  8.53988180   0.692  -1.85361   3.53578   6.89726   1.92072   0.00047   8.281E-01   0.000E+00   1.719E-01
 507  8.54302691   0.692  -1.85400   3.53580   6.89752   1.92213   0.00067   8.348E-01   0.000E+00   1.652E-01
 508  8.54614941   0.692  -1.85438   3.53582   6.89779   1.92355   0.00087   8.415E-01   0.000E+00   1.585E-01
 509  8.54924962   0.692  -1.85476   3.53585   6.89806   1.92496   0.00107   8.483E-01   0.000E+00   1.517E-01
 510  8.55232786   0.692  -1.85514   3.53587   6.89832   1.92637   0.00127   8.550E-01   0.000E+00   1.450E-01
 511  8.55538443   0.692  -1.85553   3.53590   6.89859   1.92778   0.00147   8.617E-01   0.000E+00   1.383E-01
 512  8.55841964   0.692  -1.85591   3.53592   6.89886   1.92920   0.00166   8.684E-01   0.000E+00   1.316E-01
 513  8.56143379   0.692  -1.85629   3.53594   6.89912   1.93061   0.00186   8.752E-01   0.000E+00   1.248E-01
 514  8.56442715   0.692  -1.85667   3.53597   6.89939   1.93202   0.00206   8.819E-01   0.000E+00   1.181E-01
 515  8.56740003   0.692  -1.85706   3.53599   6.89966   1.93343   0.00226   8.886E-01   0.000E+00   1.114E-01
 516  8.57035270   0.691  -1.85731   3.53600   6.89988   1.93405   0.00267   8.937E-01   0.000E+00   1.063E-01
 517  8.57328543   0.691  -1.85750   3.53600   6.90008   1.93422   0.00319   8.979E-01   0.000E+00   1.020E-01
 518  8.57619848   0.691  -1.85769   3.53601   6.90028   1.93440   0.00370   9.021E-01   0.000E+00   9.779E-02
 519  8.57909213   0.691  -1.85788   3.53601   6.90048   1.93458   0.00422   9.063E-01   0.000E+00   9.356E-02
 520  8.58196662   0.691  -1.85807   3.53601   6.90068   1.93476   0.00474   9.105E-01   0.000E+00   8.933E-02
 521  8.58482222   0.691  -1.85826   3.53601   6.90088   1.93494   0.00526   9.147E-01   0.000E+00   8.510E-02
 522  8.58765916   0.691  -1.85845   3.53602   6.90108   1.93512   0.00578   9.189E-01   0.000E+00   8.087E-02
 523  8.59047768   0.691  -1.85864   3.53602   6.90128   1.93529   0.00630   9.231E-01   0.000E+00   7.664E-02
 524  8.59327804   0.691  -1.85883   3.53602   6.90148   1.93547   0.00682   9.273E-01   0.000E+00   7.241E-02
 525  8.59606045   0.691  -1.85902   3.53602   6.90168   1.93565   0.00734   9.315E-01   0.000E+00   6.818E-02
 526  8.59882515   0.691  -1.85921   3.53602   6.90188   1.93583   0.00786   9.358E-01   0.000E+00   6.395E-02
 527  8.60157236   0.691  -1.85940   3.53603   6.90208   1.93601   0.00838   9.400E-01   0.000E+00   5.972E-02
 528  8.60430231   0.691  -1.85959   3.53603   6.90228   1.93619   0.00890   9.442E-01   0.000E+00   5.548E-02
 529  8.60701520   0.691  -1.85978   3.53603   6.90248   1.93636   0.00941   9.484E-01   0.000E+00   5.125E-02
 530  8.60971124   0.691  -1.85997   3.53603   6.90268   1.93654   0.00993   9.526E-01   0.000E+00   4.702E-02
 531  8.61239066   0.691  -1.86016   3.53604   6.90288   1.93672   0.01045   9.568E-01   0.000E+00   4.279E-02
 532  8.61505364   0.691  -1.86035   3.53604   6.90308   1.93690   0.01097   9.610E-01   0.000E+00   3.856E-02
 533  8.61770040   0.691  -1.86053   3.53604   6.90327   1.93706   0.01148   9.651E-01   0.000E+00   3.439E-02
 534  8.62033112   0.691  -1.86063   3.53604   6.90338   1.93690   0.01184   9.680E-01   0.000E+00   3.156E-02
 535  8.62294601   0.691  -1.86072   3.53603   6.90349   1.93673   0.01219   9.708E-01   0.000E+00   2.874E-02
 536  8.62554524   0.691  -1.86081   3.53603   6.90360   1.93657   0.01254   9.736E-01   0.000E+00   2.591E-02
 537  8.62812901   0.691  -1.86090   3.53602   6.90370   1.93640   0.01289   9.765E-01   0.000E+00   2.309E-02
 538  8.63069750   0.691  -1.86100   3.53602   6.90381   1.93624   0.01324   9.793E-01   0.000E+00   2.026E-02
 539  8.63325089   0.691  -1.86109   3.53602   6.90392   1.93607   0.01360   9.822E-01   0.000E+00   1.744E-02
 540  8.63578935   0.691  -1.86118   3.53601   6.90402   1.93590   0.01395   9.850E-01   0.000E+00   1.462E-02
 541  8.63831306   0.691  -1.86128   3.53601   6.90413   1.93574   0.01430   9.878E-01   0.000E+00   1.179E-02
 542  8.64082219   0.691  -1.86137   3.53601   6.90424   1.93557   0.01465   9.907E-01   0.000E+00   8.967E-03
 543  8.64331691   0.691  -1.86146   3.53600   6.90434   1.93541   0.01501   9.935E-01   0.000E+00   6.143E-03
 544  8.64579738   0.691  -1.86151   3.53600   6.90441   1.93515   0.01538   9.957E-01   0.000E+00   3.981E-03
 545  8.64826376   0.691  -1.86150   3.53599   6.90444   1.93479   0.01578   9.971E-01   0.000E+00   2.551E-03
 546  8.65071622   0.691  -1.86149   3.53598   6.90447   1.93443   0.01618   9.986E-01   0.000E+00   1.121E-03
 547  8.65315490   0.691  -1.86148   3.53597   6.90451   1.93407   0.01657   1.000E+00   0.000E+00  -3.088E-04
 548  8.65557997   0.691  -1.86148   3.53597   6.90454   1.93370   0.01697   1.001E+00   0.000E+00  -1.739E-03
 549  8.65799157   0.691  -1.86147   3.53596   6.90457   1.93334   0.01737   1.003E+00   0.000E+00  -3.169E-03
 550  8.66038985   0.691  -1.86146   3.53595   6.90460   1.93298   0.01777   1.004E+00   0.000E+00  -4.598E-03
 551  8.66277496   0.691  -1.86145   3.53594   6.90463   1.93262   0.01817   1.006E+00   0.000E+00  -6.028E-03
 552  8.66514705   0.691  -1.86145   3.53594   6.90466   1.93226   0.01856   1.007E+00   0.000E+00  -7.458E-03
 553  8.66750624   0.691  -1.86144   3.53593   6.90469   1.93190   0.01896   1.009E+00   0.000E+00  -8.888E-03
 554  8.66985270   0.691  -1.86143   3.53592   6.90472   1.93154   0.01936   1.010E+00   0.000E+00  -1.032E-02
 555  8.67218654   0.691  -1.86142   3.53591   6.90475   1.93118   0.01976   1.012E+00   0.000E+00  -1.175E-02
 556  8.67450790   0.691  -1.86142   3.53591   6.90478   1.93082   0.02016   1.013E+00   0.000E+00  -1.318E-02
 557  8.67681693   0.691  -1.86141   3.53590   6.90481   1.93046   0.02056   1.015E+00   0.000E+00  -1.461E-02
 558  8.67911374   0.691  -1.86140   3.53589   6.90484   1.93010   0.02095   1.016E+00   0.000E+00  -1.604E-02
 559  8.68139847   0.691  -1.86139   3.53588   6.90487   1.92973   0.02135   1.017E+00   0.000E+00  -1.747E-02
 560  8.68367125   0.691  -1.86134   3.53588   6.90487   1.92936   0.02161   1.018E+00   0.000E+00  -1.824E-02
 561  8.68593219   0.691  -1.86126   3.53587   6.90485   1.92898   0.02179   1.019E+00   0.000E+00  -1.862E-02
 562  8.68818142   0.691  -1.86119   3.53586   6.90482   1.92860   0.02197   1.019E+00   0.000E+00  -1.899E-02
 563  8.69041907   0.691  -1.86111   3.53586   6.90480   1.92822   0.02215   1.019E+00   0.000E+00  -1.937E-02
 564  8.69264524   0.691  -1.86103   3.53585   6.90478   1.92784   0.02232   1.020E+00   0.000E+00  -1.975E-02
 565  8.69486006   0.691  -1.86095   3.53585   6.90476   1.92746   0.02250   1.020E+00   0.000E+00  -2.013E-02
 566  8.69706364   0.691  -1.86087   3.53584   6.90474   1.92708   0.02268   1.021E+00   0.000E+00  -2.051E-02
 567  8.69925610   0.690  -1.86080   3.53584   6.90472   1.92670   0.02286   1.021E+00   0.000E+00  -2.089E-02
 568  8.70143754   0.690  -1.86072   3.53583   6.90470   1.92632   0.02304   1.021E+00   0.000E+00  -2.127E-02
 569  8.70360809   0.690  -1.86064   3.53582   6.90468   1.92593   0.02321   1.022E+00   0.000E+00  -2.164E-02
 570  8.70576784   0.690  -1.86056   3.53582   6.90466   1.92555   0.02339   1.022E+00   0.000E+00  -2.202E-02
 571  8.70791690   0.690  -1.86049   3.53581   6.90464   1.92517   0.02357   1.022E+00   0.000E+00  -2.240E-02
 572  8.71005538   0.690  -1.86041   3.53581   6.90461   1.92479   0.02375   1.023E+00   0.000E+00  -2.278E-02
 573  8.71218338   0.690  -1.86033   3.53580   6.90459   1.92441   0.02392   1.023E+00   0.000E+00  -2.316E-02
 574  8.71430100   0.690  -1.86025   3.53579   6.90457   1.92403   0.02410   1.024E+00   0.000E+00  -2.354E-02
 575  8.71640835   0.690  -1.86017   3.53579   6.90455   1.92365   0.02428   1.024E+00   0.000E+00  -2.392E-02
 576  8.71850552   0.690  -1.86010   3.53578   6.90453   1.92327   0.02446   1.024E+00   0.000E+00  -2.430E-02
 577  8.72059262   0.690  -1.86002   3.53578   6.90451   1.92289   0.02464   1.025E+00   0.000E+00  -2.467E-02
 578  8.72266973   0.690  -1.85994   3.53577   6.90449   1.92251   0.02481   1.025E+00   0.000E+00  -2.505E-02
 579  8.72473696   0.690  -1.85986   3.53576   6.90447   1.92213   0.02499   1.025E+00   0.000E+00  -2.543E-02
 580  8.72679439   0.690  -1.85978   3.53576   6.90445   1.92175   0.02517   1.026E+00   0.000E+00  -2.581E-02
 581  8.72884212   0.690  -1.85971   3.53575   6.90443   1.92137   0.02535   1.026E+00   0.000E+00  -2.619E-02
 582  8.73088024   0.690  -1.85963   3.53575   6.90440   1.92099   0.02553   1.027E+00   0.000E+00  -2.657E-02
 583  8.73290884   0.690  -1.85955   3.53574   6.90438   1.92060   0.02570   1.027E+00   0.000E+00  -2.695E-02
 584  8.73492801   0.690  -1.85946   3.53574   6.90435   1.92027   0.02584   1.027E+00   0.000E+00  -2.696E-02
 585  8.73693784   0.690  -1.85936   3.53573   6.90431   1.91995   0.02596   1.027E+00   0.000E+00  -2.692E-02
 586  8.73893840   0.690  -1.85926   3.53573   6.90427   1.91963   0.02609   1.027E+00   0.000E+00  -2.688E-02
 587  8.74092980   0.690  -1.85916   3.53572   6.90424   1.91931   0.02621   1.027E+00   0.000E+00  -2.684E-02
 588  8.74291210   0.690  -1.85906   3.53572   6.90420   1.91899   0.02634   1.027E+00   0.000E+00  -2.679E-02
 589  8.74488540   0.690  -1.85896   3.53571   6.90416   1.91867   0.02646   1.027E+00   0.000E+00  -2.675E-02
 590  8.74684977   0.690  -1.85886   3.53571   6.90413   1.91834   0.02658   1.027E+00   0.000E+00  -2.671E-02
 591  8.74880530   0.690  -1.85877   3.53570   6.90409   1.91802   0.02671   1.027E+00   0.000E+00  -2.666E-02
 592  8.75075206   0.690  -1.85867   3.53570   6.90405   1.91770   0.02683   1.027E+00   0.000E+00  -2.662E-02
 593  8.75269013   0.690  -1.85857   3.53569   6.90402   1.91738   0.02696   1.027E+00   0.000E+00  -2.658E-02
 594  8.75461959   0.690  -1.85847   3.53569   6.90398   1.91706   0.02708   1.027E+00   0.000E+00  -2.654E-02
 595  8.75654052   0.690  -1.85837   3.53568   6.90394   1.91674   0.02721   1.027E+00   0.000E+00  -2.649E-02
 596  8.75845299   0.690  -1.85827   3.53568   6.90391   1.91641   0.02733   1.027E+00   0.000E+00  -2.645E-02
 597  8.76035707   0.690  -1.85817   3.53568   6.90387   1.91609   0.02746   1.026E+00   0.000E+00  -2.641E-02
 598  8.76225285   0.690  -1.85808   3.53567   6.90383   1.91577   0.02758   1.026E+00   0.000E+00  -2.637E-02
 599  8.76414038   0.690  -1.85798   3.53567   6.90380   1.91545   0.02771   1.026E+00   0.000E+00  -2.632E-02
 600  8.76601975   0.690  -1.85788   3.53566   6.90376   1.91513   0.02783   1.026E+00   0.000E+00  -2.628E-02
 601  8.76789101   0.690  -1.85778   3.53566   6.90372   1.91480   0.02795   1.026E+00   0.000E+00  -2.624E-02
 602  8.76975425   0.690  -1.85768   3.53565   6.90368   1.91448   0.02808   1.026E+00   0.000E+00  -2.619E-02
 603  8.77160953   0.690  -1.85758   3.53565   6.90365   1.91416   0.02820   1.026E+00   0.000E+00  -2.615E-02
 604  8.77345692   0.690  -1.85748   3.53564   6.90361   1.91384   0.02833   1.026E+00   0.000E+00  -2.611E-02
 605  8.77529648   0.690  -1.85739   3.53564   6.90357   1.91352   0.02845   1.026E+00   0.000E+00  -2.607E-02
 606  8.77712829   0.690  -1.85729   3.53563   6.90354   1.91320   0.02858   1.026E+00   0.000E+00  -2.602E-02
 607  8.77895239   0.690  -1.85719   3.53563   6.90350   1.91287   0.02870   1.026E+00   0.000E+00  -2.598E-02
 608  8.78076888   0.690  -1.85709   3.53562   6.90346   1.91255   0.02883   1.026E+00   0.000E+00  -2.594E-02
 609  8.78257779   0.690  -1.85699   3.53562   6.90343   1.91224   0.02895   1.026E+00   0.000E+00  -2.588E-02
 610  8.78437920   0.690  -1.85689   3.53562   6.90339   1.91197   0.02908   1.026E+00   0.000E+00  -2.570E-02
 611  8.78617317   0.690  -1.85680   3.53561   6.90335   1.91171   0.02921   1.026E+00   0.000E+00  -2.552E-02
 612  8.78795976   0.690  -1.85670   3.53561   6.90331   1.91145   0.02934   1.025E+00   0.000E+00  -2.534E-02
 613  8.78973903   0.690  -1.85661   3.53561   6.90327   1.91118   0.02947   1.025E+00   0.000E+00  -2.515E-02
 614  8.79151104   0.690  -1.85651   3.53560   6.90324   1.91092   0.02960   1.025E+00   0.000E+00  -2.497E-02
 615  8.79327585   0.690  -1.85641   3.53560   6.90320   1.91066   0.02973   1.025E+00   0.000E+00  -2.479E-02
 616  8.79503352   0.690  -1.85632   3.53560   6.90316   1.91040   0.02985   1.025E+00   0.000E+00  -2.460E-02
 617  8.79678410   0.690  -1.85622   3.53560   6.90312   1.91013   0.02998   1.024E+00   0.000E+00  -2.442E-02
 618  8.79852765   0.690  -1.85612   3.53559   6.90308   1.90987   0.03011   1.024E+00   0.000E+00  -2.424E-02
 619  8.80026423   0.690  -1.85603   3.53559   6.90305   1.90961   0.03024   1.024E+00   0.000E+00  -2.406E-02
 620  8.80199390   0.690  -1.85593   3.53559   6.90301   1.90935   0.03037   1.024E+00   0.000E+00  -2.387E-02
 621  8.80371671   0.690  -1.85584   3.53558   6.90297   1.90908   0.03050   1.024E+00   0.000E+00  -2.369E-02
 622  8.80543270   0.690  -1.85574   3.53558   6.90293   1.90882   0.03063   1.023E+00   0.000E+00  -2.351E-02
 623  8.80714195   0.690  -1.85564   3.53558   6.90289   1.90856   0.03076   1.023E+00   0.000E+00  -2.333E-02
 624  8.80884449   0.690  -1.85555   3.53558   6.90286   1.90830   0.03088   1.023E+00   0.000E+00  -2.314E-02
 625  8.81054038   0.690  -1.85545   3.53557   6.90282   1.90803   0.03101   1.023E+00   0.000E+00  -2.296E-02
 626  8.81222968   0.690  -1.85535   3.53557   6.90278   1.90777   0.03114   1.023E+00   0.000E+00  -2.278E-02
 627  8.81391243   0.690  -1.85526   3.53557   6.90274   1.90751   0.03127   1.022E+00   0.000E+00  -2.259E-02
 628  8.81558869   0.690  -1.85516   3.53556   6.90270   1.90725   0.03140   1.022E+00   0.000E+00  -2.241E-02
 629  8.81725850   0.690  -1.85507   3.53556   6.90267   1.90698   0.03153   1.022E+00   0.000E+00  -2.223E-02
 630  8.81892192   0.690  -1.85498   3.53556   6.90263   1.90675   0.03162   1.022E+00   0.000E+00  -2.212E-02
 631  8.82057899   0.690  -1.85489   3.53556   6.90260   1.90653   0.03171   1.022E+00   0.000E+00  -2.202E-02
 632  8.82222976   0.689  -1.85480   3.53555   6.90256   1.90631   0.03180   1.022E+00   0.000E+00  -2.192E-02
 633  8.82387428   0.689  -1.85471   3.53555   6.90253   1.90609   0.03189   1.022E+00   0.000E+00  -2.182E-02
 634  8.82551260   0.689  -1.85463   3.53555   6.90249   1.90587   0.03198   1.022E+00   0.000E+00  -2.172E-02
 635  8.82714476   0.689  -1.85454   3.53555   6.90246   1.90565   0.03207   1.021E+00   0.000E+00  -2.162E-02
 636  8.82877081   0.689  -1.85445   3.53554   6.90242   1.90543   0.03216   1.021E+00   0.000E+00  -2.152E-02
 637  8.83039079   0.689  -1.85436   3.53554   6.90239   1.90520   0.03225   1.021E+00   0.000E+00  -2.143E-02
 638  8.83200476   0.689  -1.85428   3.53554   6.90235   1.90498   0.03234   1.021E+00   0.000E+00  -2.133E-02
 639  8.83361274   0.689  -1.85419   3.53554   6.90232   1.90476   0.03242   1.021E+00   0.000E+00  -2.123E-02
 640  8.83521480   0.689  -1.85410   3.53554   6.90229   1.90454   0.03251   1.021E+00   0.000E+00  -2.113E-02
 641  8.83681097   0.689  -1.85401   3.53553   6.90225   1.90432   0.03260   1.021E+00   0.000E+00  -2.103E-02
 642  8.83840129   0.689  -1.85393   3.53553   6.90222   1.90410   0.03269   1.021E+00   0.000E+00  -2.093E-02
 643  8.83998581   0.689  -1.85384   3.53553   6.90218   1.90387   0.03278   1.021E+00   0.000E+00  -2.083E-02
 644  8.84156457   0.689  -1.85375   3.53553   6.90215   1.90365   0.03287   1.021E+00   0.000E+00  -2.073E-02
 645  8.84313761   0.689  -1.85366   3.53552   6.90211   1.90343   0.03296   1.020E+00   0.000E+00  -2.064E-02
 646  8.84470498   0.689  -1.85358   3.53552   6.90208   1.90321   0.03305   1.020E+00   0.000E+00  -2.054E-02
 647  8.84626670   0.689  -1.85349   3.53552   6.90204   1.90299   0.03314   1.020E+00   0.000E+00  -2.044E-02
 648  8.84782284   0.689  -1.85340   3.53552   6.90201   1.90277   0.03322   1.020E+00   0.000E+00  -2.034E-02
 649  8.84937341   0.689  -1.85331   3.53551   6.90197   1.90255   0.03331   1.020E+00   0.000E+00  -2.024E-02
 650  8.85091847   0.689  -1.85323   3.53551   6.90194   1.90232   0.03340   1.020E+00   0.000E+00  -2.014E-02
 651  8.85245806   0.689  -1.85314   3.53551   6.90191   1.90210   0.03349   1.020E+00   0.000E+00  -2.004E-02
 652  8.85399220   0.689  -1.85305   3.53551   6.90187   1.90188   0.03358   1.020E+00   0.000E+00  -1.994E-02
 653  8.85552094   0.689  -1.85296   3.53551   6.90184   1.90166   0.03367   1.020E+00   0.000E+00  -1.985E-02
 654  8.85704433   0.689  -1.85288   3.53550   6.90180   1.90144   0.03376   1.020E+00   0.000E+00  -1.975E-02
 655  8.85856238   0.689  -1.85279   3.53550   6.90177   1.90122   0.03385   1.019E+00   0.000E+00  -1.965E-02
 656  8.86007515   0.689  -1.85270   3.53550   6.90173   1.90099   0.03394   1.019E+00   0.000E+00  -1.955E-02
 657  8.86158267   0.689  -1.85261   3.53550   6.90170   1.90077   0.03402   1.019E+00   0.000E+00  -1.945E-02
 658  8.86308497   0.689  -1.85253   3.53549   6.90166   1.90055   0.03411   1.019E+00   0.000E+00  -1.935E-02
 659  8.86458210   0.689  -1.85244   3.53549   6.90163   1.90033   0.03420   1.019E+00   0.000E+00  -1.925E-02
 660  8.86607408   0.689  -1.85236   3.53549   6.90160   1.90013   0.03429   1.019E+00   0.000E+00  -1.917E-02
 661  8.86756095   0.689  -1.85228   3.53549   6.90157   1.89995   0.03436   1.019E+00   0.000E+00  -1.909E-02
 662  8.86904275   0.689  -1.85220   3.53549   6.90154   1.89977   0.03444   1.019E+00   0.000E+00  -1.902E-02
 663  8.87051951   0.689  -1.85213   3.53548   6.90151   1.89959   0.03452   1.019E+00   0.000E+00  -1.895E-02
 664  8.87199127   0.689  -1.85205   3.53548   6.90148   1.89941   0.03460   1.019E+00   0.000E+00  -1.888E-02
 665  8.87345805   0.689  -1.85197   3.53548   6.90145   1.89923   0.03467   1.019E+00   0.000E+00  -1.880E-02
 666  8.87491990   0.689  -1.85190   3.53548   6.90142   1.89905   0.03475   1.019E+00   0.000E+00  -1.873E-02
 667  8.87637685   0.689  -1.85182   3.53548   6.90139   1.89887   0.03483   1.019E+00   0.000E+00  -1.866E-02
 668  8.87782892   0.689  -1.85175   3.53548   6.90136   1.89870   0.03491   1.018E+00   0.000E+00  -1.859E-02
 669  8.87927616   0.689  -1.85167   3.53547   6.90133   1.89852   0.03498   1.018E+00   0.000E+00  -1.852E-02
 670  8.88071858   0.689  -1.85159   3.53547   6.90130   1.89834   0.03506   1.018E+00   0.000E+00  -1.844E-02
 671  8.88215624   0.689  -1.85152   3.53547   6.90127   1.89816   0.03514   1.018E+00   0.000E+00  -1.837E-02
 672  8.88358914   0.689  -1.85144   3.53547   6.90124   1.89798   0.03521   1.018E+00   0.000E+00  -1.830E-02
 673  8.88501734   0.689  -1.85137   3.53547   6.90121   1.89780   0.03529   1.018E+00   0.000E+00  -1.823E-02
 674  8.88644086   0.689  -1.85129   3.53546   6.90118   1.89762   0.03537   1.018E+00   0.000E+00  -1.815E-02
 675  8.88785972   0.689  -1.85121   3.53546   6.90115   1.89744   0.03545   1.018E+00   0.000E+00  -1.808E-02
 676  8.88927397   0.689  -1.85114   3.53546   6.90112   1.89726   0.03552   1.018E+00   0.000E+00  -1.801E-02
 677  8.89068362   0.689  -1.85106   3.53546   6.90109   1.89708   0.03560   1.018E+00   0.000E+00  -1.794E-02
 678  8.89208872   0.689  -1.85098   3.53546   6.90106   1.89691   0.03568   1.018E+00   0.000E+00  -1.786E-02
 679  8.89348928   0.689  -1.85091   3.53546   6.90103   1.89673   0.03576   1.018E+00   0.000E+00  -1.779E-02
 680  8.89488534   0.689  -1.85083   3.53545   6.90100   1.89655   0.03583   1.018E+00   0.000E+00  -1.772E-02
 681  8.89627692   0.689  -1.85076   3.53545   6.90097   1.89637   0.03591   1.018E+00   0.000E+00  -1.765E-02
 682  8.89766407   0.689  -1.85068   3.53545   6.90094   1.89619   0.03599   1.018E+00   0.000E+00  -1.757E-02
 683  8.89904679   0.689  -1.85060   3.53545   6.90092   1.89601   0.03607   1.017E+00   0.000E+00  -1.750E-02
 684  8.90042513   0.689  -1.85053   3.53545   6.90089   1.89583   0.03614   1.017E+00   0.000E+00  -1.743E-02
 685  8.90179911   0.689  -1.85045   3.53545   6.90086   1.89565   0.03622   1.017E+00   0.000E+00  -1.736E-02
 686  8.90316875   0.689  -1.85038   3.53544   6.90083   1.89547   0.03630   1.017E+00   0.000E+00  -1.728E-02
 687  8.90453409   0.689  -1.85030   3.53544   6.90080   1.89529   0.03638   1.017E+00   0.000E+00  -1.721E-02
 688  8.90589514   0.689  -1.85022   3.53544   6.90077   1.89511   0.03645   1.017E+00   0.000E+00  -1.714E-02
 689  8.90725195   0.689  -1.85015   3.53544   6.90074   1.89494   0.03653   1.017E+00   0.000E+00  -1.707E-02
 690  8.90860453   0.689  -1.85007   3.53544   6.90071   1.89476   0.03661   1.017E+00   0.000E+00  -1.699E-02
 691  8.90995291   0.689  -1.84999   3.53543   6.90068   1.89458   0.03669   1.017E+00   0.000E+00  -1.692E-02
 692  8.91129712   0.689  -1.84992   3.53543   6.90065   1.89440   0.03676   1.017E+00   0.000E+00  -1.685E-02
 693  8.91263718   0.689  -1.84984   3.53543   6.90062   1.89422   0.03684   1.017E+00   0.000E+00  -1.678E-02
 694  8.91397312   0.689  -1.84977   3.53543   6.90059   1.89404   0.03692   1.017E+00   0.000E+00  -1.670E-02
 695  8.91530496   0.689  -1.84969   3.53543   6.90056   1.89386   0.03700   1.017E+00   0.000E+00  -1.663E-02
 696  8.91663273   0.689  -1.84961   3.53543   6.90053   1.89368   0.03707   1.017E+00   0.000E+00  -1.656E-02
 697  8.91795645   0.689  -1.84954   3.53542   6.90050   1.89350   0.03715   1.017E+00   0.000E+00  -1.649E-02
 698  8.91927615   0.689  -1.84946   3.53542   6.90047   1.89332   0.03723   1.016E+00   0.000E+00  -1.642E-02
 699  8.92059185   0.689  -1.84939   3.53542   6.90044   1.89314   0.03731   1.016E+00   0.000E+00  -1.634E-02
 700  8.92190358   0.689  -1.84931   3.53542   6.90041   1.89297   0.03738   1.016E+00   0.000E+00  -1.627E-02
 701  8.92321136   0.689  -1.84923   3.53542   6.90038   1.89279   0.03746   1.016E+00   0.000E+00  -1.620E-02
 702  8.92451521   0.689  -1.84916   3.53542   6.90035   1.89261   0.03754   1.016E+00   0.000E+00  -1.613E-02
 703  8.92581516   0.689  -1.84908   3.53541   6.90032   1.89243   0.03762   1.016E+00   0.000E+00  -1.605E-02
 704  8.92711123   0.689  -1.84900   3.53541   6.90029   1.89225   0.03769   1.016E+00   0.000E+00  -1.598E-02
 705  8.92840344   0.688  -1.84893   3.53541   6.90026   1.89207   0.03777   1.016E+00   0.000E+00  -1.591E-02
 706  8.92969182   0.688  -1.84887   3.53541   6.90024   1.89193   0.03784   1.016E+00   0.000E+00  -1.585E-02
 707  8.93097639   0.688  -1.84881   3.53541   6.90022   1.89180   0.03791   1.016E+00   0.000E+00  -1.579E-02
 708  8.93225717   0.688  -1.84874   3.53541   6.90019   1.89167   0.03798   1.016E+00   0.000E+00  -1.573E-02
 709  8.93353418   0.688  -1.84868   3.53541   6.90017   1.89154   0.03804   1.016E+00   0.000E+00  -1.567E-02
 710  8.93480745   0.688  -1.84862   3.53540   6.90015   1.89141   0.03811   1.016E+00   0.000E+00  -1.561E-02
 711  8.93607700   0.688  -1.84856   3.53540   6.90012   1.89128   0.03818   1.016E+00   0.000E+00  -1.556E-02
 712  8.93734285   0.688  -1.84850   3.53540   6.90010   1.89115   0.03825   1.016E+00   0.000E+00  -1.550E-02
 713  8.93860502   0.688  -1.84844   3.53540   6.90008   1.89102   0.03832   1.016E+00   0.000E+00  -1.544E-02
 714  8.93986353   0.688  -1.84838   3.53540   6.90005   1.89089   0.03839   1.015E+00   0.000E+00  -1.538E-02
 715  8.94111841   0.688  -1.84832   3.53540   6.90003   1.89076   0.03845   1.015E+00   0.000E+00  -1.532E-02
 716  8.94236966   0.688  -1.84826   3.53540   6.90001   1.89063   0.03852   1.015E+00   0.000E+00  -1.526E-02
 717  8.94361733   0.688  -1.84820   3.53540   6.89998   1.89050   0.03859   1.015E+00   0.000E+00  -1.520E-02
 718  8.94486142   0.688  -1.84814   3.53539   6.89996   1.89036   0.03866   1.015E+00   0.000E+00  -1.515E-02
 719  8.94610196   0.688  -1.84808   3.53539   6.89994   1.89023   0.03873   1.015E+00   0.000E+00  -1.509E-02
 720  8.94733896   0.688  -1.84802   3.53539   6.89991   1.89010   0.03879   1.015E+00   0.000E+00  -1.503E-02
 721  8.94857245   0.688  -1.84796   3.53539   6.89989   1.88997   0.03886   1.015E+00   0.000E+00  -1.497E-02
 722  8.94980245   0.688  -1.84789   3.53539   6.89987   1.88984   0.03893   1.015E+00   0.000E+00  -1.491E-02
 723  8.95102897   0.688  -1.84783   3.53539   6.89984   1.88971   0.03900   1.015E+00   0.000E+00  -1.485E-02
 724  8.95225204   0.688  -1.84777   3.53539   6.89982   1.88958   0.03907   1.015E+00   0.000E+00  -1.479E-02
 725  8.95347167   0.688  -1.84771   3.53539   6.89980   1.88945   0.03914   1.015E+00   0.000E+00  -1.474E-02
 726  8.95468789   0.688  -1.84765   3.53539   6.89977   1.88932   0.03920   1.015E+00   0.000E+00  -1.468E-02
 727  8.95590072   0.688  -1.84759   3.53538   6.89975   1.88919   0.03927   1.015E+00   0.000E+00  -1.462E-02
 728  8.95711016   0.688  -1.84753   3.53538   6.89973   1.88906   0.03934   1.015E+00   0.000E+00  -1.456E-02
 729  8.95831625   0.688  -1.84747   3.53538   6.89970   1.88893   0.03941   1.015E+00   0.000E+00  -1.450E-02
 730  8.95951899   0.688  -1.84741   3.53538   6.89968   1.88880   0.03948   1.015E+00   0.000E+00  -1.444E-02
 731  8.96071842   0.688  -1.84735   3.53538   6.89966   1.88866   0.03954   1.014E+00   0.000E+00  -1.439E-02
 732  8.96191454   0.688  -1.84729   3.53538   6.89963   1.88853   0.03961   1.014E+00   0.000E+00  -1.433E-02
 733  8.96310737   0.688  -1.84723   3.53538   6.89961   1.88840   0.03968   1.014E+00   0.000E+00  -1.427E-02
 734  8.96429694   0.688  -1.84717   3.53538   6.89959   1.88827   0.03975   1.014E+00   0.000E+00  -1.421E-02
 735  8.96548326   0.688  -1.84711   3.53538   6.89956   1.88814   0.03982   1.014E+00   0.000E+00  -1.415E-02
 736  8.96666635   0.688  -1.84704   3.53537   6.89954   1.88801   0.03989   1.014E+00   0.000E+00  -1.409E-02
 737  8.96784622   0.688  -1.84698   3.53537   6.89952   1.88788   0.03995   1.014E+00   0.000E+00  -1.403E-02
 738  8.96902289   0.688  -1.84692   3.53537   6.89950   1.88775   0.04002   1.014E+00   0.000E+00  -1.398E-02
 739  8.97019639   0.688  -1.84686   3.53537   6.89947   1.88762   0.04009   1.014E+00   0.000E+00  -1.392E-02
 740  8.97136673   0.688  -1.84680   3.53537   6.89945   1.88749   0.04016   1.014E+00   0.000E+00  -1.386E-02
 741  8.97253391   0.688  -1.84674   3.53537   6.89943   1.88736   0.04023   1.014E+00   0.000E+00  -1.380E-02
 742  8.97369797   0.688  -1.84668   3.53537   6.89940   1.88723   0.04029   1.014E+00   0.000E+00  -1.374E-02
 743  8.97485892   0.688  -1.84662   3.53537   6.89938   1.88710   0.04036   1.014E+00   0.000E+00  -1.368E-02
 744  8.97601678   0.688  -1.84656   3.53536   6.89936   1.88696   0.04043   1.014E+00   0.000E+00  -1.362E-02
 745  8.97717155   0.688  -1.84650   3.53536   6.89933   1.88683   0.04050   1.014E+00   0.000E+00  -1.357E-02
 746  8.97832326   0.688  -1.84644   3.53536   6.89931   1.88670   0.04057   1.014E+00   0.000E+00  -1.351E-02
 747  8.97947193   0.688  -1.84638   3.53536   6.89929   1.88657   0.04064   1.014E+00   0.000E+00  -1.345E-02
 748  8.98061757   0.688  -1.84632   3.53536   6.89926   1.88644   0.04070   1.013E+00   0.000E+00  -1.339E-02
 749  8.98176019   0.688  -1.84626   3.53536   6.89924   1.88631   0.04077   1.013E+00   0.000E+00  -1.333E-02
 750  8.98289981   0.688  -1.84619   3.53536   6.89922   1.88618   0.04084   1.013E+00   0.000E+00  -1.327E-02
 751  8.98403645   0.688  -1.84613   3.53536   6.89919   1.88605   0.04091   1.013E+00   0.000E+00  -1.321E-02
 752  8.98517013   0.688  -1.84607   3.53536   6.89917   1.88592   0.04098   1.013E+00   0.000E+00  -1.316E-02
 753  8.98630085   0.688  -1.84601   3.53535   6.89915   1.88579   0.04104   1.013E+00   0.000E+00  -1.310E-02
 754  8.98742864   0.688  -1.84595   3.53535   6.89912   1.88566   0.04111   1.013E+00   0.000E+00  -1.304E-02
 755  8.98855350   0.688  -1.84589   3.53535   6.89910   1.88553   0.04118   1.013E+00   0.000E+00  -1.298E-02
 756  8.98967546   0.688  -1.84583   3.53535   6.89908   1.88539   0.04125   1.013E+00   0.000E+00  -1.292E-02
 757  8.99079453   0.688  -1.84577   3.53535   6.89905   1.88526   0.04132   1.013E+00   0.000E+00  -1.286E-02
 758  8.99191072   0.688  -1.84571   3.53535   6.89903   1.88513   0.04139   1.013E+00   0.000E+00  -1.281E-02
 759  8.99302405   0.688  -1.84565   3.53535   6.89901   1.88500   0.04145   1.013E+00   0.000E+00  -1.275E-02
 760  8.99413453   0.688  -1.84559   3.53535   6.89898   1.88487   0.04152   1.013E+00   0.000E+00  -1.269E-02
 761  8.99524218   0.688  -1.84553   3.53534   6.89896   1.88474   0.04159   1.013E+00   0.000E+00  -1.263E-02
 762  8.99634702   0.688  -1.84547   3.53534   6.89894   1.88461   0.04166   1.013E+00   0.000E+00  -1.257E-02
 763  8.99744905   0.688  -1.84541   3.53534   6.89891   1.88448   0.04173   1.013E+00   0.000E+00  -1.251E-02
 764  8.99854829   0.688  -1.84535   3.53534   6.89889   1.88435   0.04179   1.013E+00   0.000E+00  -1.245E-02
 765  8.99964475   0.688  -1.84528   3.53534   6.89887   1.88422   0.04186   1.012E+00   0.000E+00  -1.240E-02
 766  9.00073846   0.688  -1.84522   3.53534   6.89884   1.88409   0.04193   1.012E+00   0.000E+00  -1.234E-02
 767  9.00182942   0.688  -1.84516   3.53534   6.89882   1.88396   0.04200   1.012E+00   0.000E+00  -1.228E-02
 768  9.00291764   0.688  -1.84510   3.53534   6.89880   1.88383   0.04207   1.012E+00   0.000E+00  -1.222E-02
 769  9.00400314   0.688  -1.84504   3.53534   6.89877   1.88369   0.04214   1.012E+00   0.000E+00  -1.216E-02
 770  9.00508594   0.688  -1.84498   3.53533   6.89875   1.88356   0.04220   1.012E+00   0.000E+00  -1.210E-02
 771  9.00616604   0.688  -1.84492   3.53533   6.89873   1.88343   0.04227   1.012E+00   0.000E+00  -1.204E-02
 772  9.00724347   0.688  -1.84486   3.53533   6.89870   1.88330   0.04234   1.012E+00   0.000E+00  -1.199E-02
 773  9.00831822   0.688  -1.84480   3.53533   6.89868   1.88317   0.04241   1.012E+00   0.000E+00  -1.193E-02
 774  9.00939033   0.688  -1.84475   3.53533   6.89866   1.88306   0.04246   1.012E+00   0.000E+00  -1.188E-02
 775  9.01045979   0.688  -1.84470   3.53533   6.89864   1.88297   0.04250   1.012E+00   0.000E+00  -1.183E-02
 776  9.01152663   0.688  -1.84466   3.53533   6.89863   1.88289   0.04253   1.012E+00   0.000E+00  -1.178E-02
 777  9.01259085   0.688  -1.84461   3.53533   6.89861   1.88280   0.04257   1.012E+00   0.000E+00  -1.174E-02
 778  9.01365248   0.688  -1.84457   3.53533   6.89859   1.88271   0.04261   1.012E+00   0.000E+00  -1.169E-02
 779  9.01471151   0.688  -1.84452   3.53533   6.89857   1.88262   0.04265   1.012E+00   0.000E+00  -1.164E-02
 780  9.01576797   0.688  -1.84448   3.53533   6.89856   1.88253   0.04268   1.012E+00   0.000E+00  -1.160E-02
 781  9.01682186   0.688  -1.84443   3.53533   6.89854   1.88244   0.04272   1.012E+00   0.000E+00  -1.155E-02
 782  9.01787320   0.688  -1.84439   3.53533   6.89852   1.88236   0.04276   1.012E+00   0.000E+00  -1.150E-02
 783  9.01892200   0.688  -1.84434   3.53533   6.89850   1.88227   0.04280   1.012E+00   0.000E+00  -1.146E-02
 784  9.01996828   0.688  -1.84430   3.53532   6.89849   1.88218   0.04283   1.011E+00   0.000E+00  -1.141E-02
 785  9.02101204   0.688  -1.84425   3.53532   6.89847   1.88209   0.04287   1.011E+00   0.000E+00  -1.137E-02
 786  9.02205330   0.688  -1.84420   3.53532   6.89845   1.88200   0.04291   1.011E+00   0.000E+00  -1.132E-02
 787  9.02309207   0.688  -1.84416   3.53532   6.89843   1.88191   0.04295   1.011E+00   0.000E+00  -1.127E-02
 788  9.02412836   0.687  -1.84411   3.53532   6.89842   1.88183   0.04298   1.011E+00   0.000E+00  -1.123E-02
 789  9.02516218   0.687  -1.84407   3.53532   6.89840   1.88174   0.04302   1.011E+00   0.000E+00  -1.118E-02
 790  9.02619355   0.687  -1.84402   3.53532   6.89838   1.88165   0.04306   1.011E+00   0.000E+00  -1.113E-02
 791  9.02722247   0.687  -1.84398   3.53532   6.89837   1.88156   0.04310   1.011E+00   0.000E+00  -1.109E-02
 792  9.02824897   0.687  -1.84393   3.53532   6.89835   1.88147   0.04313   1.011E+00   0.000E+00  -1.104E-02
 793  9.02927304   0.687  -1.84389   3.53532   6.89833   1.88138   0.04317   1.011E+00   0.000E+00  -1.099E-02
 794  9.03029470   0.687  -1.84384   3.53532   6.89831   1.88129   0.04321   1.011E+00   0.000E+00  -1.095E-02
 795  9.03131397   0.687  -1.84380   3.53532   6.89830   1.88121   0.04325   1.011E+00   0.000E+00  -1.090E-02
 796  9.03233085   0.687  -1.84375   3.53532   6.89828   1.88112   0.04328   1.011E+00   0.000E+00  -1.086E-02
 797  9.03334535   0.687  -1.84371   3.53532   6.89826   1.88103   0.04332   1.011E+00   0.000E+00  -1.081E-02
 798  9.03435749   0.687  -1.84366   3.53532   6.89824   1.88094   0.04336   1.011E+00   0.000E+00  -1.076E-02
 799  9.03536727   0.687  -1.84362   3.53532   6.89823   1.88085   0.04340   1.011E+00   0.000E+00  -1.072E-02
 800  9.03637472   0.687  -1.84357   3.53532   6.89821   1.88076   0.04343   1.011E+00   0.000E+00  -1.067E-02
 801  9.03737983   0.687  -1.84353   3.53532   6.89819   1.88068   0.04347   1.011E+00   0.000E+00  -1.062E-02
 802  9.03838262   0.687  -1.84348   3.53532   6.89817   1.88059   0.04351   1.011E+00   0.000E+00  -1.058E-02
 803  9.03938310   0.687  -1.84344   3.53532   6.89816   1.88050   0.04354   1.011E+00   0.000E+00  -1.053E-02
 804  9.04038128   0.687  -1.84339   3.53531   6.89814   1.88041   0.04358   1.010E+00   0.000E+00  -1.048E-02
 805  9.04137717   0.687  -1.84335   3.53531   6.89812   1.88032   0.04362   1.010E+00   0.000E+00  -1.044E-02
 806  9.04237079   0.687  -1.84330   3.53531   6.89810   1.88023   0.04366   1.010E+00   0.000E+00  -1.039E-02
 807  9.04336213   0.687  -1.84326   3.53531   6.89809   1.88014   0.04369   1.010E+00   0.000E+00  -1.035E-02
 808  9.04435122   0.687  -1.84321   3.53531   6.89807   1.88006   0.04373   1.010E+00   0.000E+00  -1.030E-02
 809  9.04533806   0.687  -1.84317   3.53531   6.89805   1.87997   0.04377   1.010E+00   0.000E+00  -1.025E-02
 810  9.04632266   0.687  -1.84312   3.53531   6.89803   1.87988   0.04381   1.010E+00   0.000E+00  -1.021E-02
 811  9.04730504   0.687  -1.84308   3.53531   6.89802   1.87979   0.04384   1.010E+00   0.000E+00  -1.016E-02
 812  9.04828520   0.687  -1.84303   3.53531   6.89800   1.87970   0.04388   1.010E+00   0.000E+00  -1.011E-02
 813  9.04926315   0.687  -1.84299   3.53531   6.89798   1.87961   0.04392   1.010E+00   0.000E+00  -1.007E-02
 814  9.05023890   0.687  -1.84294   3.53531   6.89797   1.87953   0.04396   1.010E+00   0.000E+00  -1.002E-02
 815  9.05121247   0.687  -1.84290   3.53531   6.89795   1.87944   0.04399   1.010E+00   0.000E+00  -9.975E-03
 816  9.05218386   0.687  -1.84285   3.53531   6.89793   1.87935   0.04403   1.010E+00   0.000E+00  -9.928E-03
 817  9.05315308   0.687  -1.84281   3.53531   6.89791   1.87926   0.04407   1.010E+00   0.000E+00  -9.882E-03
 818  9.05412014   0.687  -1.84276   3.53531   6.89790   1.87917   0.04411   1.010E+00   0.000E+00  -9.836E-03
 819  9.05508506   0.687  -1.84272   3.53531   6.89788   1.87908   0.04414   1.010E+00   0.000E+00  -9.789E-03
 820  9.05604783   0.687  -1.84267   3.53531   6.89786   1.87900   0.04418   1.010E+00   0.000E+00  -9.743E-03
 821  9.05700848   0.687  -1.84263   3.53531   6.89784   1.87891   0.04422   1.010E+00   0.000E+00  -9.697E-03
 822  9.05796701   0.687  -1.84258   3.53531   6.89783   1.87882   0.04426   1.010E+00   0.000E+00  -9.650E-03
 823  9.05892342   0.687  -1.84254   3.53531   6.89781   1.87873   0.04429   1.010E+00   0.000E+00  -9.604E-03
 824  9.05987773   0.687  -1.84249   3.53530   6.89779   1.87864   0.04433   1.009E+00   0.000E+00  -9.558E-03
 825  9.06082995   0.687  -1.84245   3.53530   6.89777   1.87855   0.04437   1.009E+00   0.000E+00  -9.511E-03
 826  9.06178009   0.687  -1.84240   3.53530   6.89776   1.87846   0.04441   1.009E+00   0.000E+00  -9.465E-03
 827  9.06272815   0.687  -1.84236   3.53530   6.89774   1.87838   0.04444   1.009E+00   0.000E+00  -9.419E-03
 828  9.06367415   0.687  -1.84231   3.53530   6.89772   1.87829   0.04448   1.009E+00   0.000E+00  -9.372E-03
 829  9.06461810   0.687  -1.84227   3.53530   6.89770   1.87820   0.04452   1.009E+00   0.000E+00  -9.326E-03
 830  9.06555999   0.687  -1.84222   3.53530   6.89769   1.87811   0.04455   1.009E+00   0.000E+00  -9.279E-03
 831  9.06649985   0.687  -1.84218   3.53530   6.89767   1.87802   0.04459   1.009E+00   0.000E+00  -9.233E-03
 832  9.06743767   0.687  -1.84213   3.53530   6.89765   1.87793   0.04463   1.009E+00   0.000E+00  -9.187E-03
 833  9.06837348   0.687  -1.84209   3.53530   6.89764   1.87785   0.04467   1.009E+00   0.000E+00  -9.140E-03
 834  9.06930727   0.687  -1.84204   3.53530   6.89762   1.87776   0.04470   1.009E+00   0.000E+00  -9.094E-03
 835  9.07023906   0.687  -1.84200   3.53530   6.89760   1.87767   0.04474   1.009E+00   0.000E+00  -9.048E-03
 836  9.07116886   0.687  -1.84195   3.53530   6.89758   1.87758   0.04478   1.009E+00   0.000E+00  -9.001E-03
 837  9.07209667   0.687  -1.84190   3.53530   6.89757   1.87749   0.04482   1.009E+00   0.000E+00  -8.955E-03
 838  9.07302250   0.687  -1.84186   3.53530   6.89755   1.87740   0.04485   1.009E+00   0.000E+00  -8.909E-03
 839  9.07394636   0.687  -1.84181   3.53530   6.89753   1.87732   0.04489   1.009E+00   0.000E+00  -8.862E-03
 840  9.07486826   0.687  -1.84177   3.53530   6.89751   1.87723   0.04493   1.009E+00   0.000E+00  -8.816E-03
 841  9.07578821   0.687  -1.84172   3.53530   6.89750   1.87714   0.04497   1.009E+00   0.000E+00  -8.770E-03
 842  9.07670622   0.687  -1.84168   3.53530   6.89748   1.87705   0.04500   1.009E+00   0.000E+00  -8.723E-03
 843  9.07762228   0.687  -1.84163   3.53529   6.89746   1.87696   0.04504   1.008E+00   0.000E+00  -8.677E-03
 844  9.07853642   0.687  -1.84159   3.53529   6.89744   1.87687   0.04508   1.008E+00   0.000E+00  -8.630E-03
 845  9.07944864   0.687  -1.84154   3.53529   6.89743   1.87678   0.04512   1.008E+00   0.000E+00  -8.584E-03
 846  9.08035895   0.687  -1.84150   3.53529   6.89741   1.87670   0.04515   1.008E+00   0.000E+00  -8.538E-03
 847  9.08126735   0.687  -1.84145   3.53529   6.89739   1.87661   0.04519   1.008E+00   0.000E+00  -8.491E-03
 848  9.08217386   0.687  -1.84141   3.53529   6.89737   1.87652   0.04523   1.008E+00   0.000E+00  -8.445E-03
 849  9.08307847   0.687  -1.84136   3.53529   6.89736   1.87643   0.04527   1.008E+00   0.000E+00  -8.399E-03
 850  9.08398121   0.687  -1.84132   3.53529   6.89734   1.87634   0.04530   1.008E+00   0.000E+00  -8.352E-03
 851  9.08488208   0.687  -1.84127   3.53529   6.89732   1.87625   0.04534   1.008E+00   0.000E+00  -8.306E-03
 852  9.08578108   0.687  -1.84123   3.53529   6.89730   1.87617   0.04538   1.008E+00   0.000E+00  -8.260E-03
 853  9.08667822   0.687  -1.84119   3.53529   6.89729   1.87608   0.04542   1.008E+00   0.000E+00  -8.216E-03
 854  9.08757352   0.687  -1.84115   3.53529   6.89728   1.87602   0.04547   1.008E+00   0.000E+00  -8.186E-03
 855  9.08846697   0.687  -1.84112   3.53529   6.89726   1.87596   0.04553   1.008E+00   0.000E+00  -8.156E-03
 856  9.08935859   0.687  -1.84108   3.53529   6.89725   1.87590   0.04559   1.008E+00   0.000E+00  -8.126E-03
 857  9.09024838   0.687  -1.84105   3.53529   6.89724   1.87584   0.04564   1.008E+00   0.000E+00  -8.097E-03
 858  9.09113635   0.687  -1.84101   3.53529   6.89723   1.87578   0.04570   1.008E+00   0.000E+00  -8.067E-03
 859  9.09202251   0.687  -1.84098   3.53529   6.89721   1.87572   0.04576   1.008E+00   0.000E+00  -8.037E-03
 860  9.09290686   0.687  -1.84095   3.53529   6.89720   1.87566   0.04581   1.008E+00   0.000E+00  -8.008E-03
 861  9.09378942   0.687  -1.84091   3.53529   6.89719   1.87559   0.04587   1.008E+00   0.000E+00  -7.978E-03
 862  9.09467019   0.687  -1.84088   3.53529   6.89718   1.87553   0.04593   1.008E+00   0.000E+00  -7.948E-03
 863  9.09554918   0.687  -1.84084   3.53529   6.89716   1.87547   0.04598   1.008E+00   0.000E+00  -7.918E-03
 864  9.09642639   0.687  -1.84081   3.53529   6.89715   1.87541   0.04604   1.008E+00   0.000E+00  -7.889E-03
 865  9.09730183   0.687  -1.84078   3.53529   6.89714   1.87535   0.04609   1.008E+00   0.000E+00  -7.859E-03
 866  9.09817551   0.687  -1.84074   3.53529   6.89713   1.87529   0.04615   1.008E+00   0.000E+00  -7.829E-03
 867  9.09904744   0.687  -1.84071   3.53528   6.89712   1.87523   0.04621   1.008E+00   0.000E+00  -7.799E-03
 868  9.09991762   0.687  -1.84067   3.53528   6.89710   1.87517   0.04626   1.008E+00   0.000E+00  -7.770E-03
 869  9.10078606   0.687  -1.84064   3.53528   6.89709   1.87511   0.04632   1.008E+00   0.000E+00  -7.740E-03
 870  9.10165276   0.687  -1.84061   3.53528   6.89708   1.87505   0.04638   1.008E+00   0.000E+00  -7.710E-03
 871  9.10251774   0.687  -1.84057   3.53528   6.89707   1.87499   0.04643   1.008E+00   0.000E+00  -7.681E-03
 872  9.10338100   0.687  -1.84054   3.53528   6.89705   1.87493   0.04649   1.008E+00   0.000E+00  -7.651E-03
 873  9.10424255   0.687  -1.84050   3.53528   6.89704   1.87486   0.04654   1.007E+00   0.000E+00  -7.621E-03
 874  9.10510239   0.687  -1.84047   3.53528   6.89703   1.87480   0.04660   1.007E+00   0.000E+00  -7.591E-03
 875  9.10596054   0.687  -1.84044   3.53528   6.89702   1.87474   0.04666   1.007E+00   0.000E+00  -7.562E-03
 876  9.10681699   0.687  -1.84040   3.53528   6.89700   1.87468   0.04671   1.007E+00   0.000E+00  -7.532E-03
 877  9.10767176   0.687  -1.84037   3.53528   6.89699   1.87462   0.04677   1.007E+00   0.000E+00  -7.502E-03
 878  9.10852484   0.687  -1.84033   3.53528   6.89698   1.87456   0.04683   1.007E+00   0.000E+00  -7.472E-03
 879  9.10937626   0.687  -1.84030   3.53528   6.89697   1.87450   0.04688   1.007E+00   0.000E+00  -7.443E-03
 880  9.11022601   0.686  -1.84027   3.53528   6.89695   1.87444   0.04694   1.007E+00   0.000E+00  -7.413E-03
 881  9.11107409   0.686  -1.84023   3.53528   6.89694   1.87438   0.04699   1.007E+00   0.000E+00  -7.383E-03
 882  9.11192053   0.686  -1.84020   3.53528   6.89693   1.87432   0.04705   1.007E+00   0.000E+00  -7.353E-03
 883  9.11276532   0.686  -1.84016   3.53528   6.89692   1.87426   0.04711   1.007E+00   0.000E+00  -7.324E-03
 884  9.11360847   0.686  -1.84013   3.53528   6.89691   1.87419   0.04716   1.007E+00   0.000E+00  -7.294E-03
 885  9.11444999   0.686  -1.84010   3.53528   6.89689   1.87413   0.04722   1.007E+00   0.000E+00  -7.264E-03
 886  9.11528987   0.686  -1.84006   3.53528   6.89688   1.87407   0.04728   1.007E+00   0.000E+00  -7.235E-03
 887  9.11612814   0.686  -1.84003   3.53528   6.89687   1.87401   0.04733   1.007E+00   0.000E+00  -7.205E-03
 888  9.11696479   0.686  -1.83999   3.53528   6.89686   1.87395   0.04739   1.007E+00   0.000E+00  -7.175E-03
 889  9.11779984   0.686  -1.83996   3.53528   6.89684   1.87389   0.04745   1.007E+00   0.000E+00  -7.145E-03
 890  9.11863328   0.686  -1.83993   3.53528   6.89683   1.87383   0.04750   1.007E+00   0.000E+00  -7.116E-03
 891  9.11946512   0.686  -1.83989   3.53528   6.89682   1.87377   0.04756   1.007E+00   0.000E+00  -7.086E-03
 892  9.12029538   0.686  -1.83986   3.53528   6.89681   1.87371   0.04761   1.007E+00   0.000E+00  -7.056E-03
 893  9.12112405   0.686  -1.83982   3.53527   6.89679   1.87365   0.04767   1.007E+00   0.000E+00  -7.026E-03
 894  9.12195114   0.686  -1.83979   3.53527   6.89678   1.87359   0.04773   1.007E+00   0.000E+00  -6.997E-03
 895  9.12277666   0.686  -1.83976   3.53527   6.89677   1.87353   0.04778   1.007E+00   0.000E+00  -6.967E-03
 896  9.12360061   0.686  -1.83972   3.53527   6.89676   1.87346   0.04784   1.007E+00   0.000E+00  -6.937E-03
 897  9.12442301   0.686  -1.83969   3.53527   6.89674   1.87340   0.04790   1.007E+00   0.000E+00  -6.908E-03
 898  9.12524385   0.686  -1.83965   3.53527   6.89673   1.87334   0.04795   1.007E+00   0.000E+00  -6.878E-03
 899  9.12606314   0.686  -1.83962   3.53527   6.89672   1.87328   0.04801   1.007E+00   0.000E+00  -6.848E-03
 900  9.12688089   0.686  -1.83959   3.53527   6.89671   1.87322   0.04806   1.007E+00   0.000E+00  -6.818E-03
 901  9.12769710   0.686  -1.83955   3.53527   6.89670   1.87316   0.04812   1.007E+00   0.000E+00  -6.789E-03
 902  9.12851178   0.686  -1.83952   3.53527   6.89668   1.87310   0.04818   1.007E+00   0.000E+00  -6.759E-03
 903  9.12932493   0.686  -1.83948   3.53527   6.89667   1.87304   0.04823   1.007E+00   0.000E+00  -6.729E-03
 904  9.13013657   0.686  -1.83945   3.53527   6.89666   1.87298   0.04829   1.007E+00   0.000E+00  -6.699E-03
 905  9.13094669   0.686  -1.83942   3.53527   6.89665   1.87292   0.04835   1.007E+00   0.000E+00  -6.670E-03
 906  9.13175530   0.686  -1.83938   3.53527   6.89663   1.87286   0.04840   1.007E+00   0.000E+00  -6.640E-03
 907  9.13256241   0.686  -1.83935   3.53527   6.89662   1.87280   0.04846   1.007E+00   0.000E+00  -6.610E-03
 908  9.13336802   0.686  -1.83931   3.53527   6.89661   1.87273   0.04852   1.007E+00   0.000E+00  -6.581E-03
 909  9.13417214   0.686  -1.83928   3.53527   6.89660   1.87267   0.04857   1.007E+00   0.000E+00  -6.551E-03
 910  9.13497478   0.686  -1.83925   3.53527   6.89658   1.87261   0.04863   1.007E+00   0.000E+00  -6.521E-03
 911  9.13577593   0.686  -1.83921   3.53527   6.89657   1.87255   0.04868   1.007E+00   0.000E+00  -6.491E-03
 912  9.13657561   0.686  -1.83918   3.53527   6.89656   1.87249   0.04874   1.007E+00   0.000E+00  -6.462E-03
 913  9.13737382   0.686  -1.83914   3.53527   6.89655   1.87243   0.04880   1.006E+00   0.000E+00  -6.432E-03
 914  9.13817057   0.686  -1.83911   3.53527   6.89654   1.87237   0.04885   1.006E+00   0.000E+00  -6.402E-03
 915  9.13896585   0.686  -1.83908   3.53527   6.89652   1.87231   0.04891   1.006E+00   0.000E+00  -6.372E-03
 916  9.13975969   0.686  -1.83904   3.53527   6.89651   1.87225   0.04897   1.006E+00   0.000E+00  -6.343E-03
 917  9.14055207   0.686  -1.83901   3.53527   6.89650   1.87219   0.04902   1.006E+00   0.000E+00  -6.313E-03
 918  9.14134301   0.686  -1.83897   3.53527   6.89649   1.87213   0.04908   1.006E+00   0.000E+00  -6.283E-03
 919  9.14213251   0.686  -1.83894   3.53527   6.89647   1.87207   0.04913   1.006E+00   0.000E+00  -6.253E-03
 920  9.14292058   0.686  -1.83891   3.53526   6.89646   1.87200   0.04919   1.006E+00   0.000E+00  -6.224E-03
 921  9.14370723   0.686  -1.83887   3.53526   6.89645   1.87194   0.04925   1.006E+00   0.000E+00  -6.194E-03
 922  9.14449245   0.686  -1.83884   3.53526   6.89644   1.87188   0.04930   1.006E+00   0.000E+00  -6.164E-03
 923  9.14527625   0.686  -1.83880   3.53526   6.89642   1.87182   0.04936   1.006E+00   0.000E+00  -6.135E-03
 924  9.14605864   0.686  -1.83877   3.53526   6.89641   1.87176   0.04942   1.006E+00   0.000E+00  -6.105E-03
 925  9.14683963   0.686  -1.83874   3.53526   6.89640   1.87170   0.04947   1.006E+00   0.000E+00  -6.075E-03
 926  9.14761921   0.686  -1.83870   3.53526   6.89639   1.87164   0.04953   1.006E+00   0.000E+00  -6.045E-03
 927  9.14839739   0.686  -1.83867   3.53526   6.89637   1.87158   0.04959   1.006E+00   0.000E+00  -6.016E-03
 928  9.14917419   0.686  -1.83863   3.53526   6.89636   1.87152   0.04964   1.006E+00   0.000E+00  -5.986E-03
 929  9.14994960   0.686  -1.83860   3.53526   6.89635   1.87146   0.04970   1.006E+00   0.000E+00  -5.956E-03
 930  9.15072362   0.686  -1.83857   3.53526   6.89634   1.87140   0.04975   1.006E+00   0.000E+00  -5.926E-03
 931  9.15149627   0.686  -1.83853   3.53526   6.89633   1.87134   0.04981   1.006E+00   0.000E+00  -5.897E-03
 932  9.15226754   0.686  -1.83850   3.53526   6.89631   1.87127   0.04987   1.006E+00   0.000E+00  -5.867E-03
 933  9.15303745   0.686  -1.83847   3.53526   6.89630   1.87123   0.04991   1.006E+00   0.000E+00  -5.846E-03
 934  9.15380600   0.686  -1.83844   3.53526   6.89629   1.87118   0.04995   1.006E+00   0.000E+00  -5.828E-03
 935  9.15457319   0.686  -1.83841   3.53526   6.89628   1.87114   0.04998   1.006E+00   0.000E+00  -5.811E-03
 936  9.15533902   0.686  -1.83839   3.53526   6.89627   1.87109   0.05002   1.006E+00   0.000E+00  -5.793E-03
 937  9.15610351   0.686  -1.83836   3.53526   6.89626   1.87105   0.05006   1.006E+00   0.000E+00  -5.775E-03
 938  9.15686665   0.686  -1.83833   3.53526   6.89625   1.87100   0.05010   1.006E+00   0.000E+00  -5.757E-03
 939  9.15762846   0.686  -1.83831   3.53526   6.89625   1.87096   0.05013   1.006E+00   0.000E+00  -5.739E-03
 940  9.15838893   0.686  -1.83828   3.53526   6.89624   1.87091   0.05017   1.006E+00   0.000E+00  -5.721E-03
 941  9.15914807   0.686  -1.83825   3.53526   6.89623   1.87087   0.05021   1.006E+00   0.000E+00  -5.703E-03
 942  9.15990589   0.686  -1.83822   3.53526   6.89622   1.87082   0.05025   1.006E+00   0.000E+00  -5.685E-03
 943  9.16066239   0.686  -1.83820   3.53526   6.89621   1.87078   0.05028   1.006E+00   0.000E+00  -5.667E-03
 944  9.16141757   0.686  -1.83817   3.53526   6.89620   1.87073   0.05032   1.006E+00   0.000E+00  -5.650E-03
 945  9.16217144   0.686  -1.83814   3.53526   6.89619   1.87069   0.05036   1.006E+00   0.000E+00  -5.632E-03
 946  9.16292400   0.686  -1.83812   3.53526   6.89618   1.87064   0.05040   1.006E+00   0.000E+00  -5.614E-03
 947  9.16367527   0.686  -1.83809   3.53526   6.89617   1.87060   0.05043   1.006E+00   0.000E+00  -5.596E-03
 948  9.16442523   0.686  -1.83806   3.53526   6.89616   1.87055   0.05047   1.006E+00   0.000E+00  -5.578E-03
 949  9.16517390   0.686  -1.83803   3.53526   6.89615   1.87051   0.05051   1.006E+00   0.000E+00  -5.560E-03
 950  9.16592129   0.686  -1.83801   3.53526   6.89614   1.87046   0.05055   1.006E+00   0.000E+00  -5.542E-03
 951  9.16666739   0.686  -1.83798   3.53526   6.89613   1.87042   0.05058   1.006E+00   0.000E+00  -5.524E-03
 952  9.16741221   0.686  -1.83795   3.53526   6.89612   1.87037   0.05062   1.006E+00   0.000E+00  -5.506E-03
 953  9.16815576   0.686  -1.83793   3.53526   6.89611   1.87033   0.05066   1.005E+00   0.000E+00  -5.489E-03
 954  9.16889803   0.686  -1.83790   3.53526   6.89610   1.87028   0.05070   1.005E+00   0.000E+00  -5.471E-03
 955  9.16963904   0.686  -1.83787   3.53526   6.89609   1.87024   0.05073   1.005E+00   0.000E+00  -5.453E-03
 956  9.17037878   0.686  -1.83784   3.53526   6.89608   1.87019   0.05077   1.005E+00   0.000E+00  -5.435E-03
 957  9.17111727   0.686  -1.83782   3.53526   6.89607   1.87015   0.05081   1.005E+00   0.000E+00  -5.417E-03
 958  9.17185451   0.686  -1.83779   3.53526   6.89606   1.87010   0.05085   1.005E+00   0.000E+00  -5.399E-03
 959  9.17259049   0.686  -1.83776   3.53526   6.89605   1.87006   0.05088   1.005E+00   0.000E+00  -5.381E-03
 960  9.17332523   0.686  -1.83773   3.53526   6.89604   1.87001   0.05092   1.005E+00   0.000E+00  -5.363E-03
 961  9.17405873   0.686  -1.83771   3.53526   6.89603   1.86997   0.05096   1.005E+00   0.000E+00  -5.345E-03
 962  9.17479099   0.686  -1.83768   3.53526   6.89603   1.86992   0.05100   1.005E+00   0.000E+00  -5.328E-03
 963  9.17552202   0.686  -1.83765   3.53526   6.89602   1.86988   0.05103   1.005E+00   0.000E+00  -5.310E-03
 964  9.17625182   0.686  -1.83763   3.53526   6.89601   1.86983   0.05107   1.005E+00   0.000E+00  -5.292E-03
 965  9.17698040   0.686  -1.83760   3.53526   6.89600   1.86979   0.05111   1.005E+00   0.000E+00  -5.274E-03
 966  9.17770776   0.686  -1.83757   3.53526   6.89599   1.86974   0.05115   1.005E+00   0.000E+00  -5.256E-03
 967  9.17843390   0.686  -1.83754   3.53526   6.89598   1.86970   0.05119   1.005E+00   0.000E+00  -5.238E-03
 968  9.17915883   0.686  -1.83752   3.53526   6.89597   1.86965   0.05122   1.005E+00   0.000E+00  -5.220E-03
 969  9.17988255   0.686  -1.83749   3.53526   6.89596   1.86961   0.05126   1.005E+00   0.000E+00  -5.202E-03
 970  9.18060506   0.686  -1.83746   3.53526   6.89595   1.86956   0.05130   1.005E+00   0.000E+00  -5.184E-03
 971  9.18132638   0.686  -1.83744   3.53526   6.89594   1.86952   0.05134   1.005E+00   0.000E+00  -5.167E-03
 972  9.18204650   0.686  -1.83741   3.53525   6.89593   1.86947   0.05137   1.005E+00   0.000E+00  -5.149E-03
 973  9.18276543   0.686  -1.83738   3.53525   6.89592   1.86943   0.05141   1.005E+00   0.000E+00  -5.131E-03
 974  9.18348317   0.686  -1.83735   3.53525   6.89591   1.86938   0.05145   1.005E+00   0.000E+00  -5.113E-03
 975  9.18419973   0.686  -1.83733   3.53525   6.89590   1.86934   0.05149   1.005E+00   0.000E+00  -5.095E-03
 976  9.18491510   0.686  -1.83730   3.53525   6.89589   1.86929   0.05152   1.005E+00   0.000E+00  -5.077E-03
 977  9.18562930   0.686  -1.83727   3.53525   6.89588   1.86925   0.05156   1.005E+00   0.000E+00  -5.059E-03
 978  9.18634233   0.686  -1.83724   3.53525   6.89587   1.86920   0.05160   1.005E+00   0.000E+00  -5.041E-03
 979  9.18705418   0.686  -1.83722   3.53525   6.89586   1.86916   0.05164   1.005E+00   0.000E+00  -5.023E-03
 980  9.18776488   0.686  -1.83719   3.53525   6.89585   1.86911   0.05167   1.005E+00   0.000E+00  -5.006E-03
 981  9.18847441   0.686  -1.83716   3.53525   6.89584   1.86907   0.05171   1.005E+00   0.000E+00  -4.988E-03
 982  9.18918278   0.686  -1.83714   3.53525   6.89583   1.86902   0.05175   1.005E+00   0.000E+00  -4.970E-03
 983  9.18989000   0.686  -1.83711   3.53525   6.89582   1.86898   0.05179   1.005E+00   0.000E+00  -4.952E-03
 984  9.19059608   0.685  -1.83708   3.53525   6.89581   1.86893   0.05182   1.005E+00   0.000E+00  -4.934E-03
 985  9.19130100   0.685  -1.83705   3.53525   6.89580   1.86889   0.05186   1.005E+00   0.000E+00  -4.916E-03
 986  9.19200478   0.685  -1.83703   3.53525   6.89580   1.86884   0.05190   1.005E+00   0.000E+00  -4.898E-03
 987  9.19270743   0.685  -1.83700   3.53525   6.89579   1.86880   0.05194   1.005E+00   0.000E+00  -4.880E-03
 988  9.19340894   0.685  -1.83697   3.53525   6.89578   1.86875   0.05197   1.005E+00   0.000E+00  -4.862E-03
 989  9.19410932   0.685  -1.83695   3.53525   6.89577   1.86871   0.05201   1.005E+00   0.000E+00  -4.845E-03
 990  9.19480857   0.685  -1.83692   3.53525   6.89576   1.86866   0.05205   1.005E+00   0.000E+00  -4.827E-03
 991  9.19550669   0.685  -1.83689   3.53525   6.89575   1.86862   0.05209   1.005E+00   0.000E+00  -4.809E-03
 992  9.19620370   0.685  -1.83686   3.53525   6.89574   1.86857   0.05212   1.004E+00   0.000E+00  -4.791E-03
 993  9.19689959   0.685  -1.83684   3.53525   6.89573   1.86853   0.05216   1.004E+00   0.000E+00  -4.773E-03
 994  9.19759436   0.685  -1.83681   3.53525   6.89572   1.86848   0.05220   1.004E+00   0.000E+00  -4.755E-03
 995  9.19828803   0.685  -1.83678   3.53525   6.89571   1.86844   0.05224   1.004E+00   0.000E+00  -4.737E-03
 996  9.19898059   0.685  -1.83675   3.53525   6.89570   1.86839   0.05227   1.004E+00   0.000E+00  -4.719E-03
 997  9.19967204   0.685  -1.83673   3.53525   6.89569   1.86835   0.05231   1.004E+00   0.000E+00  -4.701E-03
 998  9.20036240   0.685  -1.83670   3.53525   6.89568   1.86830   0.05235   1.004E+00   0.000E+00  -4.684E-03
 999  9.20105166   0.685  -1.83667   3.53525   6.89567   1.86826   0.05239   1.004E+00   0.000E+00  -4.666E-03
1000  9.20173983   0.685  -1.83665   3.53525   6.89566   1.86821   0.05242   1.004E+00   0.000E+00  -4.648E-03
1001  9.20242692   0.685  -1.83662   3.53525   6.89565   1.86817   0.05246   1.004E+00   0.000E+00  -4.630E-03
1002  9.20311291   0.685  -1.83659   3.53525   6.89564   1.86812   0.05250   1.004E+00   0.000E+00  -4.612E-03
1003  9.20379783   0.685  -1.83656   3.53525   6.89563   1.86808   0.05254   1.004E+00   0.000E+00  -4.594E-03
1004  9.20448166   0.685  -1.83654   3.53525   6.89562   1.86803   0.05257   1.004E+00   0.000E+00  -4.576E-03
1005  9.20516442   0.685  -1.83651   3.53525   6.89561   1.86799   0.05261   1.004E+00   0.000E+00  -4.558E-03
1006  9.20584611   0.685  -1.83648   3.53525   6.89560   1.86794   0.05265   1.004E+00   0.000E+00  -4.540E-03
1007  9.20652673   0.685  -1.83646   3.53525   6.89559   1.86790   0.05269   1.004E+00   0.000E+00  -4.523E-03
1008  9.20720629   0.685  -1.83643   3.53525   6.89558   1.86785   0.05272   1.004E+00   0.000E+00  -4.505E-03
1009  9.20788478   0.685  -1.83640   3.53525   6.89558   1.86781   0.05276   1.004E+00   0.000E+00  -4.487E-03
1010  9.20856222   0.685  -1.83637   3.53525   6.89557   1.86776   0.05280   1.004E+00   0.000E+00  -4.469E-03
1011  9.20923860   0.685  -1.83635   3.53525   6.89556   1.86772   0.05284   1.004E+00   0.000E+00  -4.451E-03
1012  9.20991393   0.685  -1.83632   3.53525   6.89555   1.86767   0.05261   1.004E+00   0.000E+00  -4.441E-03
1013  9.21058821   0.685  -1.83629   3.53525   6.89554   1.86763   0.05194   1.004E+00   0.000E+00  -4.442E-03
1014  9.21126144   0.685  -1.83626   3.53525   6.89552   1.86758   0.05127   1.004E+00   0.000E+00  -4.444E-03
1015  9.21193364   0.685  -1.83623   3.53525   6.89551   1.86754   0.05061   1.004E+00   0.000E+00  -4.446E-03
1016  9.21260479   0.685  -1.83620   3.53525   6.89550   1.86749   0.04994   1.004E+00   0.000E+00  -4.448E-03
1017  9.21327491   0.685  -1.83617   3.53525   6.89549   1.86745   0.04928   1.004E+00   0.000E+00  -4.449E-03
1018  9.21394399   0.685  -1.83615   3.53525   6.89548   1.86740   0.04861   1.004E+00   0.000E+00  -4.451E-03
1019  9.21461205   0.685  -1.83612   3.53525   6.89547   1.86736   0.04794   1.004E+00   0.000E+00  -4.453E-03
1020  9.21527908   0.685  -1.83609   3.53525   6.89546   1.86731   0.04728   1.004E+00   0.000E+00  -4.455E-03
1021  9.21594509   0.685  -1.83606   3.53525   6.89545   1.86727   0.04661   1.004E+00   0.000E+00  -4.457E-03
1022  9.21661008   0.685  -1.83603   3.53525   6.89544   1.86722   0.04595   1.004E+00   0.000E+00  -4.458E-03
1023  9.21727405   0.685  -1.83600   3.53525   6.89543   1.86718   0.04528   1.004E+00   0.000E+00  -4.460E-03
1024  9.21793701   0.685  -1.83597   3.53525   6.89542   1.86713   0.04461   1.004E+00   0.000E+00  -4.462E-03
1025  9.21859896   0.685  -1.83594   3.53525   6.89541   1.86709   0.04395   1.004E+00   0.000E+00  -4.464E-03
1026  9.21925990   0.685  -1.83591   3.53525   6.89539   1.86705   0.04328   1.004E+00   0.000E+00  -4.465E-03
1027  9.21991983   0.685  -1.83588   3.53525   6.89538   1.86700   0.04262   1.004E+00   0.000E+00  -4.467E-03
1028  9.22057877   0.685  -1.83586   3.53525   6.89537   1.86696   0.04195   1.004E+00   0.000E+00  -4.469E-03
1029  9.22123670   0.685  -1.83583   3.53525   6.89536   1.86691   0.04129   1.004E+00   0.000E+00  -4.471E-03
1030  9.22189364   0.685  -1.83580   3.53525   6.89535   1.86687   0.04062   1.004E+00   0.000E+00  -4.472E-03
1031  9.22254959   0.685  -1.83577   3.53525   6.89534   1.86682   0.03995   1.004E+00   0.000E+00  -4.474E-03
1032  9.22320455   0.685  -1.83574   3.53525   6.89533   1.86678   0.03929   1.004E+00   0.000E+00  -4.476E-03
1033  9.22385853   0.685  -1.83571   3.53525   6.89532   1.86673   0.03862   1.004E+00   0.000E+00  -4.478E-03
1034  9.22451152   0.685  -1.83568   3.53525   6.89531   1.86669   0.03796   1.004E+00   0.000E+00  -4.479E-03
1035  9.22516353   0.685  -1.83565   3.53525   6.89530   1.86664   0.03729   1.004E+00   0.000E+00  -4.481E-03
1036  9.22581456   0.685  -1.83562   3.53525   6.89529   1.86660   0.03662   1.004E+00   0.000E+00  -4.483E-03
1037  9.22646462   0.685  -1.83559   3.53525   6.89528   1.86655   0.03596   1.004E+00   0.000E+00  -4.485E-03
1038  9.22711370   0.685  -1.83557   3.53525   6.89526   1.86651   0.03529   1.004E+00   0.000E+00  -4.487E-03
1039  9.22776182   0.685  -1.83554   3.53525   6.89525   1.86646   0.03463   1.004E+00   0.000E+00  -4.488E-03
1040  9.22840897   0.685  -1.83551   3.53525   6.89524   1.86642   0.03396   1.004E+00   0.000E+00  -4.490E-03
1041  9.22905516   0.685  -1.83548   3.53525   6.89523   1.86637   0.03329   1.004E+00   0.000E+00  -4.492E-03
1042  9.22970039   0.685  -1.83545   3.53525   6.89522   1.86633   0.03263   1.004E+00   0.000E+00  -4.494E-03
1043  9.23034466   0.685  -1.83542   3.53525   6.89521   1.86628   0.03196   1.004E+00   0.000E+00  -4.495E-03
1044  9.23098798   0.685  -1.83539   3.53525   6.89520   1.86624   0.03130   1.004E+00   0.000E+00  -4.497E-03
1045  9.23163034   0.685  -1.83536   3.53525   6.89519   1.86619   0.03063   1.004E+00   0.000E+00  -4.499E-03
1046  9.23227176   0.685  -1.83533   3.53525   6.89518   1.86615   0.02997   1.004E+00   0.000E+00  -4.501E-03
1047  9.23291223   0.685  -1.83530   3.53525   6.89517   1.86610   0.02930   1.004E+00   0.000E+00  -4.502E-03
1048  9.23355176   0.685  -1.83528   3.53525   6.89516   1.86606   0.02863   1.004E+00   0.000E+00  -4.504E-03
1049  9.23419035   0.685  -1.83525   3.53525   6.89515   1.86601   0.02797   1.004E+00   0.000E+00  -4.506E-03
1050  9.23482800   0.685  -1.83522   3.53525   6.89513   1.86597   0.02730   1.004E+00   0.000E+00  -4.508E-03
1051  9.23546471   0.685  -1.83519   3.53525   6.89512   1.86592   0.02664   1.004E+00   0.000E+00  -4.509E-03
1052  9.23610050   0.685  -1.83516   3.53524   6.89511   1.86588   0.02597   1.005E+00   0.000E+00  -4.511E-03
1053  9.23673535   0.685  -1.83513   3.53524   6.89510   1.86583   0.02530   1.005E+00   0.000E+00  -4.513E-03
1054  9.23736928   0.685  -1.83510   3.53524   6.89509   1.86579   0.02464   1.005E+00   0.000E+00  -4.515E-03
1055  9.23800228   0.685  -1.83507   3.53524   6.89508   1.86574   0.02397   1.005E+00   0.000E+00  -4.517E-03
1056  9.23863436   0.685  -1.83504   3.53524   6.89507   1.86570   0.02331   1.005E+00   0.000E+00  -4.518E-03
1057  9.23926552   0.685  -1.83502   3.53524   6.89506   1.86565   0.02264   1.005E+00   0.000E+00  -4.520E-03
1058  9.23989577   0.685  -1.83499   3.53524   6.89505   1.86561   0.02197   1.005E+00   0.000E+00  -4.522E-03
1059  9.24052510   0.685  -1.83496   3.53524   6.89504   1.86557   0.02131   1.005E+00   0.000E+00  -4.524E-03
1060  9.24115353   0.685  -1.83493   3.53524   6.89503   1.86552   0.02064   1.005E+00   0.000E+00  -4.525E-03
1061  9.24178104   0.685  -1.83490   3.53524   6.89502   1.86548   0.01998   1.005E+00   0.000E+00  -4.527E-03
1062  9.24240765   0.685  -1.83487   3.53524   6.89500   1.86543   0.01931   1.005E+00   0.000E+00  -4.529E-03
1063  9.24303336   0.685  -1.83484   3.53524   6.89499   1.86539   0.01865   1.005E+00   0.000E+00  -4.531E-03
1064  9.24365817   0.685  -1.83481   3.53524   6.89498   1.86534   0.01798   1.005E+00   0.000E+00  -4.532E-03
1065  9.24428208   0.685  -1.83478   3.53524   6.89497   1.86530   0.01731   1.005E+00   0.000E+00  -4.534E-03
1066  9.24490509   0.685  -1.83475   3.53524   6.89496   1.86525   0.01665   1.005E+00   0.000E+00  -4.536E-03
1067  9.24552721   0.685  -1.83473   3.53524   6.89495   1.86521   0.01598   1.005E+00   0.000E+00  -4.538E-03
1068  9.24614844   0.685  -1.83470   3.53524   6.89494   1.86516   0.01532   1.005E+00   0.000E+00  -4.539E-03
1069  9.24676879   0.685  -1.83467   3.53524   6.89493   1.86512   0.01465   1.005E+00   0.000E+00  -4.541E-03
1070  9.24738825   0.685  -1.83464   3.53524   6.89492   1.86507   0.01398   1.005E+00   0.000E+00  -4.543E-03
1071  9.24800683   0.685  -1.83461   3.53524   6.89491   1.86503   0.01332   1.005E+00   0.000E+00  -4.545E-03
1072  9.24862452   0.685  -1.83458   3.53524   6.89490   1.86498   0.01265   1.005E+00   0.000E+00  -4.546E-03
1073  9.24924134   0.685  -1.83455   3.53524   6.89489   1.86494   0.01199   1.005E+00   0.000E+00  -4.548E-03
1074  9.24985729   0.685  -1.83452   3.53524   6.89487   1.86489   0.01132   1.005E+00   0.000E+00  -4.550E-03
1075  9.25047236   0.685  -1.83449   3.53524   6.89486   1.86485   0.01065   1.005E+00   0.000E+00  -4.552E-03
1076  9.25108657   0.685  -1.83446   3.53524   6.89485   1.86480   0.00999   1.005E+00   0.000E+00  -4.554E-03
1077  9.25169990   0.685  -1.83444   3.53524   6.89484   1.86476   0.00932   1.005E+00   0.000E+00  -4.555E-03
1078  9.25231237   0.685  -1.83441   3.53524   6.89483   1.86471   0.00866   1.005E+00   0.000E+00  -4.557E-03
1079  9.25292398   0.685  -1.83438   3.53524   6.89482   1.86467   0.00799   1.005E+00   0.000E+00  -4.559E-03
1080  9.25353473   0.685  -1.83435   3.53524   6.89481   1.86462   0.00732   1.005E+00   0.000E+00  -4.561E-03
1081  9.25414462   0.685  -1.83432   3.53524   6.89480   1.86458   0.00666   1.005E+00   0.000E+00  -4.562E-03
1082  9.25475365   0.685  -1.83429   3.53524   6.89479   1.86453   0.00599   1.005E+00   0.000E+00  -4.564E-03
1083  9.25536184   0.685  -1.83426   3.53524   6.89478   1.86449   0.00533   1.005E+00   0.000E+00  -4.566E-03
1084  9.25596917   0.685  -1.83423   3.53524   6.89477   1.86444   0.00466   1.005E+00   0.000E+00  -4.568E-03
1085  9.25657565   0.685  -1.83420   3.53524   6.89476   1.86440   0.00400   1.005E+00   0.000E+00  -4.569E-03
1086  9.25718129   0.685  -1.83417   3.53524   6.89474   1.86435   0.00333   1.005E+00   0.000E+00  -4.571E-03
1087  9.25778608   0.685  -1.83415   3.53524   6.89473   1.86431   0.00266   1.005E+00   0.000E+00  -4.573E-03
1088  9.25839004   0.685  -1.83412   3.53524   6.89472   1.86426   0.00200   1.005E+00   0.000E+00  -4.575E-03
1089  9.25899315   0.685  -1.83409   3.53524   6.89471   1.86422   0.00133   1.005E+00   0.000E+00  -4.576E-03
1090  9.25959543   0.685  -1.83406   3.53524   6.89470   1.86417   0.00067   1.005E+00   0.000E+00  -4.578E-03
1091  9.26019688   0.685  -1.83403   3.53524   6.89469   1.86413   0.00000   1.005E+00   0.000E+00  -4.580E-03
