 # M = 0.70 Mo, Y = 0.2880, Z = 2.00000E-02, alpha = 1.68, X_D = 4.0E-05
 # Solar Mixture: Asplund et al. (2005)         
 # ------------------------------------------------------------------------------------------------------------
 # NMD   LOG AGE    Xc      LOG L     LOG TE    LOG Tc   LOG RHOc    M-CC       L-PP       L-CNO       L-GRA
 #        (yr)              (Lo)        (K)       (K)   (gr/cm^3)    (Mo)        (L)         (L)         (L)
 # ------------------------------------------------------------------------------------------------------------
   1  4.94526577   0.692   0.75584   3.61550   6.08471  -1.19098   0.00000   9.300E-01   0.000E+00   6.990E-02
   2  5.09892475   0.692   0.74767   3.61566   6.08897  -1.17818   0.00000   9.326E-01   0.000E+00   6.731E-02
   3  5.21219733   0.692   0.74045   3.61580   6.09272  -1.16693   0.00000   9.369E-01   0.000E+00   6.302E-02
   4  5.30195420   0.692   0.73354   3.61592   6.09630  -1.15616   0.00000   9.414E-01   0.000E+00   5.855E-02
   5  5.37630038   0.692   0.72775   3.61603   6.09930  -1.14714   0.00000   9.448E-01   0.000E+00   5.524E-02
   6  5.43976029   0.692   0.72196   3.61614   6.10231  -1.13811   0.00000   9.483E-01   0.000E+00   5.194E-02
   7  5.49511859   0.692   0.71651   3.61624   6.10513  -1.12961   0.00000   9.504E-01   0.000E+00   4.975E-02
   8  5.54421161   0.692   0.71139   3.61634   6.10779  -1.12164   0.00000   9.513E-01   0.000E+00   4.867E-02
   9  5.58831445   0.692   0.70628   3.61643   6.11044  -1.11367   0.00000   9.522E-01   0.000E+00   4.758E-02
  10  5.62834862   0.692   0.70117   3.61653   6.11309  -1.10571   0.00000   9.529E-01   0.000E+00   4.665E-02
  11  5.66500183   0.692   0.69611   3.61661   6.11570  -1.09787   0.00000   9.524E-01   0.000E+00   4.715E-02
  12  5.69880093   0.692   0.69106   3.61670   6.11831  -1.09003   0.00000   9.519E-01   0.000E+00   4.764E-02
  13  5.73015847   0.692   0.68601   3.61679   6.12092  -1.08219   0.00000   9.514E-01   0.000E+00   4.814E-02
  14  5.75940357   0.692   0.68086   3.61687   6.12358  -1.07420   0.00000   9.505E-01   0.000E+00   4.898E-02
  15  5.78680295   0.692   0.67543   3.61696   6.12638  -1.06579   0.00000   9.487E-01   0.000E+00   5.078E-02
  16  5.81257584   0.692   0.67000   3.61705   6.12918  -1.05738   0.00000   9.469E-01   0.000E+00   5.259E-02
  17  5.83690455   0.692   0.66457   3.61714   6.13198  -1.04897   0.00000   9.451E-01   0.000E+00   5.439E-02
  18  5.85994239   0.692   0.65883   3.61724   6.13494  -1.04009   0.00000   9.427E-01   0.000E+00   5.687E-02
  19  5.88181946   0.692   0.65260   3.61734   6.13815  -1.03044   0.00000   9.394E-01   0.000E+00   6.041E-02
  20  5.90264716   0.692   0.64636   3.61744   6.14136  -1.02079   0.00000   9.361E-01   0.000E+00   6.396E-02
  21  5.92252155   0.692   0.64013   3.61754   6.14457  -1.01114   0.00000   9.327E-01   0.000E+00   6.751E-02
  22  5.94152610   0.692   0.63286   3.61764   6.14829  -0.99994   0.00000   9.268E-01   0.000E+00   7.341E-02
  23  5.95973377   0.692   0.62531   3.61775   6.15217  -0.98831   0.00000   9.201E-01   0.000E+00   7.998E-02
  24  5.97720871   0.692   0.61775   3.61786   6.15604  -0.97667   0.00000   9.134E-01   0.000E+00   8.655E-02
  25  5.99400761   0.692   0.60895   3.61797   6.16053  -0.96320   0.00000   9.033E-01   0.000E+00   9.659E-02
  26  6.01018084   0.692   0.59946   3.61809   6.16536  -0.94871   0.00000   8.914E-01   0.000E+00   1.086E-01
  27  6.02577334   0.692   0.58985   3.61821   6.17024  -0.93404   0.00000   8.790E-01   0.000E+00   1.210E-01
  28  6.04082537   0.692   0.57781   3.61835   6.17635  -0.91568   0.00000   8.569E-01   0.000E+00   1.431E-01
  29  6.05537314   0.692   0.56577   3.61849   6.18246  -0.89732   0.00000   8.347E-01   0.000E+00   1.653E-01
  30  6.06944936   0.692   0.55058   3.61864   6.19013  -0.87428   0.00000   7.969E-01   0.000E+00   2.031E-01
  31  6.08308362   0.692   0.53405   3.61878   6.19846  -0.84927   0.00000   7.511E-01   0.000E+00   2.489E-01
  32  6.09630285   0.692   0.51484   3.61892   6.20809  -0.82036   0.00000   6.890E-01   0.000E+00   3.110E-01
  33  6.10913157   0.692   0.49176   3.61907   6.21958  -0.78585   0.00000   5.962E-01   0.000E+00   4.038E-01
  34  6.12159218   0.692   0.46458   3.61915   6.23299  -0.74564   0.00000   4.735E-01   0.000E+00   5.265E-01
  35  6.13370522   0.692   0.43370   3.61918   6.24812  -0.70024   0.00000   3.306E-01   0.000E+00   6.694E-01
  36  6.14548957   0.692   0.40043   3.61914   6.26428  -0.65175   0.00000   1.960E-01   0.000E+00   8.040E-01
  37  6.15696258   0.692   0.36645   3.61897   6.28059  -0.60282   0.00000   9.916E-02   0.000E+00   9.008E-01
  38  6.16814028   0.692   0.33371   3.61870   6.29614  -0.55626   0.00000   4.574E-02   0.000E+00   9.543E-01
  39  6.17903751   0.692   0.30300   3.61837   6.31052  -0.51313   0.00000   2.097E-02   0.000E+00   9.790E-01
  40  6.18966798   0.692   0.27466   3.61798   6.32359  -0.47383   0.00000   9.364E-03   0.000E+00   9.906E-01
  41  6.20004444   0.692   0.24822   3.61755   6.33568  -0.43752   0.00000   4.000E-03   0.000E+00   9.960E-01
  42  6.22494092   0.692   0.19016   3.61638   6.36176  -0.35916   0.00000   9.308E-04   0.000E+00   9.991E-01
  43  6.24848722   0.692   0.14073   3.61514   6.38353  -0.29373   0.00000   0.000E+00   0.000E+00   1.000E+00
  44  6.27082230   0.692   0.09766   3.61395   6.40228  -0.23742   0.00000   0.000E+00   0.000E+00   1.000E+00
  45  6.29206468   0.692   0.05968   3.61279   6.41862  -0.18830   0.00000   0.000E+00   0.000E+00   1.000E+00
  46  6.31231632   0.692   0.02588   3.61172   6.43309  -0.14482   0.00000   0.000E+00   0.000E+00   1.000E+00
  47  6.33166553   0.692  -0.00469   3.61071   6.44612  -0.10568   0.00000   0.000E+00   0.000E+00   1.000E+00
  48  6.35018931   0.692  -0.03263   3.60979   6.45799  -0.06996   0.00000   0.000E+00   0.000E+00   1.000E+00
  49  6.36795522   0.692  -0.05821   3.60891   6.46882  -0.03743   0.00000   0.000E+00   0.000E+00   1.000E+00
  50  6.38502285   0.692  -0.08179   3.60811   6.47880  -0.00741   0.00000   0.000E+00   0.000E+00   1.000E+00
  51  6.40144501   0.692  -0.10377   3.60733   6.48809   0.02052   0.00000   0.000E+00   0.000E+00   1.000E+00
  52  6.41726875   0.692  -0.12427   3.60662   6.49675   0.04658   0.00000   0.000E+00   0.000E+00   1.000E+00
  53  6.43253615   0.692  -0.14350   3.60594   6.50486   0.07097   0.00000   0.000E+00   0.000E+00   1.000E+00
  54  6.44728501   0.692  -0.16155   3.60531   6.51249   0.09390   0.00000   0.000E+00   0.000E+00   1.000E+00
  55  6.46154941   0.692  -0.17864   3.60470   6.51968   0.11553   0.00000   0.000E+00   0.000E+00   1.000E+00
  56  6.47536015   0.692  -0.19480   3.60413   6.52649   0.13601   0.00000   0.000E+00   0.000E+00   1.000E+00
  57  6.48874520   0.692  -0.21016   3.60358   6.53297   0.15549   0.00000   0.000E+00   0.000E+00   1.000E+00
  58  6.50173003   0.692  -0.22488   3.60306   6.53917   0.17411   0.00000   0.000E+00   0.000E+00   1.000E+00
  59  6.51433788   0.692  -0.23879   3.60257   6.54503   0.19176   0.00000   0.000E+00   0.000E+00   1.000E+00
  60  6.52659001   0.692  -0.25207   3.60209   6.55062   0.20858   0.00000   0.000E+00   0.000E+00   1.000E+00
  61  6.53850595   0.692  -0.26490   3.60163   6.55603   0.22484   0.00000   0.000E+00   0.000E+00   1.000E+00
  62  6.55010367   0.692  -0.27721   3.60119   6.56121   0.24045   0.00000   0.000E+00   0.000E+00   1.000E+00
  63  6.56139970   0.692  -0.28892   3.60077   6.56615   0.25529   0.00000   0.000E+00   0.000E+00   1.000E+00
  64  6.57240936   0.692  -0.30036   3.60035   6.57097   0.26979   0.00000   0.000E+00   0.000E+00   1.000E+00
  65  6.58314680   0.692  -0.31123   3.59997   6.57555   0.28358   0.00000   0.000E+00   0.000E+00   1.000E+00
  66  6.59362517   0.692  -0.32181   3.59959   6.58001   0.29699   0.00000   0.000E+00   0.000E+00   1.000E+00
  67  6.60385666   0.692  -0.33205   3.59923   6.58431   0.30996   0.00000   0.000E+00   0.000E+00   1.000E+00
  68  6.61385265   0.692  -0.34188   3.59888   6.58846   0.32244   0.00000   0.000E+00   0.000E+00   1.000E+00
  69  6.62362374   0.692  -0.35147   3.59854   6.59251   0.33463   0.00000   0.000E+00   0.000E+00   1.000E+00
  70  6.63317981   0.692  -0.36069   3.59821   6.59640   0.34634   0.00000   0.000E+00   0.000E+00   1.000E+00
  71  6.64253013   0.692  -0.36973   3.59788   6.60021   0.35780   0.00000   0.000E+00   0.000E+00   1.000E+00
  72  6.65168338   0.692  -0.37844   3.59757   6.60388   0.36886   0.00000   0.000E+00   0.000E+00   1.000E+00
  73  6.66064769   0.692  -0.38691   3.59728   6.60746   0.37964   0.00000   0.000E+00   0.000E+00   1.000E+00
  74  6.66943070   0.692  -0.39520   3.59699   6.61094   0.39021   0.00000   0.000E+00   0.000E+00   1.000E+00
  75  6.67803960   0.692  -0.40317   3.59671   6.61426   0.40041   0.00000   0.000E+00   0.000E+00   1.000E+00
  76  6.68648117   0.692  -0.41112   3.59643   6.61757   0.41060   0.00000   0.000E+00   0.000E+00   1.000E+00
  77  6.69476177   0.692  -0.41861   3.59616   6.62059   0.42028   0.00000   0.000E+00   0.000E+00   1.000E+00
  78  6.70288744   0.692  -0.42609   3.59590   6.62362   0.42997   0.00000   0.000E+00   0.000E+00   1.000E+00
  79  6.71086386   0.692  -0.43334   3.59565   6.62653   0.43941   0.00000   0.000E+00   0.000E+00   1.000E+00
  80  6.71869643   0.692  -0.44037   3.59540   6.62930   0.44862   0.00000   0.000E+00   0.000E+00   1.000E+00
  81  6.72639023   0.692  -0.44739   3.59515   6.63208   0.45782   0.00000   0.000E+00   0.000E+00   1.000E+00
  82  6.73395010   0.692  -0.45406   3.59492   6.63467   0.46665   0.00000   0.000E+00   0.000E+00   1.000E+00
  83  6.74138062   0.692  -0.46065   3.59469   6.63721   0.47540   0.00000   0.000E+00   0.000E+00   1.000E+00
  84  6.74868615   0.692  -0.46724   3.59446   6.63975   0.48415   0.00000   0.000E+00   0.000E+00   1.000E+00
  85  6.75587082   0.692  -0.47342   3.59425   6.64209   0.49249   0.00000   0.000E+00   0.000E+00   1.000E+00
  86  6.76293856   0.692  -0.47960   3.59404   6.64443   0.50081   0.00000   0.000E+00   0.000E+00   1.000E+00
  87  6.76989312   0.692  -0.48577   3.59383   6.64677   0.50914   0.00000   0.000E+00   0.000E+00   1.000E+00
  88  6.77673806   0.692  -0.49158   3.59363   6.64893   0.51707   0.00000   0.000E+00   0.000E+00   1.000E+00
  89  6.78347679   0.692  -0.49738   3.59343   6.65108   0.52499   0.00000   0.000E+00   0.000E+00   1.000E+00
  90  6.79011256   0.692  -0.50317   3.59324   6.65323   0.53290   0.00000   0.000E+00   0.000E+00   1.000E+00
  91  6.79664846   0.692  -0.50870   3.59305   6.65526   0.54055   0.00000   0.000E+00   0.000E+00   1.000E+00
  92  6.80308746   0.692  -0.51413   3.59287   6.65724   0.54809   0.00000   0.000E+00   0.000E+00   1.000E+00
  93  6.80943238   0.692  -0.51955   3.59268   6.65922   0.55563   0.00000   0.000E+00   0.000E+00   1.000E+00
  94  6.81568594   0.692  -0.52488   3.59251   6.66116   0.56307   0.00000   0.000E+00   0.000E+00   1.000E+00
  95  6.82185072   0.692  -0.52995   3.59234   6.66298   0.57024   0.00000   0.000E+00   0.000E+00   1.000E+00
  96  6.82792922   0.692  -0.53501   3.59218   6.66481   0.57742   0.00000   0.000E+00   0.000E+00   1.000E+00
  97  6.83392382   0.692  -0.54008   3.59201   6.66664   0.58459   0.00000   0.000E+00   0.000E+00   1.000E+00
  98  6.83983680   0.692  -0.54495   3.59185   6.66839   0.59156   0.00000   0.000E+00   0.000E+00   1.000E+00
  99  6.84567035   0.692  -0.54969   3.59170   6.67008   0.59839   0.00000   0.000E+00   0.000E+00   1.000E+00
 100  6.85142659   0.692  -0.55443   3.59154   6.67177   0.60521   0.00000   0.000E+00   0.000E+00   1.000E+00
 101  6.85710752   0.692  -0.55917   3.59139   6.67346   0.61204   0.00000   0.000E+00   0.000E+00   1.000E+00
 102  6.86271511   0.692  -0.56371   3.59124   6.67507   0.61866   0.00000   0.000E+00   0.000E+00   1.000E+00
 103  6.86825121   0.692  -0.56812   3.59110   6.67663   0.62516   0.00000   0.000E+00   0.000E+00   1.000E+00
 104  6.87371762   0.692  -0.57254   3.59096   6.67820   0.63166   0.00000   0.000E+00   0.000E+00   1.000E+00
 105  6.87911609   0.692  -0.57695   3.59082   6.67976   0.63815   0.00000   0.000E+00   0.000E+00   1.000E+00
 106  6.88444827   0.692  -0.58125   3.59069   6.68128   0.64452   0.00000   0.000E+00   0.000E+00   1.000E+00
 107  6.88971578   0.692  -0.58536   3.59056   6.68273   0.65070   0.00000   0.000E+00   0.000E+00   1.000E+00
 108  6.89492017   0.692  -0.58948   3.59043   6.68418   0.65688   0.00000   0.000E+00   0.000E+00   1.000E+00
 109  6.90006293   0.692  -0.59360   3.59030   6.68563   0.66307   0.00000   0.000E+00   0.000E+00   1.000E+00
 110  6.90514550   0.692  -0.59772   3.59018   6.68708   0.66925   0.00000   0.000E+00   0.000E+00   1.000E+00
 111  6.91016927   0.692  -0.60158   3.59006   6.68844   0.67517   0.00000   0.000E+00   0.000E+00   1.000E+00
 112  6.91513560   0.692  -0.60541   3.58995   6.68978   0.68106   0.00000   0.000E+00   0.000E+00   1.000E+00
 113  6.92004577   0.692  -0.60923   3.58983   6.69112   0.68694   0.00000   0.000E+00   0.000E+00   1.000E+00
 114  6.92490105   0.692  -0.61306   3.58972   6.69247   0.69283   0.00000   0.000E+00   0.000E+00   1.000E+00
 115  6.92970265   0.692  -0.61688   3.58961   6.69381   0.69871   0.00000   0.000E+00   0.000E+00   1.000E+00
 116  6.93445175   0.692  -0.62043   3.58951   6.69506   0.70431   0.00000   0.000E+00   0.000E+00   1.000E+00
 117  6.93914947   0.692  -0.62399   3.58941   6.69631   0.70991   0.00000   0.000E+00   0.000E+00   1.000E+00
 118  6.94379692   0.692  -0.62754   3.58931   6.69755   0.71552   0.00000   0.000E+00   0.000E+00   1.000E+00
 119  6.94839516   0.692  -0.63109   3.58921   6.69880   0.72112   0.00000   0.000E+00   0.000E+00   1.000E+00
 120  6.95294523   0.692  -0.63464   3.58911   6.70005   0.72672   0.00000   0.000E+00   0.000E+00   1.000E+00
 121  6.95744812   0.692  -0.63799   3.58902   6.70123   0.73211   0.00000   1.405E-04   0.000E+00   9.999E-01
 122  6.96190480   0.692  -0.64128   3.58893   6.70239   0.73745   0.00000   3.181E-04   0.000E+00   9.997E-01
 123  6.96631622   0.692  -0.64457   3.58884   6.70355   0.74278   0.00000   4.956E-04   0.000E+00   9.995E-01
 124  6.97068327   0.692  -0.64786   3.58875   6.70471   0.74812   0.00000   6.732E-04   0.000E+00   9.993E-01
 125  6.97500685   0.692  -0.65115   3.58866   6.70587   0.75345   0.00000   8.507E-04   0.000E+00   9.991E-01
 126  6.97928780   0.692  -0.65440   3.58858   6.70702   0.75875   0.00000   1.000E-03   0.000E+00   9.990E-01
 127  6.98352697   0.692  -0.65744   3.58850   6.70811   0.76383   0.00000   1.000E-03   0.000E+00   9.990E-01
 128  6.98772517   0.692  -0.66047   3.58843   6.70919   0.76891   0.00000   1.000E-03   0.000E+00   9.990E-01
 129  6.99188316   0.692  -0.66351   3.58835   6.71027   0.77399   0.00000   1.000E-03   0.000E+00   9.990E-01
 130  6.99600173   0.692  -0.66654   3.58828   6.71135   0.77907   0.00000   1.000E-03   0.000E+00   9.990E-01
 131  7.00008160   0.692  -0.66958   3.58820   6.71244   0.78415   0.00000   1.000E-03   0.000E+00   9.990E-01
 132  7.00412351   0.692  -0.67259   3.58812   6.71351   0.78921   0.00000   1.000E-03   0.000E+00   9.990E-01
 133  7.00812814   0.692  -0.67539   3.58806   6.71453   0.79405   0.00000   1.000E-03   0.000E+00   9.990E-01
 134  7.01209618   0.692  -0.67819   3.58800   6.71554   0.79888   0.00000   1.000E-03   0.000E+00   9.990E-01
 135  7.01602830   0.692  -0.68099   3.58793   6.71655   0.80372   0.00000   1.000E-03   0.000E+00   9.990E-01
 136  7.01992513   0.692  -0.68379   3.58787   6.71756   0.80856   0.00000   1.000E-03   0.000E+00   9.990E-01
 137  7.02378731   0.692  -0.68658   3.58781   6.71858   0.81339   0.00000   1.000E-03   0.000E+00   9.990E-01
 138  7.02761545   0.692  -0.68938   3.58774   6.71959   0.81823   0.00000   1.000E-03   0.000E+00   9.990E-01
 139  7.03141013   0.692  -0.69207   3.58768   6.72057   0.82295   0.00000   1.000E-03   0.000E+00   9.990E-01
 140  7.03517195   0.692  -0.69463   3.58763   6.72152   0.82755   0.00000   1.000E-03   0.000E+00   9.990E-01
 141  7.03890146   0.692  -0.69720   3.58758   6.72247   0.83215   0.00000   1.000E-03   0.000E+00   9.990E-01
 142  7.04259922   0.692  -0.69977   3.58753   6.72341   0.83675   0.00000   1.000E-03   0.000E+00   9.990E-01
 143  7.04626576   0.692  -0.70234   3.58748   6.72436   0.84135   0.00000   1.000E-03   0.000E+00   9.990E-01
 144  7.04990160   0.692  -0.70490   3.58742   6.72531   0.84595   0.00000   1.000E-03   0.000E+00   9.990E-01
 145  7.05350726   0.692  -0.70747   3.58737   6.72626   0.85055   0.00000   1.000E-03   0.000E+00   9.990E-01
 146  7.05708322   0.692  -0.70995   3.58732   6.72719   0.85506   0.00000   1.000E-03   0.000E+00   9.990E-01
 147  7.06062999   0.692  -0.71231   3.58728   6.72807   0.85943   0.00000   1.000E-03   0.000E+00   9.990E-01
 148  7.06414802   0.692  -0.71466   3.58724   6.72896   0.86381   0.00000   1.000E-03   0.000E+00   9.990E-01
 149  7.06763778   0.692  -0.71701   3.58720   6.72985   0.86818   0.00000   1.000E-03   0.000E+00   9.990E-01
 150  7.07109973   0.692  -0.71937   3.58716   6.73074   0.87255   0.00000   1.000E-03   0.000E+00   9.990E-01
 151  7.07453429   0.692  -0.72172   3.58712   6.73163   0.87693   0.00000   1.000E-03   0.000E+00   9.990E-01
 152  7.07794191   0.692  -0.72408   3.58707   6.73252   0.88130   0.00000   1.000E-03   0.000E+00   9.990E-01
 153  7.08132300   0.692  -0.72643   3.58703   6.73341   0.88567   0.00000   1.000E-03   0.000E+00   9.990E-01
 154  7.08467797   0.692  -0.72859   3.58700   6.73425   0.88985   0.00000   1.118E-03   0.000E+00   9.989E-01
 155  7.08800722   0.692  -0.73073   3.58697   6.73508   0.89401   0.00000   1.245E-03   0.000E+00   9.988E-01
 156  7.09131114   0.692  -0.73287   3.58694   6.73591   0.89817   0.00000   1.372E-03   0.000E+00   9.986E-01
 157  7.09459012   0.692  -0.73501   3.58692   6.73674   0.90233   0.00000   1.499E-03   0.000E+00   9.985E-01
 158  7.09784452   0.692  -0.73715   3.58689   6.73758   0.90649   0.00000   1.626E-03   0.000E+00   9.984E-01
 159  7.10107472   0.692  -0.73930   3.58686   6.73841   0.91065   0.00000   1.753E-03   0.000E+00   9.982E-01
 160  7.10428107   0.692  -0.74144   3.58683   6.73924   0.91481   0.00000   1.880E-03   0.000E+00   9.981E-01
 161  7.10746393   0.692  -0.74357   3.58680   6.74007   0.91896   0.00000   2.000E-03   0.000E+00   9.980E-01
 162  7.11062362   0.692  -0.74552   3.58678   6.74086   0.92293   0.00000   2.000E-03   0.000E+00   9.980E-01
 163  7.11376050   0.692  -0.74747   3.58676   6.74165   0.92689   0.00000   2.000E-03   0.000E+00   9.980E-01
 164  7.11687487   0.692  -0.74942   3.58674   6.74244   0.93086   0.00000   2.000E-03   0.000E+00   9.980E-01
 165  7.11996708   0.692  -0.75137   3.58673   6.74322   0.93482   0.00000   2.000E-03   0.000E+00   9.980E-01
 166  7.12303742   0.692  -0.75333   3.58671   6.74401   0.93879   0.00000   2.000E-03   0.000E+00   9.980E-01
 167  7.12608621   0.692  -0.75528   3.58669   6.74480   0.94275   0.00000   2.000E-03   0.000E+00   9.980E-01
 168  7.12911375   0.692  -0.75723   3.58667   6.74558   0.94672   0.00000   2.000E-03   0.000E+00   9.980E-01
 169  7.13212032   0.692  -0.75918   3.58665   6.74637   0.95069   0.00000   2.000E-03   0.000E+00   9.980E-01
 170  7.13510623   0.692  -0.76100   3.58664   6.74713   0.95452   0.00000   2.087E-03   0.000E+00   9.979E-01
 171  7.13807174   0.692  -0.76277   3.58663   6.74787   0.95830   0.00000   2.202E-03   0.000E+00   9.978E-01
 172  7.14101714   0.692  -0.76455   3.58662   6.74862   0.96209   0.00000   2.317E-03   0.000E+00   9.977E-01
 173  7.14394271   0.692  -0.76632   3.58662   6.74937   0.96588   0.00000   2.431E-03   0.000E+00   9.976E-01
 174  7.14684869   0.692  -0.76809   3.58661   6.75012   0.96967   0.00000   2.546E-03   0.000E+00   9.975E-01
 175  7.14973536   0.692  -0.76987   3.58660   6.75086   0.97345   0.00000   2.661E-03   0.000E+00   9.973E-01
 176  7.15260297   0.692  -0.77164   3.58659   6.75161   0.97724   0.00000   2.776E-03   0.000E+00   9.972E-01
 177  7.15545177   0.692  -0.77342   3.58658   6.75236   0.98103   0.00000   2.891E-03   0.000E+00   9.971E-01
 178  7.15828201   0.692  -0.77518   3.58657   6.75310   0.98481   0.00000   3.000E-03   0.000E+00   9.970E-01
 179  7.16109392   0.692  -0.77679   3.58657   6.75381   0.98843   0.00000   3.000E-03   0.000E+00   9.970E-01
 180  7.16388774   0.692  -0.77840   3.58657   6.75452   0.99204   0.00000   3.000E-03   0.000E+00   9.970E-01
 181  7.16666370   0.692  -0.78001   3.58657   6.75523   0.99566   0.00000   3.000E-03   0.000E+00   9.970E-01
 182  7.16942203   0.692  -0.78162   3.58657   6.75594   0.99928   0.00000   3.000E-03   0.000E+00   9.970E-01
 183  7.17216295   0.692  -0.78323   3.58658   6.75665   1.00290   0.00000   3.000E-03   0.000E+00   9.970E-01
 184  7.17488669   0.692  -0.78484   3.58658   6.75736   1.00652   0.00000   3.000E-03   0.000E+00   9.970E-01
 185  7.17759344   0.692  -0.78645   3.58658   6.75807   1.01014   0.00000   3.000E-03   0.000E+00   9.970E-01
 186  7.18028343   0.692  -0.78806   3.58658   6.75878   1.01375   0.00000   3.000E-03   0.000E+00   9.970E-01
 187  7.18295687   0.692  -0.78967   3.58658   6.75949   1.01737   0.00000   3.000E-03   0.000E+00   9.970E-01
 188  7.18561394   0.692  -0.79114   3.58659   6.76017   1.02085   0.00000   3.095E-03   0.000E+00   9.969E-01
 189  7.18825486   0.692  -0.79259   3.58660   6.76084   1.02431   0.00000   3.200E-03   0.000E+00   9.968E-01
 190  7.19087982   0.692  -0.79404   3.58661   6.76152   1.02778   0.00000   3.304E-03   0.000E+00   9.967E-01
 191  7.19348900   0.692  -0.79550   3.58662   6.76219   1.03124   0.00000   3.409E-03   0.000E+00   9.966E-01
 192  7.19608261   0.692  -0.79695   3.58663   6.76287   1.03470   0.00000   3.514E-03   0.000E+00   9.965E-01
 193  7.19866081   0.692  -0.79841   3.58664   6.76354   1.03817   0.00000   3.618E-03   0.000E+00   9.964E-01
 194  7.20122380   0.692  -0.79986   3.58665   6.76422   1.04163   0.00000   3.723E-03   0.000E+00   9.963E-01
 195  7.20377176   0.692  -0.80132   3.58665   6.76489   1.04509   0.00000   3.827E-03   0.000E+00   9.962E-01
 196  7.20630485   0.692  -0.80277   3.58666   6.76557   1.04856   0.00000   3.932E-03   0.000E+00   9.961E-01
 197  7.20882325   0.692  -0.80417   3.58668   6.76623   1.05197   0.00000   4.035E-03   0.000E+00   9.960E-01
 198  7.21132714   0.692  -0.80548   3.58669   6.76688   1.05529   0.00000   4.135E-03   0.000E+00   9.959E-01
 199  7.21381667   0.692  -0.80679   3.58671   6.76753   1.05861   0.00000   4.235E-03   0.000E+00   9.958E-01
 200  7.21629201   0.692  -0.80810   3.58673   6.76818   1.06193   0.00000   4.335E-03   0.000E+00   9.957E-01
 201  7.21875332   0.692  -0.80941   3.58675   6.76882   1.06525   0.00000   4.435E-03   0.000E+00   9.956E-01
 202  7.22120077   0.692  -0.81072   3.58677   6.76947   1.06857   0.00000   4.535E-03   0.000E+00   9.955E-01
 203  7.22363449   0.692  -0.81203   3.58678   6.77012   1.07189   0.00000   4.635E-03   0.000E+00   9.954E-01
 204  7.22605466   0.692  -0.81335   3.58680   6.77076   1.07521   0.00000   4.735E-03   0.000E+00   9.953E-01
 205  7.22846141   0.692  -0.81466   3.58682   6.77141   1.07853   0.00000   4.835E-03   0.000E+00   9.952E-01
 206  7.23085490   0.692  -0.81597   3.58684   6.77206   1.08184   0.00000   4.935E-03   0.000E+00   9.951E-01
 207  7.23323527   0.692  -0.81723   3.58686   6.77270   1.08512   0.00000   5.033E-03   0.000E+00   9.950E-01
 208  7.23560266   0.692  -0.81840   3.58689   6.77332   1.08830   0.00000   5.129E-03   0.000E+00   9.949E-01
 209  7.23795722   0.692  -0.81957   3.58691   6.77394   1.09149   0.00000   5.225E-03   0.000E+00   9.948E-01
 210  7.24029908   0.692  -0.82075   3.58694   6.77456   1.09467   0.00000   5.321E-03   0.000E+00   9.947E-01
 211  7.24262838   0.692  -0.82192   3.58697   6.77518   1.09785   0.00000   5.417E-03   0.000E+00   9.946E-01
 212  7.24494526   0.692  -0.82309   3.58699   6.77580   1.10104   0.00000   5.513E-03   0.000E+00   9.945E-01
 213  7.24724984   0.692  -0.82427   3.58702   6.77642   1.10422   0.00000   5.608E-03   0.000E+00   9.944E-01
 214  7.24954226   0.692  -0.82544   3.58705   6.77704   1.10741   0.00000   5.704E-03   0.000E+00   9.943E-01
 215  7.25182264   0.692  -0.82661   3.58707   6.77766   1.11059   0.00000   5.800E-03   0.000E+00   9.942E-01
 216  7.25409111   0.692  -0.82779   3.58710   6.77829   1.11377   0.00000   5.896E-03   0.000E+00   9.941E-01
 217  7.25634779   0.692  -0.82896   3.58713   6.77891   1.11696   0.00000   5.992E-03   0.000E+00   9.940E-01
 218  7.25859280   0.692  -0.83002   3.58716   6.77951   1.12003   0.00000   6.084E-03   0.000E+00   9.939E-01
 219  7.26082627   0.692  -0.83106   3.58720   6.78011   1.12309   0.00000   6.176E-03   0.000E+00   9.938E-01
 220  7.26304831   0.692  -0.83211   3.58723   6.78071   1.12615   0.00000   6.268E-03   0.000E+00   9.937E-01
 221  7.26525904   0.692  -0.83316   3.58726   6.78131   1.12921   0.00000   6.360E-03   0.000E+00   9.936E-01
 222  7.26745858   0.692  -0.83420   3.58730   6.78190   1.13226   0.00000   6.452E-03   0.000E+00   9.935E-01
 223  7.26964703   0.692  -0.83525   3.58733   6.78250   1.13532   0.00000   6.544E-03   0.000E+00   9.935E-01
 224  7.27182451   0.692  -0.83630   3.58737   6.78310   1.13838   0.00000   6.636E-03   0.000E+00   9.934E-01
 225  7.27399112   0.692  -0.83734   3.58740   6.78370   1.14144   0.00000   6.728E-03   0.000E+00   9.933E-01
 226  7.27614698   0.692  -0.83839   3.58743   6.78430   1.14450   0.00000   6.820E-03   0.000E+00   9.932E-01
 227  7.27829219   0.692  -0.83943   3.58747   6.78490   1.14756   0.00000   6.912E-03   0.000E+00   9.931E-01
 228  7.28042686   0.692  -0.84047   3.58750   6.78550   1.15061   0.00000   7.008E-03   0.000E+00   9.930E-01
 229  7.28255108   0.692  -0.84140   3.58755   6.78608   1.15355   0.00000   7.185E-03   0.000E+00   9.928E-01
 230  7.28466497   0.692  -0.84232   3.58759   6.78666   1.15650   0.00000   7.362E-03   0.000E+00   9.926E-01
 231  7.28676862   0.692  -0.84325   3.58763   6.78724   1.15944   0.00000   7.539E-03   0.000E+00   9.925E-01
 232  7.28886212   0.692  -0.84417   3.58768   6.78782   1.16238   0.00000   7.716E-03   0.000E+00   9.923E-01
 233  7.29094559   0.692  -0.84509   3.58772   6.78840   1.16532   0.00000   7.893E-03   0.000E+00   9.921E-01
 234  7.29301910   0.692  -0.84602   3.58776   6.78898   1.16826   0.00000   8.070E-03   0.000E+00   9.919E-01
 235  7.29508276   0.692  -0.84694   3.58781   6.78956   1.17121   0.00000   8.247E-03   0.000E+00   9.918E-01
 236  7.29713667   0.692  -0.84786   3.58785   6.79014   1.17415   0.00000   8.424E-03   0.000E+00   9.916E-01
 237  7.29918090   0.692  -0.84879   3.58789   6.79072   1.17709   0.00000   8.601E-03   0.000E+00   9.914E-01
 238  7.30121556   0.692  -0.84971   3.58794   6.79130   1.18003   0.00000   8.778E-03   0.000E+00   9.912E-01
 239  7.30324073   0.692  -0.85064   3.58798   6.79188   1.18298   0.00000   8.955E-03   0.000E+00   9.910E-01
 240  7.30525650   0.692  -0.85148   3.58803   6.79245   1.18584   0.00000   9.064E-03   0.000E+00   9.909E-01
 241  7.30726296   0.692  -0.85229   3.58808   6.79301   1.18867   0.00000   9.149E-03   0.000E+00   9.909E-01
 242  7.30926019   0.692  -0.85310   3.58813   6.79358   1.19150   0.00000   9.234E-03   0.000E+00   9.908E-01
 243  7.31124828   0.692  -0.85391   3.58818   6.79414   1.19433   0.00000   9.319E-03   0.000E+00   9.907E-01
 244  7.31322730   0.692  -0.85473   3.58823   6.79470   1.19717   0.00000   9.405E-03   0.000E+00   9.906E-01
 245  7.31519735   0.692  -0.85554   3.58828   6.79526   1.20000   0.00000   9.490E-03   0.000E+00   9.905E-01
 246  7.31715851   0.692  -0.85635   3.58833   6.79583   1.20283   0.00000   9.575E-03   0.000E+00   9.904E-01
 247  7.31911085   0.692  -0.85716   3.58838   6.79639   1.20567   0.00000   9.660E-03   0.000E+00   9.903E-01
 248  7.32105445   0.692  -0.85797   3.58843   6.79695   1.20850   0.00000   9.745E-03   0.000E+00   9.903E-01
 249  7.32298939   0.692  -0.85879   3.58848   6.79751   1.21133   0.00000   9.831E-03   0.000E+00   9.902E-01
 250  7.32491575   0.692  -0.85960   3.58853   6.79807   1.21416   0.00000   9.916E-03   0.000E+00   9.901E-01
 251  7.32683360   0.692  -0.86041   3.58858   6.79864   1.21700   0.00000   1.000E-02   0.000E+00   9.900E-01
 252  7.32874302   0.692  -0.86111   3.58864   6.79918   1.21973   0.00000   1.017E-02   0.000E+00   9.898E-01
 253  7.33064408   0.692  -0.86182   3.58870   6.79973   1.22246   0.00000   1.033E-02   0.000E+00   9.897E-01
 254  7.33253685   0.692  -0.86252   3.58875   6.80028   1.22519   0.00000   1.050E-02   0.000E+00   9.895E-01
 255  7.33442142   0.692  -0.86322   3.58881   6.80083   1.22793   0.00000   1.066E-02   0.000E+00   9.893E-01
 256  7.33629784   0.692  -0.86392   3.58887   6.80137   1.23066   0.00000   1.082E-02   0.000E+00   9.892E-01
 257  7.33816618   0.692  -0.86463   3.58893   6.80192   1.23339   0.00000   1.099E-02   0.000E+00   9.890E-01
 258  7.34002653   0.692  -0.86533   3.58898   6.80247   1.23612   0.00000   1.115E-02   0.000E+00   9.888E-01
 259  7.34187894   0.692  -0.86603   3.58904   6.80302   1.23886   0.00000   1.132E-02   0.000E+00   9.887E-01
 260  7.34372348   0.692  -0.86674   3.58910   6.80356   1.24159   0.00000   1.148E-02   0.000E+00   9.885E-01
 261  7.34556022   0.692  -0.86744   3.58916   6.80411   1.24432   0.00000   1.165E-02   0.000E+00   9.884E-01
 262  7.34738923   0.692  -0.86814   3.58921   6.80466   1.24705   0.00000   1.181E-02   0.000E+00   9.882E-01
 263  7.34921056   0.692  -0.86884   3.58927   6.80521   1.24979   0.00000   1.198E-02   0.000E+00   9.880E-01
 264  7.35102429   0.692  -0.86946   3.58934   6.80574   1.25244   0.00000   1.220E-02   0.000E+00   9.878E-01
 265  7.35283048   0.692  -0.87006   3.58940   6.80628   1.25508   0.00000   1.244E-02   0.000E+00   9.876E-01
 266  7.35462918   0.692  -0.87067   3.58947   6.80681   1.25772   0.00000   1.268E-02   0.000E+00   9.873E-01
 267  7.35642047   0.692  -0.87127   3.58953   6.80735   1.26036   0.00000   1.292E-02   0.000E+00   9.871E-01
 268  7.35820439   0.692  -0.87187   3.58960   6.80788   1.26299   0.00000   1.316E-02   0.000E+00   9.868E-01
 269  7.35998102   0.692  -0.87247   3.58966   6.80842   1.26563   0.00000   1.339E-02   0.000E+00   9.866E-01
 270  7.36175042   0.692  -0.87307   3.58973   6.80895   1.26827   0.00000   1.363E-02   0.000E+00   9.864E-01
 271  7.36351263   0.692  -0.87368   3.58979   6.80949   1.27091   0.00000   1.387E-02   0.000E+00   9.861E-01
 272  7.36526772   0.692  -0.87428   3.58986   6.81002   1.27355   0.00000   1.411E-02   0.000E+00   9.859E-01
 273  7.36701575   0.692  -0.87488   3.58992   6.81055   1.27619   0.00000   1.435E-02   0.000E+00   9.857E-01
 274  7.36875676   0.692  -0.87548   3.58999   6.81109   1.27883   0.00000   1.459E-02   0.000E+00   9.854E-01
 275  7.37049083   0.692  -0.87608   3.59005   6.81162   1.28146   0.00000   1.482E-02   0.000E+00   9.852E-01
 276  7.37221800   0.692  -0.87666   3.59012   6.81216   1.28408   0.00000   1.506E-02   0.000E+00   9.849E-01
 277  7.37393833   0.692  -0.87716   3.59019   6.81268   1.28663   0.00000   1.529E-02   0.000E+00   9.847E-01
 278  7.37565187   0.692  -0.87767   3.59026   6.81320   1.28918   0.00000   1.552E-02   0.000E+00   9.845E-01
 279  7.37735868   0.692  -0.87817   3.59033   6.81373   1.29173   0.00000   1.575E-02   0.000E+00   9.842E-01
 280  7.37905881   0.692  -0.87867   3.59040   6.81425   1.29428   0.00000   1.598E-02   0.000E+00   9.840E-01
 281  7.38075230   0.692  -0.87918   3.59048   6.81478   1.29683   0.00000   1.621E-02   0.000E+00   9.838E-01
 282  7.38243922   0.692  -0.87968   3.59055   6.81530   1.29939   0.00000   1.644E-02   0.000E+00   9.836E-01
 283  7.38411961   0.692  -0.88018   3.59062   6.81582   1.30194   0.00000   1.667E-02   0.000E+00   9.833E-01
 284  7.38579353   0.692  -0.88069   3.59069   6.81635   1.30449   0.00000   1.690E-02   0.000E+00   9.831E-01
 285  7.38746101   0.692  -0.88119   3.59076   6.81687   1.30704   0.00000   1.713E-02   0.000E+00   9.829E-01
 286  7.38912212   0.692  -0.88169   3.59083   6.81740   1.30959   0.00000   1.737E-02   0.000E+00   9.826E-01
 287  7.39077690   0.692  -0.88220   3.59090   6.81792   1.31214   0.00000   1.760E-02   0.000E+00   9.824E-01
 288  7.39242540   0.692  -0.88270   3.59098   6.81845   1.31469   0.00000   1.783E-02   0.000E+00   9.822E-01
 289  7.39406767   0.692  -0.88318   3.59105   6.81897   1.31722   0.00000   1.806E-02   0.000E+00   9.819E-01
 290  7.39570374   0.692  -0.88360   3.59113   6.81948   1.31969   0.00000   1.828E-02   0.000E+00   9.817E-01
 291  7.39733368   0.692  -0.88401   3.59121   6.82000   1.32216   0.00000   1.850E-02   0.000E+00   9.815E-01
 292  7.39895753   0.692  -0.88443   3.59128   6.82051   1.32462   0.00000   1.873E-02   0.000E+00   9.813E-01
 293  7.40057532   0.692  -0.88485   3.59136   6.82102   1.32709   0.00000   1.895E-02   0.000E+00   9.811E-01
 294  7.40218711   0.692  -0.88526   3.59144   6.82154   1.32956   0.00000   1.917E-02   0.000E+00   9.808E-01
 295  7.40379294   0.692  -0.88568   3.59152   6.82205   1.33203   0.00000   1.940E-02   0.000E+00   9.806E-01
 296  7.40539286   0.692  -0.88609   3.59160   6.82256   1.33449   0.00000   1.962E-02   0.000E+00   9.804E-01
 297  7.40698690   0.692  -0.88651   3.59167   6.82308   1.33696   0.00000   1.984E-02   0.000E+00   9.802E-01
 298  7.40857511   0.692  -0.88692   3.59175   6.82359   1.33943   0.00000   2.007E-02   0.000E+00   9.799E-01
 299  7.41015754   0.692  -0.88734   3.59183   6.82411   1.34190   0.00000   2.029E-02   0.000E+00   9.797E-01
 300  7.41173422   0.692  -0.88775   3.59191   6.82462   1.34436   0.00000   2.051E-02   0.000E+00   9.795E-01
 301  7.41330520   0.692  -0.88817   3.59199   6.82513   1.34683   0.00000   2.074E-02   0.000E+00   9.793E-01
 302  7.41487051   0.692  -0.88859   3.59207   6.82565   1.34930   0.00000   2.096E-02   0.000E+00   9.790E-01
 303  7.41643021   0.692  -0.88892   3.59215   6.82616   1.35170   0.00000   2.124E-02   0.000E+00   9.788E-01
 304  7.41798432   0.692  -0.88925   3.59224   6.82666   1.35409   0.00000   2.153E-02   0.000E+00   9.785E-01
 305  7.41953289   0.692  -0.88957   3.59232   6.82717   1.35648   0.00000   2.182E-02   0.000E+00   9.782E-01
 306  7.42107596   0.692  -0.88989   3.59241   6.82768   1.35887   0.00000   2.210E-02   0.000E+00   9.779E-01
 307  7.42261357   0.692  -0.89021   3.59249   6.82818   1.36126   0.00000   2.239E-02   0.000E+00   9.776E-01
 308  7.42414575   0.692  -0.89054   3.59258   6.82869   1.36365   0.00000   2.268E-02   0.000E+00   9.773E-01
 309  7.42567254   0.692  -0.89086   3.59267   6.82920   1.36604   0.00000   2.297E-02   0.000E+00   9.770E-01
 310  7.42719399   0.692  -0.89118   3.59275   6.82970   1.36842   0.00000   2.326E-02   0.000E+00   9.767E-01
 311  7.42871012   0.692  -0.89150   3.59284   6.83021   1.37081   0.00000   2.355E-02   0.000E+00   9.765E-01
 312  7.43022098   0.692  -0.89183   3.59292   6.83071   1.37320   0.00000   2.384E-02   0.000E+00   9.762E-01
 313  7.43172661   0.692  -0.89215   3.59301   6.83122   1.37559   0.00000   2.413E-02   0.000E+00   9.759E-01
 314  7.43322703   0.692  -0.89247   3.59310   6.83173   1.37798   0.00000   2.442E-02   0.000E+00   9.756E-01
 315  7.43472228   0.692  -0.89279   3.59318   6.83223   1.38037   0.00000   2.471E-02   0.000E+00   9.753E-01
 316  7.43621241   0.692  -0.89311   3.59327   6.83274   1.38276   0.00000   2.500E-02   0.000E+00   9.750E-01
 317  7.43769743   0.692  -0.89335   3.59336   6.83324   1.38508   0.00000   2.534E-02   0.000E+00   9.747E-01
 318  7.43917740   0.692  -0.89359   3.59345   6.83374   1.38739   0.00000   2.570E-02   0.000E+00   9.743E-01
 319  7.44065234   0.692  -0.89382   3.59355   6.83424   1.38971   0.00000   2.605E-02   0.000E+00   9.740E-01
 320  7.44212229   0.692  -0.89406   3.59364   6.83474   1.39202   0.00000   2.640E-02   0.000E+00   9.736E-01
 321  7.44358729   0.692  -0.89430   3.59373   6.83524   1.39434   0.00000   2.675E-02   0.000E+00   9.733E-01
 322  7.44504735   0.692  -0.89453   3.59382   6.83574   1.39666   0.00000   2.710E-02   0.000E+00   9.729E-01
 323  7.44650253   0.692  -0.89477   3.59392   6.83624   1.39897   0.00000   2.745E-02   0.000E+00   9.725E-01
 324  7.44795284   0.692  -0.89500   3.59401   6.83674   1.40129   0.00000   2.780E-02   0.000E+00   9.722E-01
 325  7.44939833   0.692  -0.89524   3.59410   6.83724   1.40361   0.00000   2.815E-02   0.000E+00   9.718E-01
 326  7.45083902   0.692  -0.89547   3.59420   6.83774   1.40592   0.00000   2.850E-02   0.000E+00   9.715E-01
 327  7.45227495   0.692  -0.89571   3.59429   6.83824   1.40824   0.00000   2.886E-02   0.000E+00   9.711E-01
 328  7.45370614   0.692  -0.89595   3.59438   6.83874   1.41055   0.00000   2.921E-02   0.000E+00   9.708E-01
 329  7.45513264   0.692  -0.89618   3.59447   6.83924   1.41287   0.00000   2.956E-02   0.000E+00   9.704E-01
 330  7.45655447   0.692  -0.89642   3.59457   6.83974   1.41519   0.00000   2.991E-02   0.000E+00   9.701E-01
 331  7.45797165   0.692  -0.89659   3.59466   6.84024   1.41745   0.00000   3.025E-02   0.000E+00   9.697E-01
 332  7.45938423   0.692  -0.89674   3.59476   6.84073   1.41970   0.00000   3.059E-02   0.000E+00   9.694E-01
 333  7.46079222   0.692  -0.89690   3.59486   6.84123   1.42194   0.00000   3.094E-02   0.000E+00   9.691E-01
 334  7.46219567   0.692  -0.89705   3.59497   6.84172   1.42419   0.00000   3.128E-02   0.000E+00   9.687E-01
 335  7.46359460   0.692  -0.89720   3.59507   6.84222   1.42643   0.00000   3.162E-02   0.000E+00   9.684E-01
 336  7.46498903   0.692  -0.89735   3.59517   6.84271   1.42868   0.00000   3.196E-02   0.000E+00   9.680E-01
 337  7.46637900   0.692  -0.89750   3.59527   6.84321   1.43092   0.00000   3.230E-02   0.000E+00   9.677E-01
 338  7.46776454   0.692  -0.89765   3.59537   6.84370   1.43317   0.00000   3.264E-02   0.000E+00   9.674E-01
 339  7.46914567   0.692  -0.89780   3.59547   6.84420   1.43541   0.00000   3.298E-02   0.000E+00   9.670E-01
 340  7.47052242   0.692  -0.89796   3.59557   6.84469   1.43766   0.00000   3.333E-02   0.000E+00   9.667E-01
 341  7.47189482   0.692  -0.89811   3.59567   6.84519   1.43990   0.00000   3.367E-02   0.000E+00   9.663E-01
 342  7.47326290   0.692  -0.89826   3.59577   6.84568   1.44215   0.00000   3.401E-02   0.000E+00   9.660E-01
 343  7.47462668   0.692  -0.89841   3.59587   6.84618   1.44439   0.00000   3.435E-02   0.000E+00   9.657E-01
 344  7.47598620   0.692  -0.89856   3.59597   6.84667   1.44664   0.00000   3.469E-02   0.000E+00   9.653E-01
 345  7.47734147   0.692  -0.89871   3.59607   6.84717   1.44888   0.00000   3.504E-02   0.000E+00   9.650E-01
 346  7.47869252   0.692  -0.89877   3.59618   6.84766   1.45105   0.00000   3.544E-02   0.000E+00   9.646E-01
 347  7.48003939   0.692  -0.89884   3.59629   6.84815   1.45323   0.00000   3.584E-02   0.000E+00   9.642E-01
 348  7.48138209   0.692  -0.89891   3.59639   6.84864   1.45540   0.00000   3.623E-02   0.000E+00   9.638E-01
 349  7.48272065   0.692  -0.89898   3.59650   6.84913   1.45758   0.00000   3.663E-02   0.000E+00   9.634E-01
 350  7.48405510   0.692  -0.89905   3.59661   6.84962   1.45976   0.00000   3.703E-02   0.000E+00   9.630E-01
 351  7.48538546   0.692  -0.89911   3.59672   6.85011   1.46193   0.00000   3.743E-02   0.000E+00   9.626E-01
 352  7.48671176   0.692  -0.89918   3.59682   6.85061   1.46411   0.00000   3.783E-02   0.000E+00   9.622E-01
 353  7.48803402   0.692  -0.89925   3.59693   6.85110   1.46628   0.00000   3.823E-02   0.000E+00   9.618E-01
 354  7.48935227   0.692  -0.89932   3.59704   6.85159   1.46846   0.00000   3.863E-02   0.000E+00   9.614E-01
 355  7.49066652   0.692  -0.89938   3.59715   6.85208   1.47063   0.00000   3.903E-02   0.000E+00   9.610E-01
 356  7.49197682   0.692  -0.89945   3.59725   6.85257   1.47281   0.00000   3.943E-02   0.000E+00   9.606E-01
 357  7.49328317   0.692  -0.89952   3.59736   6.85306   1.47499   0.00000   3.982E-02   0.000E+00   9.602E-01
 358  7.49458560   0.692  -0.89959   3.59747   6.85355   1.47716   0.00000   4.022E-02   0.000E+00   9.598E-01
 359  7.49588414   0.692  -0.89966   3.59758   6.85404   1.47934   0.00000   4.062E-02   0.000E+00   9.594E-01
 360  7.49717881   0.692  -0.89972   3.59769   6.85454   1.48151   0.00000   4.102E-02   0.000E+00   9.590E-01
 361  7.49846963   0.692  -0.89970   3.59780   6.85502   1.48362   0.00000   4.148E-02   0.000E+00   9.585E-01
 362  7.49975662   0.692  -0.89968   3.59792   6.85551   1.48573   0.00000   4.193E-02   0.000E+00   9.581E-01
 363  7.50103981   0.692  -0.89965   3.59804   6.85600   1.48784   0.00000   4.238E-02   0.000E+00   9.576E-01
 364  7.50231923   0.692  -0.89963   3.59816   6.85649   1.48995   0.00000   4.284E-02   0.000E+00   9.572E-01
 365  7.50359488   0.692  -0.89961   3.59828   6.85698   1.49206   0.00000   4.329E-02   0.000E+00   9.567E-01
 366  7.50486680   0.692  -0.89959   3.59840   6.85747   1.49417   0.00000   4.374E-02   0.000E+00   9.563E-01
 367  7.50613500   0.692  -0.89957   3.59852   6.85795   1.49629   0.00000   4.420E-02   0.000E+00   9.558E-01
 368  7.50739951   0.692  -0.89955   3.59863   6.85844   1.49840   0.00000   4.465E-02   0.000E+00   9.553E-01
 369  7.50866035   0.692  -0.89953   3.59875   6.85893   1.50051   0.00000   4.510E-02   0.000E+00   9.549E-01
 370  7.50991754   0.692  -0.89951   3.59887   6.85942   1.50262   0.00000   4.556E-02   0.000E+00   9.544E-01
 371  7.51117110   0.692  -0.89948   3.59899   6.85991   1.50473   0.00000   4.601E-02   0.000E+00   9.540E-01
 372  7.51242106   0.692  -0.89946   3.59911   6.86040   1.50684   0.00000   4.646E-02   0.000E+00   9.535E-01
 373  7.51366742   0.692  -0.89944   3.59923   6.86088   1.50895   0.00000   4.692E-02   0.000E+00   9.531E-01
 374  7.51491022   0.692  -0.89942   3.59935   6.86137   1.51106   0.00000   4.737E-02   0.000E+00   9.526E-01
 375  7.51614948   0.692  -0.89940   3.59946   6.86186   1.51317   0.00000   4.782E-02   0.000E+00   9.522E-01
 376  7.51738520   0.692  -0.89933   3.59959   6.86235   1.51524   0.00000   4.831E-02   0.000E+00   9.517E-01
 377  7.51861742   0.692  -0.89922   3.59972   6.86283   1.51729   0.00000   4.883E-02   0.000E+00   9.512E-01
 378  7.51984616   0.692  -0.89911   3.59984   6.86332   1.51933   0.00000   4.934E-02   0.000E+00   9.507E-01
 379  7.52107143   0.692  -0.89901   3.59997   6.86380   1.52138   0.00000   4.985E-02   0.000E+00   9.501E-01
 380  7.52229325   0.692  -0.89890   3.60010   6.86429   1.52343   0.00000   5.036E-02   0.000E+00   9.496E-01
 381  7.52351164   0.692  -0.89880   3.60023   6.86477   1.52547   0.00000   5.088E-02   0.000E+00   9.491E-01
 382  7.52472662   0.692  -0.89869   3.60036   6.86526   1.52752   0.00000   5.139E-02   0.000E+00   9.486E-01
 383  7.52593822   0.692  -0.89859   3.60049   6.86574   1.52956   0.00000   5.190E-02   0.000E+00   9.481E-01
 384  7.52714644   0.692  -0.89848   3.60061   6.86623   1.53161   0.00000   5.241E-02   0.000E+00   9.476E-01
 385  7.52835132   0.692  -0.89837   3.60074   6.86671   1.53365   0.00000   5.293E-02   0.000E+00   9.471E-01
 386  7.52955285   0.692  -0.89827   3.60087   6.86720   1.53570   0.00000   5.344E-02   0.000E+00   9.466E-01
 387  7.53075108   0.692  -0.89816   3.60100   6.86768   1.53775   0.00000   5.395E-02   0.000E+00   9.460E-01
 388  7.53194601   0.692  -0.89806   3.60113   6.86817   1.53979   0.00000   5.446E-02   0.000E+00   9.455E-01
 389  7.53313765   0.692  -0.89795   3.60125   6.86865   1.54184   0.00000   5.498E-02   0.000E+00   9.450E-01
 390  7.53432604   0.692  -0.89785   3.60138   6.86914   1.54388   0.00000   5.549E-02   0.000E+00   9.445E-01
 391  7.53551119   0.692  -0.89774   3.60151   6.86962   1.54593   0.00000   5.600E-02   0.000E+00   9.440E-01
 392  7.54136614   0.692  -0.89675   3.60221   6.87203   1.55581   0.00000   5.885E-02   0.000E+00   9.411E-01
 393  7.54714321   0.692  -0.89577   3.60291   6.87445   1.56570   0.00000   6.171E-02   0.000E+00   9.383E-01
 394  7.55284444   0.692  -0.89478   3.60361   6.87686   1.57558   0.00000   6.456E-02   0.000E+00   9.354E-01
 395  7.55847179   0.692  -0.89343   3.60437   6.87927   1.58521   0.00000   6.766E-02   0.000E+00   9.323E-01
 396  7.56402716   0.692  -0.89202   3.60513   6.88168   1.59479   0.00000   7.079E-02   0.000E+00   9.292E-01
 397  7.56951236   0.692  -0.89061   3.60589   6.88410   1.60438   0.00000   7.393E-02   0.000E+00   9.261E-01
 398  7.57492915   0.692  -0.88894   3.60669   6.88651   1.61377   0.00000   7.746E-02   0.000E+00   9.225E-01
 399  7.58027920   0.692  -0.88714   3.60752   6.88893   1.62306   0.00000   8.121E-02   0.000E+00   9.188E-01
 400  7.58556415   0.692  -0.88534   3.60834   6.89135   1.63235   0.00000   8.495E-02   0.000E+00   9.151E-01
 401  7.59078556   0.692  -0.88339   3.60918   6.89376   1.64151   0.00000   8.869E-02   0.000E+00   9.113E-01
 402  7.59594494   0.692  -0.88127   3.61005   6.89618   1.65050   0.00000   9.243E-02   0.000E+00   9.076E-01
 403  7.60104375   0.692  -0.87916   3.61092   6.89860   1.65950   0.00000   9.618E-02   0.000E+00   9.038E-01
 404  7.60608339   0.692  -0.87698   3.61179   6.90102   1.66841   0.00000   1.001E-01   0.000E+00   8.999E-01
 405  7.61106521   0.692  -0.87463   3.61269   6.90344   1.67709   0.00000   1.048E-01   0.000E+00   8.952E-01
 406  7.61599054   0.692  -0.87227   3.61359   6.90587   1.68577   0.00000   1.094E-01   0.000E+00   8.906E-01
 407  7.62086064   0.692  -0.86991   3.61448   6.90829   1.69445   0.00000   1.141E-01   0.000E+00   8.859E-01
 408  7.62567672   0.692  -0.86728   3.61539   6.91060   1.70253   0.00000   1.179E-01   0.000E+00   8.821E-01
 409  7.63043999   0.692  -0.86463   3.61628   6.91289   1.71053   0.00000   1.226E-01   0.000E+00   8.774E-01
 410  7.63515158   0.692  -0.86195   3.61719   6.91519   1.71843   0.00000   1.274E-01   0.000E+00   8.726E-01
 411  7.63981260   0.692  -0.85920   3.61811   6.91749   1.72624   0.00000   1.318E-01   0.000E+00   8.682E-01
 412  7.64442413   0.692  -0.85642   3.61902   6.91980   1.73396   0.00000   1.368E-01   0.000E+00   8.632E-01
 413  7.64898720   0.692  -0.85362   3.61995   6.92211   1.74161   0.00000   1.419E-01   0.000E+00   8.581E-01
 414  7.65350283   0.692  -0.85079   3.62087   6.92442   1.74914   0.00000   1.465E-01   0.000E+00   8.535E-01
 415  7.65797199   0.692  -0.84794   3.62181   6.92674   1.75659   0.00000   1.522E-01   0.000E+00   8.478E-01
 416  7.66239563   0.692  -0.84509   3.62273   6.92905   1.76393   0.00000   1.579E-01   0.000E+00   8.421E-01
 417  7.66677467   0.692  -0.84223   3.62365   6.93137   1.77119   0.00000   1.636E-01   0.000E+00   8.364E-01
 418  7.67110999   0.692  -0.83931   3.62459   6.93369   1.77834   0.00000   1.694E-01   0.000E+00   8.306E-01
 419  7.67540246   0.692  -0.83642   3.62552   6.93601   1.78541   0.00000   1.752E-01   0.000E+00   8.248E-01
 420  7.67965292   0.692  -0.83351   3.62645   6.93834   1.79237   0.00000   1.810E-01   0.000E+00   8.190E-01
 421  7.68386218   0.692  -0.83062   3.62737   6.94067   1.79920   0.00000   1.872E-01   0.000E+00   8.128E-01
 422  7.68803104   0.692  -0.82770   3.62831   6.94300   1.80595   0.00000   1.936E-01   0.000E+00   8.064E-01
 423  7.69216026   0.692  -0.82475   3.62925   6.94533   1.81258   0.00000   2.004E-01   0.000E+00   7.996E-01
 424  7.69625058   0.692  -0.82182   3.63019   6.94767   1.81910   0.00000   2.072E-01   0.000E+00   7.928E-01
 425  7.70030275   0.692  -0.81886   3.63113   6.95000   1.82552   0.00000   2.145E-01   0.000E+00   7.855E-01
 426  7.70431745   0.692  -0.81594   3.63207   6.95235   1.83180   0.00000   2.211E-01   0.000E+00   7.781E-01
 427  7.70829539   0.692  -0.81298   3.63302   6.95469   1.83796   0.00000   2.292E-01   0.000E+00   7.708E-01
 428  7.71223721   0.692  -0.81006   3.63396   6.95704   1.84398   0.00000   2.366E-01   0.000E+00   7.634E-01
 429  7.71614358   0.692  -0.80721   3.63489   6.95939   1.84986   0.00000   2.440E-01   0.000E+00   7.560E-01
 430  7.72001513   0.692  -0.80423   3.63585   6.96175   1.85561   0.00000   2.520E-01   0.000E+00   7.480E-01
 431  7.72385247   0.692  -0.80131   3.63680   6.96411   1.86123   0.00000   2.606E-01   0.000E+00   7.394E-01
 432  7.72765620   0.692  -0.79857   3.63772   6.96648   1.86667   0.00000   2.691E-01   0.000E+00   7.309E-01
 433  7.73142690   0.692  -0.79575   3.63865   6.96887   1.87197   0.00000   2.782E-01   0.000E+00   7.218E-01
 434  7.73516515   0.692  -0.79289   3.63961   6.97119   1.87700   0.00000   2.869E-01   0.000E+00   7.131E-01
 435  7.73887149   0.692  -0.79015   3.64053   6.97360   1.88197   0.00000   2.961E-01   0.000E+00   7.039E-01
 436  7.74254647   0.692  -0.78751   3.64144   6.97602   1.88677   0.00000   3.057E-01   0.000E+00   6.934E-01
 437  7.74619061   0.692  -0.78488   3.64235   6.97848   1.89137   0.00000   3.163E-01   0.000E+00   6.837E-01
 438  7.74980443   0.692  -0.78237   3.64324   6.98095   1.89577   0.00000   3.267E-01   0.000E+00   6.733E-01
 439  7.75338843   0.692  -0.77995   3.64412   6.98346   1.89995   0.00000   3.375E-01   0.000E+00   6.625E-01
 440  7.75694309   0.692  -0.77761   3.64497   6.98600   1.90389   0.00000   3.486E-01   1.000E-03   6.504E-01
 441  7.76046890   0.692  -0.77540   3.64581   6.98858   1.90759   0.00000   3.605E-01   1.000E-03   6.385E-01
 442  7.76396631   0.692  -0.77330   3.64662   6.99120   1.91102   0.00000   3.733E-01   1.000E-03   6.261E-01
 443  7.76743578   0.692  -0.77126   3.64743   6.99387   1.91419   0.00000   3.865E-01   1.000E-03   6.130E-01
 444  7.77087775   0.692  -0.76941   3.64819   6.99660   1.91704   0.00000   4.001E-01   1.000E-03   5.989E-01
 445  7.77429266   0.692  -0.76769   3.64892   6.99936   1.91959   0.00023   4.149E-01   1.000E-03   5.841E-01
 446  7.77768092   0.692  -0.76608   3.64964   7.00210   1.92183   0.00096   4.301E-01   1.000E-03   5.689E-01
 447  7.78104296   0.692  -0.76458   3.65034   7.00474   1.92379   0.00238   4.461E-01   1.000E-03   5.529E-01
 448  7.78437917   0.692  -0.76333   3.65097   7.00736   1.92557   0.00516   4.637E-01   1.000E-03   5.353E-01
 449  7.78768994   0.692  -0.76225   3.65157   7.00986   1.92709   0.00753   4.818E-01   1.510E-03   5.172E-01
 450  7.79097567   0.692  -0.76128   3.65215   7.01230   1.92845   0.00986   5.002E-01   2.000E-03   4.987E-01
 451  7.79423672   0.692  -0.76054   3.65267   7.01460   1.92947   0.01237   5.194E-01   2.000E-03   4.790E-01
 452  7.79747347   0.692  -0.75996   3.65317   7.01682   1.93031   0.01515   5.390E-01   2.000E-03   4.589E-01
 453  7.80068628   0.692  -0.75977   3.65358   7.01884   1.93071   0.01863   5.599E-01   2.000E-03   4.376E-01
 454  7.80387549   0.692  -0.75957   3.65399   7.02087   1.93110   0.02210   5.808E-01   2.000E-03   4.164E-01
 455  7.80704145   0.692  -0.75979   3.65431   7.02268   1.93110   0.02508   6.018E-01   2.136E-03   3.952E-01
 456  7.81018450   0.692  -0.76034   3.65455   7.02433   1.93078   0.02767   6.231E-01   2.380E-03   3.739E-01
 457  7.81330497   0.692  -0.76089   3.65480   7.02598   1.93046   0.03027   6.443E-01   2.624E-03   3.527E-01
 458  7.81640318   0.692  -0.76144   3.65505   7.02762   1.93013   0.03286   6.656E-01   2.869E-03   3.314E-01
 459  7.81947944   0.692  -0.76230   3.65522   7.02909   1.92949   0.03586   6.875E-01   3.128E-03   3.094E-01
 460  7.82253406   0.692  -0.76352   3.65531   7.03034   1.92848   0.03936   7.101E-01   3.404E-03   2.865E-01
 461  7.82556735   0.692  -0.76473   3.65540   7.03160   1.92747   0.04285   7.328E-01   3.680E-03   2.636E-01
 462  7.82857960   0.692  -0.76595   3.65550   7.03285   1.92646   0.04634   7.554E-01   3.956E-03   2.406E-01
 463  7.83157110   0.692  -0.76737   3.65554   7.03393   1.92532   0.04880   7.748E-01   4.510E-03   2.207E-01
 464  7.83454213   0.692  -0.76887   3.65556   7.03496   1.92415   0.05115   7.932E-01   5.000E-03   2.018E-01
 465  7.83749298   0.692  -0.77059   3.65554   7.03589   1.92295   0.05387   8.100E-01   5.000E-03   1.850E-01
 466  7.84042392   0.692  -0.77248   3.65547   7.03674   1.92172   0.05435   8.257E-01   5.000E-03   1.693E-01
 467  7.84333520   0.692  -0.77452   3.65537   7.03753   1.92046   0.05671   8.418E-01   5.000E-03   1.526E-01
 468  7.84622710   0.692  -0.77673   3.65524   7.03825   1.91917   0.05807   8.565E-01   5.654E-03   1.381E-01
 469  7.84909987   0.692  -0.77908   3.65507   7.03889   1.91786   0.05807   8.709E-01   6.000E-03   1.234E-01
 470  7.85195377   0.692  -0.78155   3.65486   7.03946   1.91651   0.06087   8.853E-01   6.000E-03   1.087E-01
 471  7.85478903   0.692  -0.78417   3.65463   7.03997   1.91516   0.06105   8.980E-01   6.000E-03   9.622E-02
 472  7.85760590   0.692  -0.78689   3.65436   7.04040   1.91376   0.06105   9.106E-01   6.000E-03   8.325E-02
 473  7.86040462   0.692  -0.78971   3.65407   7.04079   1.91237   0.06370   9.221E-01   6.000E-03   7.123E-02
 474  7.86318542   0.692  -0.79263   3.65376   7.04113   1.91101   0.06403   9.332E-01   6.315E-03   6.024E-02
 475  7.86594853   0.692  -0.79559   3.65342   7.04143   1.90967   0.06403   9.434E-01   7.000E-03   4.973E-02
 476  7.86869416   0.691  -0.79862   3.65307   7.04168   1.90835   0.06403   9.534E-01   7.000E-03   4.017E-02
 477  7.87142255   0.691  -0.80171   3.65269   7.04189   1.90705   0.06403   9.618E-01   7.000E-03   3.133E-02
 478  7.87413391   0.691  -0.80485   3.65230   7.04206   1.90579   0.06403   9.698E-01   7.000E-03   2.318E-02
 479  7.87682844   0.691  -0.80801   3.65189   7.04218   1.90457   0.06403   9.776E-01   7.000E-03   1.565E-02
 480  7.87950636   0.691  -0.81120   3.65147   7.04229   1.90339   0.06403   9.841E-01   7.000E-03   8.776E-03
 481  7.88216786   0.691  -0.81438   3.65104   7.04235   1.90227   0.06403   9.904E-01   7.000E-03   2.410E-03
 482  7.88481316   0.691  -0.81754   3.65061   7.04239   1.90118   0.06196   9.961E-01   7.000E-03  -3.419E-03
 483  7.88744244   0.691  -0.82069   3.65016   7.04241   1.90016   0.06105   1.001E+00   7.000E-03  -8.385E-03
 484  7.89005590   0.691  -0.82378   3.64972   7.04240   1.89919   0.06105   1.006E+00   7.000E-03  -1.286E-02
 485  7.89265372   0.691  -0.82680   3.64928   7.04237   1.89827   0.06105   1.010E+00   7.000E-03  -1.687E-02
 486  7.89523610   0.691  -0.82976   3.64885   7.04232   1.89741   0.06105   1.014E+00   7.000E-03  -2.059E-02
 487  7.89780321   0.691  -0.83263   3.64842   7.04225   1.89660   0.06005   1.017E+00   7.000E-03  -2.394E-02
 488  7.90035524   0.691  -0.83542   3.64800   7.04217   1.89585   0.05807   1.020E+00   7.000E-03  -2.677E-02
 489  7.90289236   0.691  -0.83812   3.64759   7.04208   1.89516   0.05807   1.022E+00   7.000E-03  -2.913E-02
 490  7.90541474   0.691  -0.84073   3.64719   7.04197   1.89451   0.05681   1.024E+00   7.000E-03  -3.127E-02
 491  7.90792256   0.691  -0.84322   3.64680   7.04186   1.89392   0.05546   1.026E+00   7.000E-03  -3.303E-02
 492  7.91041598   0.691  -0.84561   3.64642   7.04174   1.89339   0.05546   1.027E+00   7.000E-03  -3.441E-02
 493  7.91289517   0.691  -0.84788   3.64606   7.04161   1.89289   0.05503   1.028E+00   7.000E-03  -3.569E-02
 494  7.91536028   0.691  -0.85002   3.64571   7.04147   1.89244   0.05323   1.029E+00   7.000E-03  -3.669E-02
 495  7.91781148   0.691  -0.85205   3.64538   7.04133   1.89204   0.05323   1.030E+00   7.000E-03  -3.733E-02
 496  7.92024892   0.691  -0.85396   3.64507   7.04119   1.89168   0.05219   1.030E+00   7.000E-03  -3.794E-02
 497  7.92267276   0.691  -0.85575   3.64477   7.04104   1.89136   0.05063   1.031E+00   7.000E-03  -3.826E-02
 498  7.92508315   0.691  -0.85743   3.64448   7.04090   1.89107   0.05063   1.031E+00   7.000E-03  -3.817E-02
 499  7.92748023   0.691  -0.85899   3.64422   7.04075   1.89082   0.05063   1.031E+00   7.000E-03  -3.809E-02
 500  7.92986416   0.691  -0.86042   3.64396   7.04060   1.89060   0.05063   1.031E+00   7.000E-03  -3.801E-02
 501  7.93223507   0.691  -0.86172   3.64374   7.04046   1.89041   0.04901   1.031E+00   7.000E-03  -3.788E-02
 502  7.93459311   0.691  -0.86292   3.64352   7.04031   1.89025   0.04802   1.031E+00   7.000E-03  -3.753E-02
 503  7.93693841   0.691  -0.86404   3.64332   7.04016   1.89011   0.04802   1.030E+00   7.000E-03  -3.695E-02
 504  7.93927112   0.691  -0.86499   3.64314   7.04002   1.89000   0.04689   1.029E+00   7.000E-03  -3.644E-02
 505  7.94159136   0.691  -0.86591   3.64297   7.03988   1.88990   0.04579   1.029E+00   7.000E-03  -3.590E-02
 506  7.94389927   0.691  -0.86665   3.64283   7.03975   1.88984   0.04579   1.028E+00   7.000E-03  -3.500E-02
 507  7.94619498   0.691  -0.86740   3.64268   7.03962   1.88978   0.04579   1.027E+00   7.000E-03  -3.411E-02
 508  7.94847863   0.691  -0.86794   3.64257   7.03950   1.88975   0.04483   1.026E+00   7.000E-03  -3.336E-02
 509  7.95075032   0.691  -0.86848   3.64246   7.03938   1.88972   0.04386   1.026E+00   7.000E-03  -3.262E-02
 510  7.95301020   0.691  -0.86894   3.64236   7.03926   1.88970   0.04300   1.025E+00   7.000E-03  -3.177E-02
 511  7.95525838   0.691  -0.86924   3.64228   7.03915   1.88972   0.04240   1.024E+00   7.000E-03  -3.070E-02
 512  7.95749498   0.691  -0.86955   3.64221   7.03904   1.88973   0.04180   1.023E+00   7.000E-03  -2.963E-02
 513  7.95972011   0.691  -0.86985   3.64213   7.03894   1.88974   0.04121   1.021E+00   7.000E-03  -2.856E-02
 514  7.96193391   0.691  -0.87002   3.64208   7.03884   1.88977   0.04080   1.021E+00   7.000E-03  -2.761E-02
 515  7.96413648   0.691  -0.87009   3.64205   7.03875   1.88981   0.04053   1.020E+00   7.000E-03  -2.675E-02
 516  7.96632794   0.691  -0.87017   3.64201   7.03866   1.88985   0.04027   1.019E+00   7.000E-03  -2.590E-02
 517  7.96850839   0.691  -0.87024   3.64198   7.03857   1.88988   0.04000   1.018E+00   7.000E-03  -2.504E-02
 518  7.97067795   0.691  -0.87031   3.64194   7.03848   1.88992   0.03973   1.018E+00   7.000E-03  -2.418E-02
 519  7.97283673   0.691  -0.87039   3.64191   7.03839   1.88996   0.03947   1.017E+00   7.000E-03  -2.333E-02
 520  7.97498482   0.691  -0.87031   3.64191   7.03832   1.88998   0.03912   1.017E+00   6.884E-03  -2.285E-02
 521  7.97712235   0.691  -0.87022   3.64190   7.03826   1.89000   0.03876   1.016E+00   6.765E-03  -2.238E-02
 522  7.97924940   0.691  -0.87014   3.64190   7.03819   1.89003   0.03841   1.016E+00   6.646E-03  -2.192E-02
 523  7.98136609   0.691  -0.87005   3.64190   7.03812   1.89005   0.03805   1.015E+00   6.527E-03  -2.146E-02
 524  7.98347252   0.691  -0.86996   3.64189   7.03805   1.89007   0.03770   1.015E+00   6.408E-03  -2.099E-02
 525  7.98556877   0.691  -0.86988   3.64189   7.03798   1.89010   0.03734   1.014E+00   6.289E-03  -2.053E-02
 526  7.98765496   0.691  -0.86979   3.64189   7.03792   1.89012   0.03699   1.014E+00   6.170E-03  -2.006E-02
 527  7.98973117   0.691  -0.86971   3.64188   7.03785   1.89014   0.03663   1.013E+00   6.051E-03  -1.960E-02
 528  7.99179751   0.691  -0.86960   3.64188   7.03779   1.89015   0.03628   1.013E+00   6.000E-03  -1.926E-02
 529  7.99385405   0.691  -0.86949   3.64189   7.03774   1.89015   0.03594   1.013E+00   6.000E-03  -1.901E-02
 530  7.99590091   0.691  -0.86937   3.64189   7.03769   1.89014   0.03559   1.012E+00   6.000E-03  -1.877E-02
 531  7.99793817   0.691  -0.86925   3.64190   7.03763   1.89014   0.03524   1.012E+00   6.000E-03  -1.852E-02
 532  7.99996591   0.691  -0.86914   3.64191   7.03758   1.89014   0.03489   1.012E+00   6.000E-03  -1.828E-02
 533  8.00198423   0.691  -0.86902   3.64191   7.03753   1.89014   0.03455   1.012E+00   6.000E-03  -1.803E-02
 534  8.00399321   0.691  -0.86890   3.64192   7.03748   1.89013   0.03420   1.011E+00   6.000E-03  -1.778E-02
 535  8.00599294   0.691  -0.86879   3.64192   7.03742   1.89013   0.03385   1.011E+00   6.000E-03  -1.754E-02
 536  8.00798351   0.691  -0.86867   3.64193   7.03737   1.89013   0.03351   1.011E+00   6.000E-03  -1.729E-02
 537  8.00996499   0.691  -0.86855   3.64193   7.03732   1.89013   0.03316   1.011E+00   6.000E-03  -1.705E-02
 538  8.01193748   0.691  -0.86844   3.64194   7.03727   1.89012   0.03281   1.010E+00   6.000E-03  -1.680E-02
 539  8.01390105   0.691  -0.86832   3.64194   7.03721   1.89012   0.03247   1.010E+00   6.000E-03  -1.655E-02
 540  8.01585577   0.691  -0.86820   3.64195   7.03716   1.89012   0.03212   1.010E+00   6.000E-03  -1.631E-02
 541  8.01780174   0.691  -0.86814   3.64195   7.03711   1.89009   0.03189   1.010E+00   6.000E-03  -1.627E-02
 542  8.01973903   0.691  -0.86807   3.64195   7.03706   1.89006   0.03166   1.010E+00   6.000E-03  -1.623E-02
 543  8.02166772   0.691  -0.86800   3.64195   7.03702   1.89003   0.03143   1.010E+00   6.000E-03  -1.620E-02
 544  8.02358788   0.691  -0.86794   3.64195   7.03697   1.88999   0.03120   1.010E+00   6.000E-03  -1.616E-02
 545  8.02549959   0.691  -0.86787   3.64195   7.03692   1.88996   0.03098   1.010E+00   6.000E-03  -1.613E-02
 546  8.02740291   0.691  -0.86781   3.64195   7.03687   1.88993   0.03075   1.010E+00   6.000E-03  -1.609E-02
 547  8.02929794   0.691  -0.86774   3.64195   7.03682   1.88990   0.03052   1.010E+00   6.000E-03  -1.606E-02
 548  8.03118473   0.691  -0.86767   3.64195   7.03677   1.88987   0.03029   1.010E+00   6.000E-03  -1.602E-02
 549  8.03306336   0.691  -0.86761   3.64194   7.03673   1.88984   0.03006   1.010E+00   6.000E-03  -1.599E-02
 550  8.03493389   0.691  -0.86754   3.64194   7.03668   1.88981   0.02983   1.010E+00   6.000E-03  -1.595E-02
 551  8.03679641   0.691  -0.86748   3.64194   7.03663   1.88977   0.02961   1.010E+00   6.000E-03  -1.592E-02
 552  8.03865097   0.691  -0.86741   3.64194   7.03658   1.88974   0.02938   1.010E+00   6.000E-03  -1.588E-02
 553  8.04049765   0.691  -0.86734   3.64194   7.03653   1.88971   0.02915   1.010E+00   6.000E-03  -1.585E-02
 554  8.04233650   0.691  -0.86728   3.64194   7.03648   1.88968   0.02892   1.010E+00   6.000E-03  -1.581E-02
 555  8.04416761   0.691  -0.86721   3.64194   7.03643   1.88965   0.02869   1.010E+00   6.000E-03  -1.578E-02
 556  8.04599102   0.691  -0.86715   3.64194   7.03639   1.88962   0.02846   1.010E+00   6.000E-03  -1.574E-02
 557  8.04780681   0.691  -0.86708   3.64194   7.03634   1.88958   0.02824   1.010E+00   6.000E-03  -1.571E-02
 558  8.04961504   0.691  -0.86707   3.64193   7.03629   1.88953   0.02799   1.010E+00   5.967E-03  -1.575E-02
 559  8.05141578   0.691  -0.86706   3.64192   7.03624   1.88947   0.02775   1.010E+00   5.928E-03  -1.581E-02
 560  8.05320908   0.691  -0.86705   3.64191   7.03619   1.88941   0.02750   1.010E+00   5.889E-03  -1.587E-02
 561  8.05499500   0.691  -0.86705   3.64190   7.03614   1.88935   0.02725   1.010E+00   5.850E-03  -1.592E-02
 562  8.05677361   0.691  -0.86704   3.64189   7.03609   1.88929   0.02701   1.010E+00   5.811E-03  -1.598E-02
 563  8.05854497   0.691  -0.86704   3.64188   7.03604   1.88923   0.02676   1.010E+00   5.772E-03  -1.604E-02
 564  8.06030913   0.691  -0.86703   3.64187   7.03599   1.88917   0.02651   1.011E+00   5.734E-03  -1.610E-02
 565  8.06206615   0.691  -0.86702   3.64186   7.03594   1.88911   0.02627   1.011E+00   5.695E-03  -1.616E-02
 566  8.06381609   0.691  -0.86702   3.64185   7.03589   1.88905   0.02602   1.011E+00   5.656E-03  -1.622E-02
 567  8.06555901   0.691  -0.86701   3.64184   7.03584   1.88899   0.02577   1.011E+00   5.617E-03  -1.627E-02
 568  8.06729496   0.691  -0.86701   3.64183   7.03579   1.88893   0.02553   1.011E+00   5.578E-03  -1.633E-02
 569  8.06902401   0.691  -0.86700   3.64182   7.03574   1.88887   0.02528   1.011E+00   5.539E-03  -1.639E-02
 570  8.07074619   0.691  -0.86699   3.64181   7.03568   1.88880   0.02503   1.011E+00   5.500E-03  -1.645E-02
 571  8.07246158   0.691  -0.86699   3.64181   7.03563   1.88874   0.02479   1.011E+00   5.461E-03  -1.651E-02
 572  8.07417021   0.691  -0.86698   3.64180   7.03558   1.88868   0.02454   1.011E+00   5.422E-03  -1.657E-02
 573  8.07587215   0.691  -0.86698   3.64179   7.03553   1.88862   0.02430   1.011E+00   5.383E-03  -1.663E-02
 574  8.07756744   0.691  -0.86697   3.64178   7.03548   1.88856   0.02405   1.011E+00   5.344E-03  -1.668E-02
 575  8.07925615   0.691  -0.86697   3.64177   7.03543   1.88850   0.02380   1.011E+00   5.305E-03  -1.674E-02
 576  8.08093831   0.691  -0.86696   3.64176   7.03538   1.88844   0.02356   1.011E+00   5.266E-03  -1.680E-02
 577  8.08261398   0.691  -0.86695   3.64175   7.03533   1.88838   0.02331   1.012E+00   5.227E-03  -1.686E-02
 578  8.08428321   0.691  -0.86695   3.64174   7.03528   1.88832   0.02306   1.012E+00   5.189E-03  -1.692E-02
 579  8.08594605   0.691  -0.86694   3.64173   7.03523   1.88826   0.02282   1.012E+00   5.150E-03  -1.698E-02
 580  8.08760255   0.691  -0.86694   3.64172   7.03518   1.88820   0.02257   1.012E+00   5.111E-03  -1.703E-02
 581  8.08925275   0.691  -0.86693   3.64171   7.03513   1.88814   0.02232   1.012E+00   5.072E-03  -1.709E-02
 582  8.09089671   0.691  -0.86692   3.64170   7.03508   1.88808   0.02208   1.012E+00   5.033E-03  -1.715E-02
 583  8.09253446   0.691  -0.86692   3.64169   7.03503   1.88802   0.02184   1.012E+00   5.000E-03  -1.719E-02
 584  8.09416607   0.690  -0.86693   3.64168   7.03498   1.88797   0.02167   1.012E+00   5.000E-03  -1.715E-02
 585  8.09579156   0.690  -0.86694   3.64167   7.03493   1.88792   0.02150   1.012E+00   5.000E-03  -1.711E-02
 586  8.09741100   0.690  -0.86695   3.64165   7.03489   1.88788   0.02133   1.012E+00   5.000E-03  -1.707E-02
 587  8.09902442   0.690  -0.86696   3.64164   7.03484   1.88783   0.02116   1.012E+00   5.000E-03  -1.703E-02
 588  8.10063187   0.690  -0.86697   3.64163   7.03479   1.88778   0.02099   1.012E+00   5.000E-03  -1.699E-02
 589  8.10223339   0.690  -0.86698   3.64162   7.03474   1.88773   0.02081   1.012E+00   5.000E-03  -1.694E-02
 590  8.10382902   0.690  -0.86699   3.64161   7.03469   1.88768   0.02064   1.012E+00   5.000E-03  -1.690E-02
 591  8.10541882   0.690  -0.86700   3.64160   7.03464   1.88763   0.02047   1.012E+00   5.000E-03  -1.686E-02
 592  8.10700282   0.690  -0.86701   3.64159   7.03459   1.88758   0.02030   1.012E+00   5.000E-03  -1.682E-02
 593  8.10858106   0.690  -0.86701   3.64158   7.03454   1.88753   0.02013   1.012E+00   5.000E-03  -1.678E-02
 594  8.11015358   0.690  -0.86702   3.64157   7.03450   1.88749   0.01996   1.012E+00   5.000E-03  -1.674E-02
 595  8.11172043   0.690  -0.86703   3.64155   7.03445   1.88744   0.01978   1.012E+00   5.000E-03  -1.670E-02
 596  8.11328165   0.690  -0.86704   3.64154   7.03440   1.88739   0.01961   1.012E+00   5.000E-03  -1.665E-02
 597  8.11483728   0.690  -0.86705   3.64153   7.03435   1.88734   0.01944   1.012E+00   5.000E-03  -1.661E-02
 598  8.11638736   0.690  -0.86706   3.64152   7.03430   1.88729   0.01927   1.012E+00   5.000E-03  -1.657E-02
 599  8.11793192   0.690  -0.86707   3.64151   7.03425   1.88724   0.01910   1.012E+00   5.000E-03  -1.653E-02
 600  8.11947101   0.690  -0.86708   3.64150   7.03420   1.88719   0.01893   1.012E+00   5.000E-03  -1.649E-02
 601  8.12100466   0.690  -0.86709   3.64149   7.03415   1.88714   0.01876   1.012E+00   5.000E-03  -1.645E-02
 602  8.12253292   0.690  -0.86710   3.64148   7.03411   1.88710   0.01858   1.012E+00   5.000E-03  -1.640E-02
 603  8.12405581   0.690  -0.86711   3.64147   7.03406   1.88705   0.01841   1.011E+00   5.000E-03  -1.636E-02
 604  8.12557339   0.690  -0.86712   3.64145   7.03401   1.88700   0.01824   1.011E+00   5.000E-03  -1.632E-02
 605  8.12708568   0.690  -0.86713   3.64144   7.03396   1.88695   0.01807   1.011E+00   5.000E-03  -1.628E-02
 606  8.12859273   0.690  -0.86714   3.64143   7.03391   1.88690   0.01790   1.011E+00   5.000E-03  -1.624E-02
 607  8.13009456   0.690  -0.86715   3.64142   7.03386   1.88685   0.01773   1.011E+00   5.000E-03  -1.620E-02
 608  8.13159122   0.690  -0.86716   3.64141   7.03381   1.88680   0.01755   1.011E+00   5.000E-03  -1.616E-02
 609  8.13308273   0.690  -0.86716   3.64140   7.03376   1.88675   0.01738   1.011E+00   5.000E-03  -1.611E-02
 610  8.13456914   0.690  -0.86717   3.64139   7.03372   1.88671   0.01721   1.011E+00   5.000E-03  -1.607E-02
 611  8.13605049   0.690  -0.86718   3.64138   7.03367   1.88666   0.01704   1.011E+00   5.000E-03  -1.603E-02
 612  8.13752679   0.690  -0.86719   3.64136   7.03362   1.88661   0.01687   1.011E+00   5.000E-03  -1.599E-02
 613  8.13899810   0.690  -0.86720   3.64135   7.03357   1.88656   0.01670   1.011E+00   5.000E-03  -1.595E-02
 614  8.14046443   0.690  -0.86721   3.64134   7.03352   1.88651   0.01653   1.011E+00   5.000E-03  -1.591E-02
 615  8.14192584   0.690  -0.86722   3.64133   7.03347   1.88646   0.01635   1.011E+00   5.000E-03  -1.586E-02
 616  8.14338234   0.690  -0.86723   3.64132   7.03342   1.88641   0.01618   1.011E+00   5.000E-03  -1.582E-02
 617  8.14483397   0.690  -0.86724   3.64131   7.03337   1.88636   0.01601   1.011E+00   5.000E-03  -1.578E-02
 618  8.14628077   0.690  -0.86725   3.64130   7.03332   1.88631   0.01584   1.011E+00   5.000E-03  -1.574E-02
 619  8.14772276   0.690  -0.86726   3.64129   7.03328   1.88627   0.01567   1.011E+00   5.000E-03  -1.570E-02
 620  8.14915998   0.690  -0.86727   3.64128   7.03323   1.88622   0.01550   1.011E+00   5.000E-03  -1.566E-02
 621  8.15059247   0.690  -0.86728   3.64126   7.03318   1.88617   0.01532   1.011E+00   5.000E-03  -1.562E-02
 622  8.15202024   0.690  -0.86728   3.64126   7.03314   1.88614   0.01520   1.011E+00   4.989E-03  -1.554E-02
 623  8.15344333   0.690  -0.86728   3.64125   7.03310   1.88612   0.01511   1.011E+00   4.972E-03  -1.546E-02
 624  8.15486178   0.690  -0.86727   3.64124   7.03307   1.88610   0.01501   1.011E+00   4.955E-03  -1.537E-02
 625  8.15627560   0.690  -0.86727   3.64124   7.03303   1.88608   0.01492   1.011E+00   4.937E-03  -1.528E-02
 626  8.15768484   0.690  -0.86727   3.64123   7.03300   1.88606   0.01483   1.011E+00   4.920E-03  -1.519E-02
 627  8.15908952   0.690  -0.86727   3.64122   7.03296   1.88604   0.01473   1.011E+00   4.903E-03  -1.510E-02
 628  8.16048968   0.690  -0.86726   3.64122   7.03293   1.88603   0.01464   1.010E+00   4.885E-03  -1.502E-02
 629  8.16188533   0.690  -0.86726   3.64121   7.03289   1.88601   0.01455   1.010E+00   4.868E-03  -1.493E-02
 630  8.16327651   0.690  -0.86726   3.64120   7.03285   1.88599   0.01445   1.010E+00   4.851E-03  -1.484E-02
 631  8.16466325   0.690  -0.86726   3.64120   7.03282   1.88597   0.01436   1.010E+00   4.834E-03  -1.475E-02
 632  8.16604558   0.690  -0.86725   3.64119   7.03278   1.88595   0.01427   1.010E+00   4.816E-03  -1.466E-02
 633  8.16742352   0.690  -0.86725   3.64118   7.03275   1.88593   0.01417   1.010E+00   4.799E-03  -1.457E-02
 634  8.16879710   0.690  -0.86725   3.64117   7.03271   1.88591   0.01408   1.010E+00   4.782E-03  -1.449E-02
 635  8.17016636   0.690  -0.86724   3.64117   7.03268   1.88589   0.01399   1.010E+00   4.764E-03  -1.440E-02
 636  8.17153130   0.690  -0.86724   3.64116   7.03264   1.88587   0.01389   1.010E+00   4.747E-03  -1.431E-02
 637  8.17289198   0.690  -0.86724   3.64115   7.03261   1.88586   0.01380   1.010E+00   4.730E-03  -1.422E-02
 638  8.17424840   0.690  -0.86724   3.64115   7.03257   1.88584   0.01371   1.010E+00   4.712E-03  -1.413E-02
 639  8.17560060   0.690  -0.86723   3.64114   7.03253   1.88582   0.01361   1.009E+00   4.695E-03  -1.404E-02
 640  8.17694860   0.690  -0.86723   3.64113   7.03250   1.88580   0.01352   1.009E+00   4.678E-03  -1.396E-02
 641  8.17829243   0.690  -0.86723   3.64113   7.03246   1.88578   0.01343   1.009E+00   4.660E-03  -1.387E-02
 642  8.17963212   0.690  -0.86723   3.64112   7.03243   1.88576   0.01333   1.009E+00   4.643E-03  -1.378E-02
 643  8.18096768   0.690  -0.86722   3.64111   7.03239   1.88574   0.01324   1.009E+00   4.626E-03  -1.369E-02
 644  8.18229915   0.690  -0.86722   3.64111   7.03236   1.88572   0.01315   1.009E+00   4.609E-03  -1.360E-02
 645  8.18362655   0.690  -0.86722   3.64110   7.03232   1.88570   0.01305   1.009E+00   4.591E-03  -1.352E-02
 646  8.18494991   0.690  -0.86722   3.64109   7.03229   1.88569   0.01296   1.009E+00   4.574E-03  -1.343E-02
 647  8.18626925   0.690  -0.86721   3.64109   7.03225   1.88567   0.01287   1.009E+00   4.557E-03  -1.334E-02
 648  8.18758459   0.690  -0.86721   3.64108   7.03222   1.88565   0.01277   1.009E+00   4.539E-03  -1.325E-02
 649  8.18889596   0.690  -0.86721   3.64107   7.03218   1.88563   0.01268   1.009E+00   4.522E-03  -1.316E-02
 650  8.19020338   0.690  -0.86721   3.64107   7.03214   1.88561   0.01259   1.009E+00   4.505E-03  -1.307E-02
 651  8.19150687   0.690  -0.86720   3.64106   7.03211   1.88559   0.01249   1.008E+00   4.487E-03  -1.299E-02
 652  8.19280647   0.690  -0.86720   3.64105   7.03207   1.88557   0.01240   1.008E+00   4.470E-03  -1.290E-02
 653  8.19410219   0.690  -0.86720   3.64105   7.03204   1.88555   0.01231   1.008E+00   4.453E-03  -1.281E-02
 654  8.19539405   0.690  -0.86720   3.64104   7.03200   1.88553   0.01221   1.008E+00   4.436E-03  -1.272E-02
 655  8.19668209   0.690  -0.86719   3.64103   7.03197   1.88552   0.01212   1.008E+00   4.418E-03  -1.263E-02
 656  8.19796631   0.690  -0.86719   3.64103   7.03193   1.88550   0.01203   1.008E+00   4.401E-03  -1.254E-02
 657  8.19924675   0.690  -0.86719   3.64102   7.03190   1.88548   0.01193   1.008E+00   4.384E-03  -1.246E-02
 658  8.20052342   0.690  -0.86718   3.64101   7.03186   1.88546   0.01184   1.008E+00   4.366E-03  -1.237E-02
 659  8.20179636   0.690  -0.86718   3.64101   7.03183   1.88544   0.01174   1.008E+00   4.349E-03  -1.228E-02
 660  8.20306557   0.690  -0.86718   3.64100   7.03179   1.88542   0.01165   1.008E+00   4.332E-03  -1.219E-02
 661  8.20433108   0.690  -0.86718   3.64099   7.03175   1.88540   0.01156   1.008E+00   4.314E-03  -1.210E-02
 662  8.20559292   0.690  -0.86717   3.64099   7.03172   1.88538   0.01146   1.007E+00   4.297E-03  -1.202E-02
 663  8.20685110   0.690  -0.86717   3.64098   7.03168   1.88537   0.01137   1.007E+00   4.280E-03  -1.193E-02
 664  8.20810565   0.690  -0.86717   3.64097   7.03165   1.88535   0.01128   1.007E+00   4.263E-03  -1.184E-02
 665  8.20935658   0.690  -0.86717   3.64097   7.03161   1.88533   0.01118   1.007E+00   4.245E-03  -1.175E-02
 666  8.21060392   0.690  -0.86716   3.64096   7.03158   1.88531   0.01109   1.007E+00   4.228E-03  -1.166E-02
 667  8.21184769   0.690  -0.86716   3.64095   7.03154   1.88529   0.01100   1.007E+00   4.211E-03  -1.157E-02
 668  8.21308790   0.690  -0.86716   3.64095   7.03151   1.88527   0.01090   1.007E+00   4.193E-03  -1.149E-02
 669  8.21432459   0.690  -0.86716   3.64094   7.03147   1.88525   0.01081   1.007E+00   4.176E-03  -1.140E-02
 670  8.21555776   0.690  -0.86715   3.64093   7.03144   1.88523   0.01072   1.007E+00   4.159E-03  -1.131E-02
 671  8.21678744   0.690  -0.86715   3.64093   7.03140   1.88521   0.01062   1.007E+00   4.141E-03  -1.122E-02
 672  8.21801365   0.690  -0.86715   3.64092   7.03136   1.88520   0.01053   1.007E+00   4.124E-03  -1.113E-02
 673  8.21923641   0.690  -0.86715   3.64091   7.03133   1.88518   0.01044   1.007E+00   4.107E-03  -1.104E-02
 674  8.22045573   0.690  -0.86714   3.64090   7.03129   1.88516   0.01034   1.006E+00   4.090E-03  -1.096E-02
 675  8.22167164   0.690  -0.86714   3.64090   7.03126   1.88514   0.01025   1.006E+00   4.072E-03  -1.087E-02
 676  8.22288416   0.690  -0.86714   3.64089   7.03122   1.88512   0.01016   1.006E+00   4.055E-03  -1.078E-02
 677  8.22409330   0.690  -0.86714   3.64088   7.03119   1.88510   0.01006   1.006E+00   4.038E-03  -1.069E-02
 678  8.22529908   0.690  -0.86713   3.64088   7.03115   1.88508   0.00997   1.006E+00   4.020E-03  -1.060E-02
 679  8.22650152   0.690  -0.86713   3.64087   7.03112   1.88506   0.00988   1.006E+00   4.003E-03  -1.052E-02
 680  8.22770065   0.690  -0.86713   3.64087   7.03109   1.88505   0.00982   1.006E+00   4.000E-03  -1.047E-02
 681  8.22889647   0.690  -0.86712   3.64086   7.03107   1.88504   0.00976   1.006E+00   4.000E-03  -1.043E-02
 682  8.23008901   0.689  -0.86712   3.64086   7.03104   1.88503   0.00971   1.006E+00   4.000E-03  -1.038E-02
 683  8.23127828   0.689  -0.86711   3.64086   7.03102   1.88502   0.00966   1.006E+00   4.000E-03  -1.034E-02
 684  8.23246431   0.689  -0.86711   3.64085   7.03100   1.88501   0.00960   1.006E+00   4.000E-03  -1.030E-02
 685  8.23364710   0.689  -0.86710   3.64085   7.03097   1.88499   0.00955   1.006E+00   4.000E-03  -1.026E-02
 686  8.23482668   0.689  -0.86710   3.64084   7.03095   1.88498   0.00950   1.006E+00   4.000E-03  -1.022E-02
 687  8.23600307   0.689  -0.86709   3.64084   7.03093   1.88497   0.00944   1.006E+00   4.000E-03  -1.018E-02
 688  8.23717628   0.689  -0.86709   3.64084   7.03090   1.88496   0.00939   1.006E+00   4.000E-03  -1.014E-02
 689  8.23834633   0.689  -0.86708   3.64083   7.03088   1.88495   0.00934   1.006E+00   4.000E-03  -1.010E-02
 690  8.23951323   0.689  -0.86708   3.64083   7.03086   1.88494   0.00929   1.006E+00   4.000E-03  -1.006E-02
 691  8.24067701   0.689  -0.86707   3.64082   7.03083   1.88493   0.00923   1.006E+00   4.000E-03  -1.001E-02
 692  8.24183768   0.689  -0.86707   3.64082   7.03081   1.88492   0.00918   1.006E+00   4.000E-03  -9.973E-03
 693  8.24299525   0.689  -0.86706   3.64082   7.03079   1.88490   0.00913   1.006E+00   4.000E-03  -9.932E-03
 694  8.24414975   0.689  -0.86706   3.64081   7.03076   1.88489   0.00907   1.005E+00   4.000E-03  -9.891E-03
 695  8.24530118   0.689  -0.86705   3.64081   7.03074   1.88488   0.00902   1.005E+00   4.000E-03  -9.850E-03
 696  8.24644958   0.689  -0.86705   3.64080   7.03072   1.88487   0.00897   1.005E+00   4.000E-03  -9.809E-03
 697  8.24759494   0.689  -0.86704   3.64080   7.03069   1.88486   0.00891   1.005E+00   4.000E-03  -9.768E-03
 698  8.24873729   0.689  -0.86704   3.64080   7.03067   1.88485   0.00886   1.005E+00   4.000E-03  -9.727E-03
 699  8.24987664   0.689  -0.86703   3.64079   7.03065   1.88484   0.00881   1.005E+00   4.000E-03  -9.686E-03
 700  8.25101301   0.689  -0.86703   3.64079   7.03062   1.88482   0.00876   1.005E+00   4.000E-03  -9.645E-03
 701  8.25214642   0.689  -0.86702   3.64078   7.03060   1.88481   0.00870   1.005E+00   4.000E-03  -9.604E-03
 702  8.25327687   0.689  -0.86702   3.64078   7.03058   1.88480   0.00865   1.005E+00   4.000E-03  -9.563E-03
 703  8.25440439   0.689  -0.86701   3.64078   7.03055   1.88479   0.00860   1.005E+00   4.000E-03  -9.522E-03
 704  8.25552900   0.689  -0.86701   3.64077   7.03053   1.88478   0.00854   1.005E+00   4.000E-03  -9.481E-03
 705  8.25665069   0.689  -0.86700   3.64077   7.03051   1.88477   0.00849   1.005E+00   4.000E-03  -9.440E-03
 706  8.25776950   0.689  -0.86700   3.64076   7.03048   1.88476   0.00844   1.005E+00   4.000E-03  -9.399E-03
 707  8.25888543   0.689  -0.86699   3.64076   7.03046   1.88475   0.00838   1.005E+00   4.000E-03  -9.358E-03
 708  8.25999850   0.689  -0.86699   3.64076   7.03044   1.88473   0.00833   1.005E+00   4.000E-03  -9.316E-03
 709  8.26110873   0.689  -0.86698   3.64075   7.03041   1.88472   0.00828   1.005E+00   4.000E-03  -9.275E-03
 710  8.26221612   0.689  -0.86698   3.64075   7.03039   1.88471   0.00822   1.005E+00   4.000E-03  -9.234E-03
 711  8.26332070   0.689  -0.86697   3.64075   7.03036   1.88470   0.00817   1.005E+00   4.000E-03  -9.193E-03
 712  8.26442248   0.689  -0.86697   3.64074   7.03034   1.88469   0.00812   1.005E+00   4.000E-03  -9.152E-03
 713  8.26552147   0.689  -0.86696   3.64074   7.03032   1.88468   0.00807   1.005E+00   4.000E-03  -9.111E-03
 714  8.26661768   0.689  -0.86696   3.64073   7.03029   1.88467   0.00801   1.005E+00   4.000E-03  -9.070E-03
 715  8.26771114   0.689  -0.86695   3.64073   7.03027   1.88466   0.00796   1.005E+00   4.000E-03  -9.029E-03
 716  8.26880185   0.689  -0.86695   3.64073   7.03025   1.88464   0.00791   1.005E+00   4.000E-03  -8.988E-03
 717  8.26988982   0.689  -0.86694   3.64072   7.03022   1.88463   0.00785   1.005E+00   4.000E-03  -8.947E-03
 718  8.27097508   0.689  -0.86694   3.64072   7.03020   1.88462   0.00780   1.005E+00   4.000E-03  -8.906E-03
 719  8.27205763   0.689  -0.86693   3.64071   7.03018   1.88461   0.00775   1.005E+00   4.000E-03  -8.865E-03
 720  8.27313749   0.689  -0.86693   3.64071   7.03015   1.88460   0.00769   1.005E+00   4.000E-03  -8.824E-03
 721  8.27421467   0.689  -0.86692   3.64071   7.03013   1.88459   0.00764   1.005E+00   4.000E-03  -8.783E-03
 722  8.27528919   0.689  -0.86692   3.64070   7.03011   1.88458   0.00759   1.005E+00   4.000E-03  -8.742E-03
 723  8.27636106   0.689  -0.86691   3.64070   7.03008   1.88456   0.00753   1.004E+00   4.000E-03  -8.701E-03
 724  8.27743028   0.689  -0.86691   3.64069   7.03006   1.88455   0.00748   1.004E+00   4.000E-03  -8.659E-03
 725  8.27849688   0.689  -0.86690   3.64069   7.03004   1.88454   0.00743   1.004E+00   4.000E-03  -8.618E-03
 726  8.27956087   0.689  -0.86690   3.64069   7.03001   1.88453   0.00738   1.004E+00   4.000E-03  -8.577E-03
 727  8.28062226   0.689  -0.86689   3.64068   7.02999   1.88452   0.00732   1.004E+00   4.000E-03  -8.536E-03
 728  8.28168105   0.689  -0.86689   3.64068   7.02997   1.88451   0.00727   1.004E+00   4.000E-03  -8.495E-03
 729  8.28273728   0.689  -0.86688   3.64067   7.02994   1.88450   0.00722   1.004E+00   4.000E-03  -8.454E-03
 730  8.28379094   0.689  -0.86688   3.64067   7.02992   1.88449   0.00716   1.004E+00   4.000E-03  -8.413E-03
 731  8.28484205   0.689  -0.86687   3.64067   7.02990   1.88447   0.00711   1.004E+00   4.000E-03  -8.372E-03
 732  8.28589063   0.689  -0.86687   3.64066   7.02987   1.88446   0.00706   1.004E+00   4.000E-03  -8.331E-03
 733  8.28693667   0.689  -0.86686   3.64066   7.02985   1.88445   0.00700   1.004E+00   4.000E-03  -8.290E-03
 734  8.28798021   0.689  -0.86686   3.64066   7.02983   1.88444   0.00695   1.004E+00   4.000E-03  -8.249E-03
 735  8.28902124   0.689  -0.86685   3.64065   7.02980   1.88443   0.00690   1.004E+00   4.000E-03  -8.208E-03
 736  8.29005978   0.689  -0.86685   3.64065   7.02978   1.88442   0.00685   1.004E+00   4.000E-03  -8.167E-03
 737  8.29109585   0.689  -0.86684   3.64064   7.02976   1.88441   0.00679   1.004E+00   4.000E-03  -8.126E-03
 738  8.29212945   0.689  -0.86684   3.64064   7.02973   1.88440   0.00674   1.004E+00   4.000E-03  -8.085E-03
 739  8.29316060   0.689  -0.86683   3.64064   7.02971   1.88438   0.00669   1.004E+00   4.000E-03  -8.044E-03
 740  8.29418930   0.689  -0.86683   3.64063   7.02969   1.88437   0.00663   1.004E+00   4.000E-03  -8.003E-03
 741  8.29521557   0.689  -0.86682   3.64063   7.02966   1.88436   0.00658   1.004E+00   4.000E-03  -7.961E-03
 742  8.29623943   0.689  -0.86682   3.64062   7.02964   1.88435   0.00653   1.004E+00   4.000E-03  -7.920E-03
 743  8.29726087   0.689  -0.86681   3.64062   7.02962   1.88434   0.00647   1.004E+00   4.000E-03  -7.879E-03
 744  8.29827992   0.689  -0.86681   3.64062   7.02959   1.88433   0.00642   1.004E+00   4.000E-03  -7.838E-03
 745  8.29929658   0.689  -0.86680   3.64061   7.02957   1.88432   0.00637   1.004E+00   4.000E-03  -7.797E-03
 746  8.30031087   0.689  -0.86680   3.64061   7.02955   1.88430   0.00631   1.004E+00   4.000E-03  -7.756E-03
 747  8.30132279   0.689  -0.86679   3.64060   7.02952   1.88429   0.00626   1.004E+00   4.000E-03  -7.715E-03
 748  8.30233237   0.689  -0.86679   3.64060   7.02950   1.88428   0.00621   1.004E+00   4.000E-03  -7.674E-03
 749  8.30333960   0.689  -0.86678   3.64060   7.02948   1.88427   0.00616   1.004E+00   4.000E-03  -7.633E-03
 750  8.30434450   0.689  -0.86678   3.64059   7.02945   1.88426   0.00610   1.004E+00   4.000E-03  -7.592E-03
 751  8.30534708   0.689  -0.86677   3.64059   7.02943   1.88425   0.00605   1.004E+00   4.000E-03  -7.551E-03
 752  8.30634735   0.689  -0.86677   3.64058   7.02940   1.88424   0.00600   1.003E+00   4.000E-03  -7.510E-03
 753  8.30734533   0.689  -0.86676   3.64058   7.02938   1.88423   0.00594   1.003E+00   4.000E-03  -7.469E-03
 754  8.30834101   0.689  -0.86676   3.64058   7.02936   1.88421   0.00589   1.003E+00   4.000E-03  -7.428E-03
 755  8.30933442   0.689  -0.86675   3.64057   7.02933   1.88420   0.00584   1.003E+00   4.000E-03  -7.387E-03
 756  8.31032556   0.689  -0.86675   3.64057   7.02931   1.88419   0.00578   1.003E+00   4.000E-03  -7.346E-03
 757  8.31131444   0.689  -0.86674   3.64056   7.02929   1.88418   0.00573   1.003E+00   4.000E-03  -7.304E-03
 758  8.31230108   0.689  -0.86674   3.64056   7.02926   1.88417   0.00568   1.003E+00   4.000E-03  -7.263E-03
 759  8.31328548   0.689  -0.86673   3.64056   7.02924   1.88416   0.00562   1.003E+00   4.000E-03  -7.222E-03
 760  8.31426765   0.689  -0.86673   3.64055   7.02922   1.88415   0.00557   1.003E+00   4.000E-03  -7.181E-03
 761  8.31524761   0.689  -0.86672   3.64055   7.02919   1.88414   0.00552   1.003E+00   4.000E-03  -7.140E-03
 762  8.31622536   0.689  -0.86672   3.64055   7.02917   1.88412   0.00547   1.003E+00   4.000E-03  -7.099E-03
 763  8.31720092   0.689  -0.86671   3.64054   7.02915   1.88411   0.00541   1.003E+00   4.000E-03  -7.058E-03
 764  8.31817429   0.689  -0.86671   3.64054   7.02912   1.88410   0.00536   1.003E+00   4.000E-03  -7.017E-03
 765  8.31914548   0.689  -0.86670   3.64053   7.02910   1.88409   0.00531   1.003E+00   4.000E-03  -6.976E-03
 766  8.32011451   0.689  -0.86670   3.64053   7.02908   1.88408   0.00526   1.003E+00   4.000E-03  -6.938E-03
 767  8.32108138   0.689  -0.86669   3.64053   7.02906   1.88407   0.00523   1.003E+00   4.000E-03  -6.918E-03
 768  8.32204610   0.689  -0.86669   3.64052   7.02905   1.88407   0.00521   1.003E+00   4.000E-03  -6.898E-03
 769  8.32300868   0.689  -0.86669   3.64052   7.02904   1.88406   0.00519   1.003E+00   4.000E-03  -6.879E-03
 770  8.32396913   0.689  -0.86668   3.64052   7.02902   1.88406   0.00517   1.003E+00   4.000E-03  -6.859E-03
 771  8.32492747   0.689  -0.86668   3.64052   7.02901   1.88405   0.00514   1.003E+00   4.000E-03  -6.840E-03
 772  8.32588369   0.689  -0.86667   3.64051   7.02899   1.88405   0.00512   1.003E+00   4.000E-03  -6.820E-03
 773  8.32683781   0.689  -0.86667   3.64051   7.02898   1.88404   0.00510   1.003E+00   4.000E-03  -6.800E-03
 774  8.32778984   0.689  -0.86666   3.64051   7.02896   1.88404   0.00508   1.003E+00   4.000E-03  -6.781E-03
 775  8.32873979   0.689  -0.86666   3.64051   7.02895   1.88403   0.00505   1.003E+00   4.000E-03  -6.761E-03
 776  8.32968767   0.688  -0.86665   3.64051   7.02893   1.88403   0.00503   1.003E+00   4.000E-03  -6.741E-03
 777  8.33063348   0.688  -0.86665   3.64050   7.02892   1.88402   0.00501   1.003E+00   4.000E-03  -6.722E-03
 778  8.33157724   0.688  -0.86664   3.64050   7.02891   1.88402   0.00499   1.003E+00   4.000E-03  -6.702E-03
 779  8.33251895   0.688  -0.86664   3.64050   7.02889   1.88401   0.00496   1.003E+00   4.000E-03  -6.683E-03
 780  8.33345862   0.688  -0.86664   3.64050   7.02888   1.88401   0.00494   1.003E+00   4.000E-03  -6.663E-03
 781  8.33439626   0.688  -0.86663   3.64049   7.02886   1.88400   0.00492   1.003E+00   4.000E-03  -6.643E-03
 782  8.33533189   0.688  -0.86663   3.64049   7.02885   1.88400   0.00490   1.003E+00   4.000E-03  -6.624E-03
 783  8.33626550   0.688  -0.86662   3.64049   7.02883   1.88399   0.00487   1.003E+00   4.000E-03  -6.604E-03
 784  8.33719711   0.688  -0.86662   3.64049   7.02882   1.88399   0.00485   1.003E+00   4.000E-03  -6.585E-03
 785  8.33812672   0.688  -0.86661   3.64048   7.02881   1.88398   0.00483   1.003E+00   4.000E-03  -6.565E-03
 786  8.33905435   0.688  -0.86661   3.64048   7.02879   1.88398   0.00481   1.003E+00   4.000E-03  -6.545E-03
 787  8.33998001   0.688  -0.86660   3.64048   7.02878   1.88397   0.00478   1.003E+00   4.000E-03  -6.526E-03
 788  8.34090369   0.688  -0.86660   3.64048   7.02876   1.88397   0.00476   1.003E+00   4.000E-03  -6.506E-03
 789  8.34182541   0.688  -0.86660   3.64047   7.02875   1.88396   0.00474   1.003E+00   4.000E-03  -6.487E-03
 790  8.34274519   0.688  -0.86659   3.64047   7.02873   1.88396   0.00472   1.003E+00   4.000E-03  -6.467E-03
 791  8.34366301   0.688  -0.86659   3.64047   7.02872   1.88395   0.00469   1.003E+00   4.000E-03  -6.447E-03
 792  8.34457890   0.688  -0.86658   3.64047   7.02870   1.88395   0.00467   1.003E+00   4.000E-03  -6.428E-03
 793  8.34549287   0.688  -0.86658   3.64046   7.02869   1.88394   0.00465   1.003E+00   4.000E-03  -6.408E-03
 794  8.34640491   0.688  -0.86657   3.64046   7.02868   1.88394   0.00463   1.003E+00   4.000E-03  -6.389E-03
 795  8.34731505   0.688  -0.86657   3.64046   7.02866   1.88393   0.00460   1.003E+00   4.000E-03  -6.369E-03
 796  8.34822328   0.688  -0.86656   3.64046   7.02865   1.88393   0.00458   1.003E+00   4.000E-03  -6.349E-03
 797  8.34912961   0.688  -0.86656   3.64045   7.02863   1.88392   0.00456   1.003E+00   4.000E-03  -6.330E-03
 798  8.35003406   0.688  -0.86655   3.64045   7.02862   1.88392   0.00454   1.003E+00   4.000E-03  -6.310E-03
 799  8.35093663   0.688  -0.86655   3.64045   7.02860   1.88391   0.00451   1.002E+00   4.000E-03  -6.291E-03
 800  8.35183733   0.688  -0.86655   3.64045   7.02859   1.88391   0.00449   1.002E+00   4.000E-03  -6.271E-03
 801  8.35273616   0.688  -0.86654   3.64044   7.02857   1.88390   0.00447   1.002E+00   4.000E-03  -6.251E-03
 802  8.35363313   0.688  -0.86654   3.64044   7.02856   1.88390   0.00445   1.002E+00   4.000E-03  -6.232E-03
 803  8.35452826   0.688  -0.86653   3.64044   7.02855   1.88389   0.00442   1.002E+00   4.000E-03  -6.212E-03
 804  8.35542154   0.688  -0.86653   3.64044   7.02853   1.88389   0.00440   1.002E+00   4.000E-03  -6.192E-03
 805  8.35631300   0.688  -0.86652   3.64043   7.02852   1.88388   0.00438   1.002E+00   4.000E-03  -6.173E-03
 806  8.35720262   0.688  -0.86652   3.64043   7.02850   1.88388   0.00436   1.002E+00   4.000E-03  -6.153E-03
 807  8.35809043   0.688  -0.86651   3.64043   7.02849   1.88387   0.00433   1.002E+00   4.000E-03  -6.134E-03
 808  8.35897643   0.688  -0.86651   3.64043   7.02847   1.88387   0.00431   1.002E+00   4.000E-03  -6.114E-03
 809  8.35986062   0.688  -0.86650   3.64042   7.02846   1.88386   0.00429   1.002E+00   4.000E-03  -6.094E-03
 810  8.36074301   0.688  -0.86650   3.64042   7.02845   1.88386   0.00427   1.002E+00   4.000E-03  -6.075E-03
 811  8.36162362   0.688  -0.86650   3.64042   7.02843   1.88385   0.00424   1.002E+00   4.000E-03  -6.055E-03
 812  8.36250245   0.688  -0.86649   3.64042   7.02842   1.88385   0.00422   1.002E+00   4.000E-03  -6.036E-03
 813  8.36337949   0.688  -0.86649   3.64041   7.02840   1.88384   0.00420   1.002E+00   4.000E-03  -6.016E-03
 814  8.36425478   0.688  -0.86648   3.64041   7.02839   1.88384   0.00418   1.002E+00   4.000E-03  -5.996E-03
 815  8.36512830   0.688  -0.86648   3.64041   7.02837   1.88383   0.00415   1.002E+00   4.000E-03  -5.977E-03
 816  8.36600007   0.688  -0.86647   3.64041   7.02836   1.88383   0.00413   1.002E+00   4.000E-03  -5.957E-03
 817  8.36687009   0.688  -0.86647   3.64040   7.02834   1.88382   0.00411   1.002E+00   4.000E-03  -5.938E-03
 818  8.36773837   0.688  -0.86646   3.64040   7.02833   1.88382   0.00409   1.002E+00   4.000E-03  -5.918E-03
 819  8.36860492   0.688  -0.86646   3.64040   7.02832   1.88381   0.00406   1.002E+00   4.000E-03  -5.898E-03
 820  8.36946975   0.688  -0.86645   3.64040   7.02830   1.88381   0.00404   1.002E+00   4.000E-03  -5.879E-03
 821  8.37033285   0.688  -0.86645   3.64039   7.02829   1.88380   0.00402   1.002E+00   4.000E-03  -5.859E-03
 822  8.37119424   0.688  -0.86645   3.64039   7.02827   1.88380   0.00400   1.002E+00   4.000E-03  -5.840E-03
 823  8.37205393   0.688  -0.86644   3.64039   7.02826   1.88379   0.00397   1.002E+00   4.000E-03  -5.820E-03
 824  8.37291192   0.688  -0.86644   3.64039   7.02824   1.88379   0.00395   1.002E+00   4.000E-03  -5.800E-03
 825  8.37376822   0.688  -0.86643   3.64038   7.02823   1.88378   0.00393   1.002E+00   4.000E-03  -5.781E-03
 826  8.37462284   0.688  -0.86643   3.64038   7.02822   1.88377   0.00391   1.002E+00   4.000E-03  -5.761E-03
 827  8.37547577   0.688  -0.86642   3.64038   7.02820   1.88377   0.00388   1.002E+00   4.000E-03  -5.741E-03
 828  8.37632703   0.688  -0.86642   3.64038   7.02819   1.88376   0.00386   1.002E+00   4.000E-03  -5.722E-03
 829  8.37717663   0.688  -0.86641   3.64037   7.02817   1.88376   0.00384   1.002E+00   4.000E-03  -5.702E-03
 830  8.37802457   0.688  -0.86641   3.64037   7.02816   1.88375   0.00382   1.002E+00   4.000E-03  -5.683E-03
 831  8.37887086   0.688  -0.86640   3.64037   7.02814   1.88375   0.00379   1.002E+00   4.000E-03  -5.663E-03
 832  8.37971550   0.688  -0.86640   3.64037   7.02813   1.88374   0.00377   1.002E+00   4.000E-03  -5.643E-03
 833  8.38055850   0.688  -0.86640   3.64036   7.02811   1.88374   0.00375   1.002E+00   4.000E-03  -5.624E-03
 834  8.38139987   0.688  -0.86639   3.64036   7.02810   1.88373   0.00373   1.002E+00   4.000E-03  -5.604E-03
 835  8.38223961   0.688  -0.86639   3.64036   7.02809   1.88373   0.00370   1.002E+00   4.000E-03  -5.585E-03
 836  8.38307773   0.688  -0.86638   3.64036   7.02807   1.88372   0.00368   1.002E+00   4.000E-03  -5.565E-03
 837  8.38391424   0.688  -0.86638   3.64035   7.02806   1.88372   0.00366   1.002E+00   4.000E-03  -5.545E-03
 838  8.38474913   0.688  -0.86637   3.64035   7.02804   1.88371   0.00364   1.002E+00   4.000E-03  -5.526E-03
 839  8.38558243   0.688  -0.86637   3.64035   7.02803   1.88371   0.00361   1.002E+00   4.000E-03  -5.506E-03
 840  8.38641413   0.688  -0.86636   3.64035   7.02801   1.88370   0.00359   1.002E+00   4.000E-03  -5.487E-03
 841  8.38724424   0.688  -0.86636   3.64035   7.02800   1.88370   0.00357   1.002E+00   4.000E-03  -5.467E-03
 842  8.38807277   0.688  -0.86635   3.64034   7.02799   1.88369   0.00354   1.002E+00   4.000E-03  -5.447E-03
 843  8.38889972   0.688  -0.86635   3.64034   7.02797   1.88369   0.00352   1.002E+00   4.000E-03  -5.428E-03
 844  8.38972510   0.688  -0.86635   3.64034   7.02796   1.88368   0.00350   1.002E+00   4.000E-03  -5.408E-03
 845  8.39054891   0.688  -0.86634   3.64034   7.02794   1.88368   0.00348   1.002E+00   4.000E-03  -5.389E-03
 846  8.39137116   0.688  -0.86634   3.64033   7.02793   1.88367   0.00345   1.002E+00   4.000E-03  -5.369E-03
 847  8.39219186   0.688  -0.86633   3.64033   7.02791   1.88367   0.00343   1.002E+00   4.000E-03  -5.349E-03
 848  8.39301101   0.688  -0.86633   3.64033   7.02790   1.88366   0.00341   1.002E+00   4.000E-03  -5.330E-03
 849  8.39382862   0.688  -0.86632   3.64033   7.02788   1.88366   0.00339   1.002E+00   4.000E-03  -5.310E-03
 850  8.39464469   0.688  -0.86632   3.64032   7.02787   1.88365   0.00336   1.002E+00   4.000E-03  -5.291E-03
 851  8.39545923   0.688  -0.86631   3.64032   7.02786   1.88365   0.00334   1.002E+00   4.000E-03  -5.271E-03
 852  8.39627225   0.688  -0.86631   3.64032   7.02784   1.88364   0.00332   1.002E+00   4.000E-03  -5.251E-03
 853  8.39708375   0.688  -0.86630   3.64032   7.02783   1.88364   0.00330   1.002E+00   4.000E-03  -5.232E-03
 854  8.39789373   0.688  -0.86630   3.64031   7.02781   1.88363   0.00327   1.002E+00   4.000E-03  -5.212E-03
 855  8.39870221   0.688  -0.86630   3.64031   7.02780   1.88363   0.00325   1.002E+00   4.000E-03  -5.192E-03
 856  8.39950918   0.688  -0.86629   3.64031   7.02778   1.88362   0.00323   1.002E+00   4.000E-03  -5.173E-03
 857  8.40031466   0.688  -0.86629   3.64031   7.02777   1.88362   0.00321   1.002E+00   4.000E-03  -5.153E-03
 858  8.40111864   0.688  -0.86628   3.64030   7.02776   1.88361   0.00318   1.002E+00   4.000E-03  -5.134E-03
 859  8.40192114   0.688  -0.86628   3.64030   7.02774   1.88361   0.00316   1.002E+00   4.000E-03  -5.114E-03
 860  8.40272216   0.688  -0.86627   3.64030   7.02773   1.88360   0.00314   1.002E+00   4.000E-03  -5.094E-03
 861  8.40352171   0.688  -0.86627   3.64030   7.02771   1.88360   0.00312   1.002E+00   4.000E-03  -5.075E-03
 862  8.40431979   0.688  -0.86626   3.64029   7.02770   1.88359   0.00309   1.002E+00   4.000E-03  -5.055E-03
 863  8.40511640   0.688  -0.86626   3.64029   7.02768   1.88359   0.00307   1.002E+00   4.000E-03  -5.036E-03
 864  8.40591155   0.688  -0.86625   3.64029   7.02767   1.88358   0.00305   1.001E+00   4.000E-03  -5.016E-03
 865  8.40670525   0.688  -0.86625   3.64029   7.02765   1.88358   0.00303   1.001E+00   4.000E-03  -4.996E-03
 866  8.40749751   0.688  -0.86625   3.64028   7.02764   1.88357   0.00300   1.001E+00   4.000E-03  -4.977E-03
 867  8.40828832   0.687  -0.86624   3.64028   7.02763   1.88357   0.00298   1.001E+00   4.000E-03  -4.957E-03
 868  8.40907769   0.687  -0.86624   3.64028   7.02761   1.88356   0.00296   1.001E+00   4.000E-03  -4.938E-03
 869  8.40986563   0.687  -0.86623   3.64028   7.02760   1.88356   0.00294   1.001E+00   4.000E-03  -4.918E-03
 870  8.41065215   0.687  -0.86623   3.64027   7.02758   1.88355   0.00291   1.001E+00   4.000E-03  -4.898E-03
 871  8.41143724   0.687  -0.86622   3.64027   7.02757   1.88355   0.00289   1.001E+00   4.000E-03  -4.879E-03
 872  8.41222091   0.687  -0.86622   3.64027   7.02755   1.88354   0.00287   1.001E+00   4.000E-03  -4.859E-03
 873  8.41300318   0.687  -0.86621   3.64027   7.02754   1.88354   0.00285   1.001E+00   4.000E-03  -4.840E-03
 874  8.41378403   0.687  -0.86621   3.64026   7.02753   1.88353   0.00282   1.001E+00   4.000E-03  -4.820E-03
 875  8.41456349   0.687  -0.86620   3.64026   7.02751   1.88353   0.00280   1.001E+00   4.000E-03  -4.800E-03
 876  8.41534155   0.687  -0.86620   3.64026   7.02750   1.88352   0.00278   1.001E+00   4.000E-03  -4.781E-03
 877  8.41611822   0.687  -0.86620   3.64026   7.02748   1.88352   0.00276   1.001E+00   4.000E-03  -4.761E-03
 878  8.41689350   0.687  -0.86619   3.64025   7.02747   1.88351   0.00273   1.001E+00   4.000E-03  -4.741E-03
 879  8.41766740   0.687  -0.86619   3.64025   7.02745   1.88351   0.00271   1.001E+00   4.000E-03  -4.722E-03
 880  8.41843992   0.687  -0.86618   3.64025   7.02744   1.88350   0.00269   1.001E+00   4.000E-03  -4.702E-03
 881  8.41921107   0.687  -0.86618   3.64025   7.02742   1.88350   0.00267   1.001E+00   4.000E-03  -4.683E-03
 882  8.41998086   0.687  -0.86617   3.64024   7.02741   1.88349   0.00264   1.001E+00   4.000E-03  -4.663E-03
 883  8.42074928   0.687  -0.86617   3.64024   7.02740   1.88349   0.00262   1.001E+00   4.000E-03  -4.643E-03
 884  8.42151635   0.687  -0.86616   3.64024   7.02738   1.88348   0.00260   1.001E+00   4.000E-03  -4.624E-03
 885  8.42228206   0.687  -0.86616   3.64024   7.02737   1.88348   0.00258   1.001E+00   4.000E-03  -4.604E-03
 886  8.42304642   0.687  -0.86616   3.64023   7.02735   1.88347   0.00255   1.001E+00   4.000E-03  -4.585E-03
 887  8.42380945   0.687  -0.86615   3.64023   7.02734   1.88347   0.00253   1.001E+00   4.000E-03  -4.565E-03
 888  8.42457113   0.687  -0.86615   3.64023   7.02732   1.88346   0.00251   1.001E+00   4.000E-03  -4.545E-03
 889  8.42533148   0.687  -0.86614   3.64023   7.02731   1.88346   0.00249   1.001E+00   4.000E-03  -4.526E-03
 890  8.42609050   0.687  -0.86614   3.64022   7.02730   1.88345   0.00246   1.001E+00   4.000E-03  -4.506E-03
 891  8.42684820   0.687  -0.86613   3.64022   7.02728   1.88344   0.00244   1.001E+00   4.000E-03  -4.487E-03
 892  8.42760458   0.687  -0.86613   3.64022   7.02727   1.88344   0.00242   1.001E+00   4.000E-03  -4.467E-03
 893  8.42835964   0.687  -0.86612   3.64022   7.02725   1.88343   0.00240   1.001E+00   4.000E-03  -4.447E-03
 894  8.42911339   0.687  -0.86612   3.64021   7.02724   1.88343   0.00237   1.001E+00   4.000E-03  -4.428E-03
 895  8.42986584   0.687  -0.86611   3.64021   7.02722   1.88342   0.00235   1.001E+00   4.000E-03  -4.408E-03
 896  8.43061699   0.687  -0.86611   3.64021   7.02721   1.88342   0.00233   1.001E+00   4.000E-03  -4.389E-03
 897  8.43136683   0.687  -0.86610   3.64021   7.02720   1.88342   0.00232   1.001E+00   3.994E-03  -4.380E-03
 898  8.43211539   0.687  -0.86610   3.64021   7.02719   1.88342   0.00231   1.001E+00   3.989E-03  -4.372E-03
 899  8.43286266   0.687  -0.86610   3.64021   7.02719   1.88342   0.00230   1.001E+00   3.984E-03  -4.363E-03
 900  8.43360864   0.687  -0.86609   3.64021   7.02718   1.88342   0.00229   1.001E+00   3.979E-03  -4.354E-03
 901  8.43435335   0.687  -0.86609   3.64020   7.02717   1.88342   0.00228   1.001E+00   3.974E-03  -4.345E-03
 902  8.43509678   0.687  -0.86608   3.64020   7.02716   1.88342   0.00227   1.001E+00   3.969E-03  -4.336E-03
 903  8.43583894   0.687  -0.86608   3.64020   7.02715   1.88342   0.00227   1.001E+00   3.964E-03  -4.327E-03
 904  8.43657983   0.687  -0.86607   3.64020   7.02714   1.88342   0.00226   1.001E+00   3.959E-03  -4.318E-03
 905  8.43731946   0.687  -0.86607   3.64020   7.02714   1.88342   0.00225   1.001E+00   3.953E-03  -4.310E-03
 906  8.43805784   0.687  -0.86606   3.64020   7.02713   1.88342   0.00224   1.001E+00   3.948E-03  -4.301E-03
 907  8.43879496   0.687  -0.86606   3.64020   7.02712   1.88342   0.00223   1.001E+00   3.943E-03  -4.292E-03
 908  8.43953083   0.687  -0.86605   3.64020   7.02711   1.88342   0.00222   1.001E+00   3.938E-03  -4.283E-03
 909  8.44026546   0.687  -0.86605   3.64019   7.02710   1.88341   0.00221   1.001E+00   3.933E-03  -4.274E-03
 910  8.44099884   0.687  -0.86604   3.64019   7.02710   1.88341   0.00220   1.001E+00   3.928E-03  -4.265E-03
 911  8.44173099   0.687  -0.86604   3.64019   7.02709   1.88341   0.00219   1.001E+00   3.923E-03  -4.256E-03
 912  8.44246191   0.687  -0.86603   3.64019   7.02708   1.88341   0.00218   1.001E+00   3.918E-03  -4.247E-03
 913  8.44319160   0.687  -0.86603   3.64019   7.02707   1.88341   0.00218   1.001E+00   3.912E-03  -4.239E-03
 914  8.44392007   0.687  -0.86602   3.64019   7.02706   1.88341   0.00217   1.001E+00   3.907E-03  -4.230E-03
 915  8.44464731   0.687  -0.86602   3.64019   7.02706   1.88341   0.00216   1.001E+00   3.902E-03  -4.221E-03
 916  8.44537335   0.687  -0.86601   3.64019   7.02705   1.88341   0.00215   1.001E+00   3.897E-03  -4.212E-03
 917  8.44609816   0.687  -0.86601   3.64019   7.02704   1.88341   0.00214   1.001E+00   3.892E-03  -4.203E-03
 918  8.44682178   0.687  -0.86600   3.64018   7.02703   1.88341   0.00213   1.001E+00   3.887E-03  -4.194E-03
 919  8.44754418   0.687  -0.86600   3.64018   7.02702   1.88341   0.00212   1.001E+00   3.882E-03  -4.185E-03
 920  8.44826539   0.687  -0.86600   3.64018   7.02702   1.88341   0.00211   1.001E+00   3.877E-03  -4.176E-03
 921  8.44898540   0.687  -0.86599   3.64018   7.02701   1.88341   0.00210   1.001E+00   3.871E-03  -4.168E-03
 922  8.44970422   0.687  -0.86599   3.64018   7.02700   1.88341   0.00209   1.001E+00   3.866E-03  -4.159E-03
 923  8.45042186   0.687  -0.86598   3.64018   7.02699   1.88341   0.00208   1.001E+00   3.861E-03  -4.150E-03
 924  8.45113830   0.687  -0.86598   3.64018   7.02698   1.88341   0.00208   1.001E+00   3.856E-03  -4.141E-03
 925  8.45185357   0.687  -0.86597   3.64018   7.02697   1.88341   0.00207   1.001E+00   3.851E-03  -4.132E-03
 926  8.45256767   0.687  -0.86597   3.64017   7.02697   1.88341   0.00206   1.001E+00   3.846E-03  -4.123E-03
 927  8.45328059   0.687  -0.86596   3.64017   7.02696   1.88341   0.00205   1.001E+00   3.841E-03  -4.114E-03
 928  8.45399234   0.687  -0.86596   3.64017   7.02695   1.88341   0.00204   1.001E+00   3.836E-03  -4.106E-03
 929  8.45470293   0.687  -0.86595   3.64017   7.02694   1.88341   0.00203   1.001E+00   3.830E-03  -4.097E-03
 930  8.45541235   0.687  -0.86595   3.64017   7.02693   1.88341   0.00202   1.001E+00   3.825E-03  -4.088E-03
 931  8.45612062   0.687  -0.86594   3.64017   7.02693   1.88341   0.00201   1.001E+00   3.820E-03  -4.079E-03
 932  8.45682774   0.687  -0.86594   3.64017   7.02692   1.88341   0.00200   1.001E+00   3.815E-03  -4.070E-03
 933  8.45753371   0.687  -0.86593   3.64017   7.02691   1.88340   0.00199   1.001E+00   3.810E-03  -4.061E-03
 934  8.45823853   0.687  -0.86593   3.64017   7.02690   1.88340   0.00198   1.001E+00   3.805E-03  -4.052E-03
 935  8.45894221   0.687  -0.86592   3.64016   7.02689   1.88340   0.00198   1.001E+00   3.800E-03  -4.043E-03
 936  8.45964475   0.687  -0.86592   3.64016   7.02689   1.88340   0.00197   1.001E+00   3.795E-03  -4.035E-03
 937  8.46034616   0.687  -0.86591   3.64016   7.02688   1.88340   0.00196   1.001E+00   3.789E-03  -4.026E-03
 938  8.46104643   0.687  -0.86591   3.64016   7.02687   1.88340   0.00195   1.001E+00   3.784E-03  -4.017E-03
 939  8.46174558   0.687  -0.86590   3.64016   7.02686   1.88340   0.00194   1.001E+00   3.779E-03  -4.008E-03
 940  8.46244360   0.687  -0.86590   3.64016   7.02685   1.88340   0.00193   1.001E+00   3.774E-03  -3.999E-03
 941  8.46314051   0.687  -0.86590   3.64016   7.02684   1.88340   0.00192   1.001E+00   3.769E-03  -3.990E-03
 942  8.46383630   0.687  -0.86589   3.64016   7.02684   1.88340   0.00191   1.001E+00   3.764E-03  -3.981E-03
 943  8.46453097   0.687  -0.86589   3.64015   7.02683   1.88340   0.00190   1.001E+00   3.759E-03  -3.973E-03
 944  8.46522454   0.687  -0.86588   3.64015   7.02682   1.88340   0.00189   1.001E+00   3.754E-03  -3.964E-03
 945  8.46591700   0.687  -0.86588   3.64015   7.02681   1.88340   0.00188   1.000E+00   3.748E-03  -3.955E-03
 946  8.46660835   0.687  -0.86587   3.64015   7.02680   1.88340   0.00188   1.000E+00   3.743E-03  -3.946E-03
 947  8.46729861   0.687  -0.86587   3.64015   7.02680   1.88340   0.00187   1.000E+00   3.738E-03  -3.937E-03
 948  8.46798778   0.687  -0.86586   3.64015   7.02679   1.88340   0.00186   1.000E+00   3.733E-03  -3.928E-03
 949  8.46867585   0.687  -0.86586   3.64015   7.02678   1.88340   0.00185   1.000E+00   3.728E-03  -3.919E-03
 950  8.46936283   0.687  -0.86585   3.64015   7.02677   1.88340   0.00184   1.000E+00   3.723E-03  -3.910E-03
 951  8.47004873   0.687  -0.86585   3.64015   7.02676   1.88340   0.00183   1.000E+00   3.718E-03  -3.902E-03
 952  8.47073354   0.687  -0.86584   3.64014   7.02676   1.88340   0.00182   1.000E+00   3.713E-03  -3.893E-03
 953  8.47141728   0.687  -0.86584   3.64014   7.02675   1.88340   0.00181   1.000E+00   3.707E-03  -3.884E-03
 954  8.47209995   0.687  -0.86583   3.64014   7.02674   1.88340   0.00180   1.000E+00   3.702E-03  -3.875E-03
 955  8.47278154   0.687  -0.86583   3.64014   7.02673   1.88340   0.00179   1.000E+00   3.697E-03  -3.866E-03
 956  8.47346206   0.686  -0.86582   3.64014   7.02672   1.88340   0.00178   1.000E+00   3.692E-03  -3.857E-03
 957  8.47414152   0.686  -0.86582   3.64014   7.02672   1.88339   0.00178   1.000E+00   3.687E-03  -3.848E-03
 958  8.47481992   0.686  -0.86581   3.64014   7.02671   1.88339   0.00177   1.000E+00   3.682E-03  -3.839E-03
 959  8.47549726   0.686  -0.86581   3.64014   7.02670   1.88339   0.00176   1.000E+00   3.677E-03  -3.831E-03
 960  8.47617354   0.686  -0.86580   3.64013   7.02669   1.88339   0.00175   1.000E+00   3.672E-03  -3.822E-03
 961  8.47684878   0.686  -0.86580   3.64013   7.02668   1.88339   0.00174   1.000E+00   3.666E-03  -3.813E-03
 962  8.47752296   0.686  -0.86579   3.64013   7.02667   1.88339   0.00173   1.000E+00   3.661E-03  -3.804E-03
 963  8.47819610   0.686  -0.86579   3.64013   7.02667   1.88339   0.00172   1.000E+00   3.656E-03  -3.795E-03
 964  8.47886820   0.686  -0.86579   3.64013   7.02666   1.88339   0.00171   1.000E+00   3.651E-03  -3.786E-03
 965  8.47953926   0.686  -0.86578   3.64013   7.02665   1.88339   0.00170   1.000E+00   3.646E-03  -3.777E-03
 966  8.48020929   0.686  -0.86578   3.64013   7.02664   1.88339   0.00169   1.000E+00   3.641E-03  -3.769E-03
 967  8.48087828   0.686  -0.86577   3.64013   7.02663   1.88339   0.00169   1.000E+00   3.636E-03  -3.760E-03
 968  8.48154624   0.686  -0.86577   3.64013   7.02663   1.88339   0.00168   1.000E+00   3.631E-03  -3.751E-03
 969  8.48221318   0.686  -0.86576   3.64012   7.02662   1.88339   0.00167   1.000E+00   3.625E-03  -3.742E-03
 970  8.48287910   0.686  -0.86576   3.64012   7.02661   1.88339   0.00166   1.000E+00   3.620E-03  -3.733E-03
 971  8.48354399   0.686  -0.86575   3.64012   7.02660   1.88339   0.00165   1.000E+00   3.615E-03  -3.724E-03
 972  8.48420787   0.686  -0.86575   3.64012   7.02659   1.88339   0.00164   1.000E+00   3.610E-03  -3.715E-03
 973  8.48487074   0.686  -0.86574   3.64012   7.02659   1.88339   0.00163   1.000E+00   3.605E-03  -3.706E-03
 974  8.48553260   0.686  -0.86574   3.64012   7.02658   1.88339   0.00162   1.000E+00   3.600E-03  -3.698E-03
 975  8.48619344   0.686  -0.86573   3.64012   7.02657   1.88339   0.00161   1.000E+00   3.595E-03  -3.689E-03
 976  8.48685329   0.686  -0.86573   3.64012   7.02656   1.88339   0.00160   1.000E+00   3.590E-03  -3.680E-03
 977  8.48751213   0.686  -0.86572   3.64011   7.02655   1.88339   0.00159   1.000E+00   3.584E-03  -3.671E-03
 978  8.48816998   0.686  -0.86572   3.64011   7.02655   1.88339   0.00159   1.000E+00   3.579E-03  -3.662E-03
 979  8.48882683   0.686  -0.86571   3.64011   7.02654   1.88339   0.00158   1.000E+00   3.574E-03  -3.653E-03
 980  8.48948269   0.686  -0.86571   3.64011   7.02653   1.88339   0.00157   1.000E+00   3.569E-03  -3.644E-03
 981  8.49013756   0.686  -0.86570   3.64011   7.02652   1.88339   0.00156   1.000E+00   3.564E-03  -3.636E-03
 982  8.49079144   0.686  -0.86570   3.64011   7.02651   1.88338   0.00155   1.000E+00   3.559E-03  -3.627E-03
 983  8.49144434   0.686  -0.86569   3.64011   7.02650   1.88338   0.00154   1.000E+00   3.554E-03  -3.618E-03
 984  8.49209627   0.686  -0.86569   3.64011   7.02650   1.88338   0.00153   1.000E+00   3.549E-03  -3.609E-03
 985  8.49274721   0.686  -0.86569   3.64010   7.02649   1.88338   0.00152   1.000E+00   3.543E-03  -3.600E-03
 986  8.49339718   0.686  -0.86568   3.64010   7.02648   1.88338   0.00151   1.000E+00   3.538E-03  -3.591E-03
 987  8.49404618   0.686  -0.86568   3.64010   7.02647   1.88338   0.00150   1.000E+00   3.533E-03  -3.582E-03
 988  8.49469421   0.686  -0.86567   3.64010   7.02646   1.88338   0.00149   1.000E+00   3.528E-03  -3.573E-03
 989  8.49534127   0.686  -0.86567   3.64010   7.02646   1.88338   0.00149   1.000E+00   3.523E-03  -3.565E-03
 990  8.49598737   0.686  -0.86566   3.64010   7.02645   1.88338   0.00148   1.000E+00   3.518E-03  -3.556E-03
 991  8.49663252   0.686  -0.86566   3.64010   7.02644   1.88338   0.00147   1.000E+00   3.513E-03  -3.547E-03
 992  8.49727670   0.686  -0.86565   3.64010   7.02643   1.88338   0.00146   1.000E+00   3.507E-03  -3.538E-03
 993  8.49791993   0.686  -0.86565   3.64010   7.02642   1.88338   0.00145   1.000E+00   3.502E-03  -3.529E-03
 994  8.49856221   0.686  -0.86564   3.64009   7.02642   1.88338   0.00144   1.000E+00   3.497E-03  -3.520E-03
 995  8.49920354   0.686  -0.86564   3.64009   7.02641   1.88338   0.00143   1.000E+00   3.492E-03  -3.511E-03
 996  8.49984393   0.686  -0.86563   3.64009   7.02640   1.88338   0.00142   1.000E+00   3.487E-03  -3.502E-03
 997  8.50048337   0.686  -0.86563   3.64009   7.02639   1.88338   0.00141   1.000E+00   3.482E-03  -3.494E-03
 998  8.50112187   0.686  -0.86562   3.64009   7.02638   1.88338   0.00140   1.000E+00   3.477E-03  -3.485E-03
 999  8.50175944   0.686  -0.86562   3.64009   7.02638   1.88338   0.00139   9.999E-01   3.472E-03  -3.476E-03
1000  8.50239607   0.686  -0.86561   3.64009   7.02637   1.88338   0.00139   9.999E-01   3.466E-03  -3.467E-03
1001  8.50303177   0.686  -0.86561   3.64009   7.02636   1.88338   0.00138   9.999E-01   3.461E-03  -3.458E-03
1002  8.50366654   0.686  -0.86560   3.64008   7.02635   1.88338   0.00137   9.999E-01   3.456E-03  -3.449E-03
1003  8.50430038   0.686  -0.86560   3.64008   7.02634   1.88338   0.00136   9.999E-01   3.451E-03  -3.440E-03
1004  8.50493330   0.686  -0.86559   3.64008   7.02633   1.88338   0.00135   9.999E-01   3.446E-03  -3.432E-03
1005  8.50556530   0.686  -0.86559   3.64008   7.02633   1.88338   0.00134   9.999E-01   3.441E-03  -3.423E-03
1006  8.50619638   0.686  -0.86559   3.64008   7.02632   1.88337   0.00133   9.999E-01   3.436E-03  -3.414E-03
1007  8.50682654   0.686  -0.86558   3.64008   7.02631   1.88337   0.00132   9.999E-01   3.431E-03  -3.405E-03
1008  8.50745579   0.686  -0.86558   3.64008   7.02630   1.88337   0.00131   9.999E-01   3.425E-03  -3.396E-03
1009  8.50808413   0.686  -0.86557   3.64008   7.02629   1.88337   0.00130   9.998E-01   3.420E-03  -3.387E-03
1010  8.50871157   0.686  -0.86557   3.64008   7.02629   1.88337   0.00129   9.998E-01   3.415E-03  -3.378E-03
1011  8.50933810   0.686  -0.86556   3.64007   7.02628   1.88337   0.00129   9.998E-01   3.410E-03  -3.369E-03
1012  8.50996372   0.686  -0.86556   3.64007   7.02627   1.88337   0.00128   9.998E-01   3.405E-03  -3.361E-03
1013  8.51058845   0.686  -0.86555   3.64007   7.02626   1.88337   0.00127   9.998E-01   3.400E-03  -3.352E-03
1014  8.51121227   0.686  -0.86555   3.64007   7.02625   1.88337   0.00126   9.998E-01   3.395E-03  -3.343E-03
1015  8.51183521   0.686  -0.86554   3.64007   7.02625   1.88337   0.00125   9.998E-01   3.390E-03  -3.334E-03
1016  8.51245725   0.686  -0.86554   3.64007   7.02624   1.88337   0.00124   9.998E-01   3.384E-03  -3.325E-03
1017  8.51307840   0.686  -0.86553   3.64007   7.02623   1.88337   0.00123   9.998E-01   3.379E-03  -3.316E-03
1018  8.51369866   0.686  -0.86553   3.64007   7.02622   1.88337   0.00122   9.997E-01   3.374E-03  -3.307E-03
1019  8.51431804   0.686  -0.86552   3.64006   7.02621   1.88337   0.00121   9.997E-01   3.369E-03  -3.299E-03
1020  8.51493654   0.686  -0.86552   3.64006   7.02621   1.88337   0.00120   9.997E-01   3.364E-03  -3.290E-03
1021  8.51555416   0.686  -0.86551   3.64006   7.02620   1.88337   0.00120   9.997E-01   3.359E-03  -3.281E-03
1022  8.51617090   0.686  -0.86551   3.64006   7.02619   1.88337   0.00119   9.997E-01   3.354E-03  -3.272E-03
1023  8.51678677   0.686  -0.86550   3.64006   7.02618   1.88337   0.00118   9.997E-01   3.349E-03  -3.263E-03
1024  8.51740176   0.686  -0.86550   3.64006   7.02617   1.88337   0.00117   9.997E-01   3.343E-03  -3.254E-03
1025  8.51801589   0.686  -0.86549   3.64006   7.02616   1.88337   0.00116   9.997E-01   3.338E-03  -3.245E-03
1026  8.51862914   0.686  -0.86549   3.64006   7.02616   1.88337   0.00115   9.997E-01   3.333E-03  -3.236E-03
1027  8.51924154   0.686  -0.86549   3.64006   7.02615   1.88337   0.00114   9.997E-01   3.328E-03  -3.228E-03
1028  8.51985307   0.686  -0.86548   3.64005   7.02614   1.88337   0.00113   9.996E-01   3.323E-03  -3.219E-03
1029  8.52046374   0.686  -0.86548   3.64005   7.02613   1.88337   0.00112   9.996E-01   3.318E-03  -3.210E-03
1030  8.52107355   0.686  -0.86547   3.64005   7.02612   1.88337   0.00111   9.996E-01   3.313E-03  -3.201E-03
1031  8.52168251   0.686  -0.86547   3.64005   7.02612   1.88336   0.00110   9.996E-01   3.308E-03  -3.192E-03
1032  8.52229061   0.686  -0.86546   3.64005   7.02611   1.88336   0.00110   9.996E-01   3.302E-03  -3.183E-03
1033  8.52289787   0.686  -0.86546   3.64005   7.02610   1.88336   0.00109   9.996E-01   3.297E-03  -3.174E-03
1034  8.52350427   0.686  -0.86545   3.64005   7.02609   1.88336   0.00108   9.996E-01   3.292E-03  -3.165E-03
1035  8.52410983   0.686  -0.86545   3.64005   7.02608   1.88336   0.00107   9.996E-01   3.287E-03  -3.157E-03
1036  8.52471455   0.686  -0.86544   3.64004   7.02608   1.88336   0.00106   9.996E-01   3.282E-03  -3.148E-03
1037  8.52531843   0.686  -0.86544   3.64004   7.02607   1.88336   0.00105   9.996E-01   3.277E-03  -3.139E-03
1038  8.52592147   0.686  -0.86543   3.64004   7.02606   1.88336   0.00104   9.995E-01   3.272E-03  -3.130E-03
1039  8.52652367   0.686  -0.86543   3.64004   7.02605   1.88336   0.00103   9.995E-01   3.267E-03  -3.121E-03
1040  8.52712504   0.686  -0.86542   3.64004   7.02604   1.88336   0.00102   9.995E-01   3.261E-03  -3.112E-03
1041  8.52772558   0.686  -0.86542   3.64004   7.02603   1.88336   0.00101   9.995E-01   3.256E-03  -3.103E-03
1042  8.52832529   0.686  -0.86541   3.64004   7.02603   1.88336   0.00100   9.995E-01   3.251E-03  -3.095E-03
1043  8.52892417   0.686  -0.86541   3.64004   7.02602   1.88336   0.00100   9.995E-01   3.246E-03  -3.086E-03
1044  8.52952222   0.686  -0.86540   3.64004   7.02601   1.88336   0.00099   9.995E-01   3.241E-03  -3.077E-03
1045  8.53011946   0.685  -0.86540   3.64003   7.02600   1.88336   0.00098   9.995E-01   3.236E-03  -3.068E-03
1046  8.53071587   0.685  -0.86539   3.64003   7.02599   1.88336   0.00097   9.995E-01   3.231E-03  -3.059E-03
1047  8.53131147   0.685  -0.86539   3.64003   7.02599   1.88336   0.00096   9.995E-01   3.226E-03  -3.050E-03
1048  8.53190625   0.685  -0.86538   3.64003   7.02598   1.88336   0.00095   9.994E-01   3.220E-03  -3.041E-03
1049  8.53250021   0.685  -0.86538   3.64003   7.02597   1.88336   0.00094   9.994E-01   3.215E-03  -3.032E-03
1050  8.53309337   0.685  -0.86538   3.64003   7.02596   1.88336   0.00093   9.994E-01   3.210E-03  -3.024E-03
1051  8.53368572   0.685  -0.86537   3.64003   7.02595   1.88336   0.00092   9.994E-01   3.205E-03  -3.015E-03
1052  8.53427725   0.685  -0.86537   3.64003   7.02595   1.88336   0.00091   9.994E-01   3.200E-03  -3.006E-03
1053  8.53486799   0.685  -0.86536   3.64002   7.02594   1.88336   0.00090   9.994E-01   3.195E-03  -2.997E-03
1054  8.53545792   0.685  -0.86536   3.64002   7.02593   1.88336   0.00090   9.994E-01   3.190E-03  -2.988E-03
1055  8.53604705   0.685  -0.86535   3.64002   7.02592   1.88335   0.00089   9.994E-01   3.185E-03  -2.979E-03
1056  8.53663539   0.685  -0.86535   3.64002   7.02591   1.88335   0.00088   9.994E-01   3.179E-03  -2.970E-03
1057  8.53722293   0.685  -0.86534   3.64002   7.02591   1.88335   0.00087   9.993E-01   3.174E-03  -2.962E-03
1058  8.53780967   0.685  -0.86534   3.64002   7.02590   1.88335   0.00086   9.993E-01   3.169E-03  -2.953E-03
1059  8.53839562   0.685  -0.86533   3.64002   7.02589   1.88335   0.00085   9.993E-01   3.164E-03  -2.944E-03
1060  8.53898079   0.685  -0.86533   3.64002   7.02588   1.88335   0.00084   9.993E-01   3.159E-03  -2.935E-03
1061  8.53956516   0.685  -0.86532   3.64002   7.02587   1.88335   0.00083   9.993E-01   3.154E-03  -2.926E-03
1062  8.54014875   0.685  -0.86532   3.64001   7.02586   1.88335   0.00082   9.993E-01   3.149E-03  -2.917E-03
1063  8.54073156   0.685  -0.86531   3.64001   7.02586   1.88335   0.00081   9.993E-01   3.144E-03  -2.908E-03
1064  8.54131359   0.685  -0.86531   3.64001   7.02585   1.88335   0.00080   9.993E-01   3.138E-03  -2.899E-03
1065  8.54189483   0.685  -0.86530   3.64001   7.02584   1.88335   0.00080   9.993E-01   3.133E-03  -2.891E-03
1066  8.54247531   0.685  -0.86530   3.64001   7.02583   1.88335   0.00079   9.993E-01   3.128E-03  -2.882E-03
1067  8.54305500   0.685  -0.86529   3.64001   7.02582   1.88335   0.00078   9.992E-01   3.123E-03  -2.873E-03
1068  8.54363392   0.685  -0.86529   3.64001   7.02582   1.88335   0.00077   9.992E-01   3.118E-03  -2.864E-03
1069  8.54421208   0.685  -0.86528   3.64001   7.02581   1.88335   0.00076   9.992E-01   3.113E-03  -2.855E-03
1070  8.54478946   0.685  -0.86528   3.64000   7.02580   1.88335   0.00075   9.992E-01   3.108E-03  -2.846E-03
1071  8.54536608   0.685  -0.86528   3.64000   7.02579   1.88335   0.00074   9.992E-01   3.103E-03  -2.837E-03
1072  8.54594193   0.685  -0.86527   3.64000   7.02578   1.88335   0.00073   9.992E-01   3.097E-03  -2.828E-03
1073  8.54651702   0.685  -0.86527   3.64000   7.02578   1.88335   0.00072   9.992E-01   3.092E-03  -2.820E-03
1074  8.54709135   0.685  -0.86526   3.64000   7.02577   1.88335   0.00071   9.992E-01   3.087E-03  -2.811E-03
1075  8.54766492   0.685  -0.86526   3.64000   7.02576   1.88335   0.00071   9.992E-01   3.082E-03  -2.802E-03
1076  8.54823773   0.685  -0.86525   3.64000   7.02575   1.88335   0.00070   9.992E-01   3.077E-03  -2.793E-03
1077  8.54880979   0.685  -0.86525   3.64000   7.02574   1.88335   0.00069   9.991E-01   3.072E-03  -2.784E-03
1078  8.54938110   0.685  -0.86524   3.64000   7.02574   1.88335   0.00068   9.991E-01   3.067E-03  -2.775E-03
1079  8.54995166   0.685  -0.86524   3.63999   7.02573   1.88334   0.00067   9.991E-01   3.062E-03  -2.766E-03
1080  8.55052147   0.685  -0.86523   3.63999   7.02572   1.88334   0.00066   9.991E-01   3.056E-03  -2.758E-03
1081  8.55109053   0.685  -0.86523   3.63999   7.02571   1.88334   0.00065   9.991E-01   3.051E-03  -2.749E-03
1082  8.55165885   0.685  -0.86522   3.63999   7.02570   1.88334   0.00064   9.991E-01   3.046E-03  -2.740E-03
1083  8.55222642   0.685  -0.86522   3.63999   7.02569   1.88334   0.00063   9.991E-01   3.041E-03  -2.731E-03
1084  8.55279325   0.685  -0.86521   3.63999   7.02569   1.88334   0.00062   9.991E-01   3.036E-03  -2.722E-03
1085  8.55335935   0.685  -0.86521   3.63999   7.02568   1.88334   0.00061   9.991E-01   3.031E-03  -2.713E-03
1086  8.55392470   0.685  -0.86520   3.63999   7.02567   1.88334   0.00061   9.991E-01   3.026E-03  -2.704E-03
1087  8.55448933   0.685  -0.86520   3.63998   7.02566   1.88334   0.00060   9.990E-01   3.021E-03  -2.695E-03
1088  8.55505322   0.685  -0.86519   3.63998   7.02565   1.88334   0.00059   9.990E-01   3.015E-03  -2.687E-03
1089  8.55561638   0.685  -0.86519   3.63998   7.02565   1.88334   0.00058   9.990E-01   3.010E-03  -2.678E-03
1090  8.55617880   0.685  -0.86518   3.63998   7.02564   1.88334   0.00057   9.990E-01   3.005E-03  -2.669E-03
1091  8.55674051   0.685  -0.86518   3.63998   7.02563   1.88334   0.00056   9.990E-01   3.000E-03  -2.660E-03
1092  8.80666649   0.678  -0.86251   3.63975   7.02402   1.88467   0.00000   9.983E-01   3.000E-03  -1.122E-03
1093  8.96429332   0.672  -0.86003   3.63973   7.02365   1.88674   0.00000   9.980E-01   2.878E-03  -6.012E-04
1094  9.07969686   0.665  -0.85748   3.63984   7.02382   1.88976   0.00000   9.980E-01   2.000E-03  -2.847E-04
1095  9.17078362   0.658  -0.85490   3.64003   7.02425   1.89322   0.00000   9.980E-01   2.000E-03  -1.082E-04
1096  9.24603886   0.652  -0.85228   3.64027   7.02486   1.89696   0.00000   9.980E-01   2.000E-03  -1.799E-06
1097  9.31015948   0.645  -0.84966   3.64054   7.02556   1.90087   0.00000   9.980E-01   2.000E-03   6.715E-05
1098  9.36601966   0.638  -0.84705   3.64082   7.02633   1.90487   0.00000   9.980E-01   2.000E-03   1.157E-04
1099  9.41550687   0.632  -0.84444   3.64110   7.02715   1.90896   0.00000   9.980E-01   2.000E-03   1.523E-04
1100  9.45992750   0.625  -0.84183   3.64141   7.02801   1.91309   0.00000   9.980E-01   2.000E-03   1.817E-04
1101  9.50022333   0.618  -0.83923   3.64171   7.02889   1.91725   0.00000   9.980E-01   2.000E-03   2.054E-04
1102  9.53709571   0.612  -0.83663   3.64202   7.02979   1.92144   0.00000   9.980E-01   2.000E-03   2.263E-04
1103  9.57108108   0.605  -0.83403   3.64233   7.03071   1.92563   0.00000   9.980E-01   2.000E-03   2.447E-04
1104  9.60259889   0.598  -0.83143   3.64265   7.03166   1.93009   0.00000   9.980E-01   2.000E-03   2.604E-04
1105  9.63198332   0.592  -0.82883   3.64298   7.03267   1.93504   0.00000   9.980E-01   2.000E-03   2.707E-04
1106  9.65950496   0.585  -0.82623   3.64330   7.03373   1.94004   0.00000   9.980E-01   2.000E-03   2.791E-04
1107  9.68538599   0.579  -0.82361   3.64362   7.03483   1.94503   0.00000   9.980E-01   2.000E-03   2.867E-04
1108  9.70981104   0.573  -0.82098   3.64394   7.03595   1.95002   0.00000   9.980E-01   2.000E-03   2.927E-04
1109  9.73293524   0.566  -0.81834   3.64427   7.03711   1.95502   0.00000   9.980E-01   2.000E-03   2.998E-04
1110  9.75489018   0.560  -0.81567   3.64459   7.03828   1.96002   0.00000   9.980E-01   2.000E-03   3.068E-04
1111  9.77578844   0.553  -0.81299   3.64491   7.03947   1.96504   0.00000   9.980E-01   2.000E-03   3.158E-04
1112  9.79572707   0.547  -0.81027   3.64524   7.04068   1.97006   0.00000   9.980E-01   2.000E-03   3.235E-04
1113  9.81479035   0.541  -0.80755   3.64558   7.04189   1.97510   0.00000   9.980E-01   2.000E-03   3.319E-04
1114  9.83305192   0.534  -0.80479   3.64591   7.04312   1.98015   0.00000   9.980E-01   2.000E-03   3.404E-04
1115  9.85057649   0.528  -0.80202   3.64624   7.04436   1.98523   0.00000   9.980E-01   2.000E-03   3.488E-04
1116  9.86742126   0.521  -0.79921   3.64659   7.04561   1.99033   0.00000   9.980E-01   2.000E-03   3.589E-04
1117  9.88363701   0.515  -0.79637   3.64693   7.04687   1.99546   0.00000   9.980E-01   2.000E-03   3.709E-04
1118  9.89926901   0.509  -0.79350   3.64729   7.04813   2.00062   0.00000   9.980E-01   2.000E-03   3.848E-04
1119  9.91435786   0.502  -0.79060   3.64764   7.04941   2.00582   0.00000   9.980E-01   2.000E-03   3.977E-04
1120  9.92894002   0.496  -0.78769   3.64799   7.05071   2.01105   0.00000   9.980E-01   2.000E-03   4.107E-04
1121  9.94304842   0.489  -0.78474   3.64836   7.05200   2.01631   0.00000   9.980E-01   2.000E-03   4.229E-04
1122  9.95671289   0.483  -0.78177   3.64872   7.05330   2.02161   0.00000   9.980E-01   2.000E-03   4.353E-04
1123  9.96996050   0.476  -0.77877   3.64909   7.05461   2.02695   0.00000   9.980E-01   2.000E-03   4.506E-04
1124  9.98281595   0.470  -0.77575   3.64946   7.05594   2.03231   0.00000   9.980E-01   1.000E-03   4.622E-04
1125  9.99530178   0.463  -0.77269   3.64983   7.05726   2.03772   0.00000   9.980E-01   1.000E-03   4.778E-04
1126 10.00743865   0.457  -0.76962   3.65022   7.05859   2.04316   0.00000   9.980E-01   1.000E-03   4.906E-04
1127 10.01924555   0.450  -0.76652   3.65060   7.05993   2.04864   0.00000   9.980E-01   1.000E-03   5.055E-04
1128 10.03073993   0.444  -0.76339   3.65098   7.06127   2.05416   0.00000   9.980E-01   1.000E-03   5.188E-04
1129 10.04193793   0.437  -0.76024   3.65137   7.06263   2.05971   0.00000   9.980E-01   1.000E-03   5.339E-04
1130 10.05285443   0.431  -0.75706   3.65177   7.06399   2.06530   0.00000   9.980E-01   1.000E-03   5.471E-04
1131 10.06350325   0.424  -0.75385   3.65217   7.06535   2.07093   0.00000   9.980E-01   1.000E-03   5.604E-04
1132 10.07389720   0.418  -0.75062   3.65256   7.06673   2.07660   0.00000   9.980E-01   1.000E-03   5.761E-04
1133 10.08404820   0.411  -0.74736   3.65296   7.06812   2.08232   0.00000   9.980E-01   1.000E-03   5.901E-04
1134 10.09396734   0.405  -0.74408   3.65337   7.06951   2.08808   0.00000   9.980E-01   1.000E-03   6.040E-04
1135 10.10366498   0.398  -0.74076   3.65378   7.07092   2.09423   0.00000   9.980E-01   1.000E-03   6.180E-04
1136 10.11315079   0.392  -0.73742   3.65419   7.07239   2.10125   0.00000   9.980E-01   1.000E-03   6.283E-04
1137 10.12243384   0.385  -0.73407   3.65460   7.07391   2.10833   0.00000   9.980E-01   1.000E-03   6.403E-04
1138 10.13152261   0.378  -0.73068   3.65502   7.07546   2.11546   0.00000   9.980E-01   1.000E-03   6.528E-04
1139 10.14042507   0.372  -0.72726   3.65543   7.07704   2.12264   0.00000   9.980E-01   2.000E-03   6.663E-04
1140 10.14914869   0.365  -0.72381   3.65585   7.07865   2.12986   0.00000   9.980E-01   2.000E-03   6.774E-04
1141 10.15770053   0.358  -0.72033   3.65627   7.08030   2.13713   0.00000   9.980E-01   2.000E-03   6.931E-04
1142 10.16608722   0.352  -0.71682   3.65669   7.08197   2.14442   0.00000   9.980E-01   2.000E-03   7.043E-04
1143 10.17431502   0.345  -0.71328   3.65711   7.08366   2.15175   0.00000   9.980E-01   2.000E-03   7.167E-04
1144 10.18238983   0.338  -0.70971   3.65753   7.08538   2.15913   0.00000   9.980E-01   2.000E-03   7.301E-04
1145 10.19031725   0.331  -0.70610   3.65796   7.08713   2.16658   0.00000   9.980E-01   2.000E-03   7.437E-04
1146 10.19810255   0.325  -0.70245   3.65838   7.08889   2.17404   0.00000   9.980E-01   2.000E-03   7.583E-04
1147 10.20575075   0.318  -0.69878   3.65882   7.09067   2.18158   0.00000   9.980E-01   2.000E-03   7.705E-04
1148 10.21326658   0.311  -0.69506   3.65925   7.09248   2.18910   0.00000   9.980E-01   2.000E-03   7.861E-04
1149 10.22065456   0.304  -0.69131   3.65969   7.09430   2.19666   0.00000   9.980E-01   2.000E-03   8.011E-04
1150 10.22791895   0.298  -0.68752   3.66013   7.09615   2.20427   0.00000   9.980E-01   2.000E-03   8.178E-04
1151 10.23506383   0.291  -0.68367   3.66058   7.09801   2.21188   0.00000   9.980E-01   2.000E-03   8.325E-04
1152 10.24209306   0.285  -0.67979   3.66102   7.09989   2.21958   0.00000   9.980E-01   2.000E-03   8.475E-04
1153 10.24901034   0.278  -0.67587   3.66147   7.10179   2.22728   0.00000   9.970E-01   2.000E-03   8.630E-04
1154 10.25581916   0.272  -0.67191   3.66193   7.10371   2.23502   0.00000   9.970E-01   2.000E-03   8.780E-04
1155 10.26252288   0.265  -0.66790   3.66239   7.10564   2.24281   0.00000   9.970E-01   2.000E-03   8.943E-04
1156 10.26912469   0.259  -0.66384   3.66286   7.10760   2.25058   0.00000   9.970E-01   2.000E-03   9.118E-04
1157 10.27562765   0.253  -0.65975   3.66332   7.10956   2.25840   0.00000   9.970E-01   2.000E-03   9.264E-04
1158 10.28203467   0.246  -0.65560   3.66380   7.11154   2.26625   0.00000   9.970E-01   2.000E-03   9.429E-04
1159 10.28834854   0.240  -0.65141   3.66429   7.11356   2.27415   0.00000   9.970E-01   2.000E-03   9.616E-04
1160 10.29457194   0.234  -0.64716   3.66477   7.11557   2.28211   0.00000   9.970E-01   2.000E-03   9.777E-04
1161 10.30070741   0.228  -0.64287   3.66526   7.11761   2.29011   0.00000   9.970E-01   2.000E-03   9.973E-04
1162 10.30675741   0.222  -0.63853   3.66576   7.11966   2.29818   0.00000   9.970E-01   2.000E-03   1.013E-03
1163 10.31272428   0.216  -0.63414   3.66626   7.12174   2.30626   0.00000   9.970E-01   2.000E-03   1.034E-03
1164 10.31861029   0.211  -0.62969   3.66677   7.12383   2.31441   0.00000   9.970E-01   2.000E-03   1.047E-03
1165 10.32441758   0.205  -0.62519   3.66728   7.12593   2.32263   0.00000   9.970E-01   2.000E-03   1.069E-03
1166 10.33014825   0.199  -0.62064   3.66780   7.12806   2.33116   0.00000   9.970E-01   2.000E-03   1.082E-03
1167 10.33580428   0.193  -0.61603   3.66832   7.13020   2.34112   0.00000   9.970E-01   2.000E-03   1.105E-03
1168 10.34138760   0.188  -0.61139   3.66885   7.13244   2.35113   0.00000   9.960E-01   2.000E-03   1.120E-03
1169 10.34690005   0.182  -0.60667   3.66937   7.13478   2.36127   0.00000   9.960E-01   3.000E-03   1.132E-03
1170 10.35234340   0.177  -0.60191   3.66990   7.13718   2.37152   0.00000   9.960E-01   3.000E-03   1.150E-03
1171 10.35771938   0.171  -0.59709   3.67042   7.13961   2.38191   0.00000   9.960E-01   3.000E-03   1.170E-03
1172 10.36302961   0.166  -0.59221   3.67096   7.14211   2.39240   0.00000   9.960E-01   3.000E-03   1.190E-03
1173 10.36827571   0.160  -0.58727   3.67149   7.14464   2.40303   0.00000   9.960E-01   3.000E-03   1.215E-03
1174 10.37345918   0.155  -0.58227   3.67202   7.14722   2.41381   0.00000   9.957E-01   3.000E-03   1.233E-03
1175 10.37858152   0.149  -0.57720   3.67255   7.14985   2.42473   0.00000   9.950E-01   3.772E-03   1.258E-03
1176 10.38364415   0.144  -0.57207   3.67308   7.15252   2.43590   0.00000   9.950E-01   4.000E-03   1.266E-03
1177 10.38864844   0.138  -0.56687   3.67361   7.15522   2.44722   0.00000   9.950E-01   4.000E-03   1.290E-03
1178 10.39359572   0.133  -0.56160   3.67415   7.15797   2.45869   0.00000   9.940E-01   4.000E-03   1.315E-03
1179 10.39848728   0.127  -0.55624   3.67468   7.16073   2.47032   0.00000   9.940E-01   5.000E-03   1.334E-03
1180 10.40332436   0.122  -0.55081   3.67521   7.16354   2.48212   0.00000   9.940E-01   5.000E-03   1.360E-03
1181 10.40810816   0.117  -0.54527   3.67574   7.16635   2.49416   0.00000   9.930E-01   5.647E-03   1.393E-03
1182 10.41283984   0.112  -0.53966   3.67627   7.16920   2.50640   0.00000   9.926E-01   6.000E-03   1.404E-03
1183 10.41752052   0.107  -0.53394   3.67682   7.17207   2.51887   0.00000   9.920E-01   7.000E-03   1.446E-03
1184 10.42215129   0.102  -0.52809   3.67739   7.17498   2.53160   0.00000   9.910E-01   7.000E-03   1.470E-03
1185 10.42673320   0.097  -0.52218   3.67792   7.17789   2.54454   0.00000   9.909E-01   8.000E-03   1.491E-03
1186 10.43126728   0.092  -0.51615   3.67847   7.18084   2.55774   0.00000   9.899E-01   9.000E-03   1.530E-03
1187 10.43575451   0.087  -0.51001   3.67901   7.18382   2.57119   0.00000   9.888E-01   1.000E-02   1.552E-03
1188 10.44019585   0.083  -0.50374   3.67955   7.18685   2.58492   0.00000   9.877E-01   1.100E-02   1.583E-03
1189 10.44459223   0.078  -0.49735   3.68010   7.18992   2.59897   0.00000   9.860E-01   1.246E-02   1.615E-03
1190 10.44894455   0.074  -0.49084   3.68065   7.19306   2.61330   0.00000   9.843E-01   1.370E-02   1.640E-03
1191 10.45325370   0.069  -0.48419   3.68119   7.19627   2.62791   0.00000   9.830E-01   1.600E-02   1.680E-03
1192 10.45438190   0.068  -0.48242   3.68134   7.19712   2.63181   0.00000   9.821E-01   1.600E-02   1.689E-03
1193 10.45550718   0.067  -0.48064   3.68149   7.19799   2.63573   0.00000   9.820E-01   1.677E-02   1.690E-03
1194 10.45662956   0.066  -0.47884   3.68164   7.19887   2.63967   0.00000   9.813E-01   1.700E-02   1.703E-03
1195 10.45774904   0.065  -0.47703   3.68178   7.19976   2.64362   0.00000   9.804E-01   1.756E-02   1.716E-03
1196 10.45886564   0.063  -0.47522   3.68192   7.20065   2.64761   0.00000   9.800E-01   1.846E-02   1.725E-03
1197 10.45997938   0.062  -0.47340   3.68207   7.20155   2.65162   0.00000   9.796E-01   1.900E-02   1.730E-03
1198 10.46109026   0.061  -0.47157   3.68221   7.20246   2.65563   0.00000   9.787E-01   1.927E-02   1.733E-03
1199 10.46219832   0.060  -0.46973   3.68236   7.20338   2.65967   0.00000   9.778E-01   2.019E-02   1.742E-03
1200 10.46330355   0.059  -0.46788   3.68251   7.20431   2.66371   0.00000   9.770E-01   2.111E-02   1.751E-03
1201 10.46440598   0.058  -0.46602   3.68266   7.20525   2.66777   0.00000   9.770E-01   2.200E-02   1.760E-03
1202 10.46550562   0.057  -0.46414   3.68280   7.20620   2.67186   0.00000   9.760E-01   2.200E-02   1.770E-03
1203 10.46660248   0.055  -0.46227   3.68294   7.20717   2.67595   0.00000   9.751E-01   2.290E-02   1.779E-03
1204 10.46769658   0.054  -0.46039   3.68309   7.20815   2.68006   0.00000   9.742E-01   2.384E-02   1.780E-03
1205 10.46878793   0.053  -0.45849   3.68323   7.20914   2.68420   0.00000   9.732E-01   2.478E-02   1.788E-03
1206 10.46987654   0.052  -0.45659   3.68338   7.21014   2.68835   0.00000   9.723E-01   2.573E-02   1.797E-03
1207 10.47096243   0.051  -0.45468   3.68352   7.21116   2.69251   0.00000   9.713E-01   2.668E-02   1.807E-03
1208 10.47204561   0.050  -0.45275   3.68367   7.21219   2.69669   0.00000   9.704E-01   2.764E-02   1.816E-03
1209 10.47312610   0.049  -0.45082   3.68381   7.21324   2.70088   0.00000   9.694E-01   2.860E-02   1.820E-03
1210 10.47420390   0.048  -0.44888   3.68395   7.21430   2.70507   0.00000   9.684E-01   2.956E-02   1.820E-03
1211 10.47527904   0.046  -0.44694   3.68409   7.21539   2.70925   0.00000   9.675E-01   3.053E-02   1.820E-03
1212 10.47635152   0.045  -0.44498   3.68424   7.21649   2.71345   0.00000   9.665E-01   3.200E-02   1.830E-03
1213 10.47742136   0.044  -0.44301   3.68438   7.21761   2.71766   0.00000   9.650E-01   3.348E-02   1.845E-03
1214 10.47848858   0.043  -0.44104   3.68451   7.21875   2.72187   0.00000   9.635E-01   3.446E-02   1.850E-03
1215 10.47955317   0.042  -0.43907   3.68465   7.21991   2.72608   0.00000   9.626E-01   3.590E-02   1.850E-03
1216 10.48061516   0.041  -0.43708   3.68479   7.22109   2.73030   0.00000   9.611E-01   3.744E-02   1.854E-03
1217 10.48167456   0.040  -0.43509   3.68493   7.22229   2.73453   0.00000   9.596E-01   3.843E-02   1.860E-03
1218 10.48273139   0.038  -0.43310   3.68507   7.22352   2.73875   0.00000   9.582E-01   3.985E-02   1.860E-03
1219 10.48378565   0.037  -0.43109   3.68520   7.22476   2.74298   0.00000   9.566E-01   4.185E-02   1.864E-03
1220 10.48483735   0.036  -0.42908   3.68534   7.22603   2.74720   0.00000   9.552E-01   4.342E-02   1.874E-03
1221 10.48588651   0.035  -0.42703   3.68550   7.22732   2.75141   0.00000   9.531E-01   4.486E-02   1.884E-03
1222 10.48693315   0.034  -0.42496   3.68566   7.22865   2.75561   0.00000   9.511E-01   4.691E-02   1.917E-03
1223 10.48797727   0.032  -0.42293   3.68579   7.23000   2.75982   0.00000   9.490E-01   4.898E-02   1.916E-03
1224 10.48901889   0.031  -0.42091   3.68592   7.23134   2.76401   0.00000   9.470E-01   5.101E-02   1.870E-03
1225 10.49005801   0.030  -0.41887   3.68605   7.23272   2.76820   0.00000   9.450E-01   5.303E-02   1.865E-03
1226 10.49109465   0.029  -0.41683   3.68618   7.23411   2.77240   0.00000   9.429E-01   5.507E-02   1.875E-03
1227 10.49212883   0.027  -0.41479   3.68631   7.23552   2.77662   0.00000   9.409E-01   5.711E-02   1.880E-03
1228 10.49316054   0.026  -0.41274   3.68643   7.23694   2.78084   0.00000   9.383E-01   5.973E-02   1.880E-03
1229 10.49418982   0.025  -0.41068   3.68656   7.23837   2.78509   0.00000   9.358E-01   6.220E-02   1.880E-03
1230 10.49521665   0.024  -0.40862   3.68668   7.23979   2.78934   0.00000   9.337E-01   6.489E-02   1.880E-03
1231 10.49624107   0.022  -0.40654   3.68680   7.24124   2.79362   0.00000   9.310E-01   6.737E-02   1.928E-03
1232 10.49726308   0.021  -0.40442   3.68694   7.24271   2.79796   0.00000   9.276E-01   7.038E-02   2.053E-03
1233 10.49828268   0.020  -0.40229   3.68707   7.24417   2.80233   0.00000   9.250E-01   7.295E-02   2.187E-03
1234 10.49929990   0.018  -0.40015   3.68720   7.24562   2.80675   0.00000   9.215E-01   7.576E-02   2.330E-03
1235 10.50031474   0.017  -0.39800   3.68733   7.24703   2.81127   0.00000   9.188E-01   7.924E-02   2.495E-03
1236 10.50132722   0.016  -0.39582   3.68745   7.24838   2.81593   0.00000   9.148E-01   8.217E-02   2.679E-03
1237 10.50233734   0.015  -0.39364   3.68758   7.24965   2.82073   0.00000   9.117E-01   8.531E-02   2.852E-03
1238 10.50334512   0.013  -0.39144   3.68770   7.25086   2.82571   0.00000   9.083E-01   8.866E-02   3.030E-03
1239 10.50435056   0.012  -0.38922   3.68783   7.25195   2.83085   0.00000   9.048E-01   9.211E-02   3.201E-03
1240 10.50535368   0.011  -0.38699   3.68794   7.25297   2.83616   0.00000   9.020E-01   9.501E-02   3.390E-03
1241 10.50635449   0.010  -0.38470   3.68807   7.25389   2.84167   0.00000   8.980E-01   9.800E-02   3.570E-03
1242 10.50668627   0.010  -0.38394   3.68811   7.25417   2.84354   0.00000   8.973E-01   9.938E-02   3.625E-03
1243 10.50701780   0.009  -0.38318   3.68815   7.25445   2.84544   0.00000   8.962E-01   1.004E-01   3.685E-03
1244 10.50734908   0.009  -0.38241   3.68820   7.25471   2.84735   0.00000   8.949E-01   1.012E-01   3.747E-03
1245 10.50768011   0.009  -0.38164   3.68824   7.25497   2.84930   0.00000   8.942E-01   1.026E-01   3.797E-03
1246 10.50801088   0.008  -0.38087   3.68828   7.25521   2.85126   0.00000   8.929E-01   1.035E-01   3.848E-03
1247 10.50834140   0.008  -0.38009   3.68832   7.25545   2.85324   0.00000   8.917E-01   1.043E-01   3.903E-03
1248 10.50867167   0.008  -0.37932   3.68836   7.25568   2.85523   0.00000   8.909E-01   1.051E-01   3.963E-03
1249 10.50900169   0.007  -0.37854   3.68840   7.25590   2.85725   0.00000   8.894E-01   1.066E-01   4.016E-03
1250 10.50933146   0.007  -0.37775   3.68844   7.25611   2.85929   0.00000   8.884E-01   1.076E-01   4.071E-03
1251 10.50966097   0.007  -0.37697   3.68848   7.25631   2.86135   0.00000   8.873E-01   1.084E-01   4.126E-03
1252 10.50999024   0.007  -0.37618   3.68852   7.25651   2.86343   0.00000   8.858E-01   1.093E-01   4.181E-03
1253 10.51031926   0.006  -0.37539   3.68856   7.25669   2.86553   0.00000   8.850E-01   1.109E-01   4.238E-03
1254 10.51064803   0.006  -0.37452   3.68863   7.25687   2.86764   0.00000   8.842E-01   1.118E-01   4.311E-03
1255 10.51097655   0.006  -0.37371   3.68868   7.25705   2.86976   0.00000   8.834E-01   1.126E-01   4.355E-03
1256 10.51130482   0.006  -0.37291   3.68872   7.25723   2.87191   0.00000   8.821E-01   1.134E-01   4.392E-03
1257 10.51163285   0.005  -0.37211   3.68876   7.25740   2.87408   0.00000   8.807E-01   1.146E-01   4.435E-03
1258 10.51196063   0.005  -0.37131   3.68880   7.25756   2.87627   0.00000   8.798E-01   1.162E-01   4.478E-03
1259 10.51228816   0.005  -0.37049   3.68884   7.25770   2.87847   0.00000   8.790E-01   1.170E-01   4.521E-03
1260 10.51261544   0.005  -0.36968   3.68888   7.25784   2.88069   0.00000   8.772E-01   1.179E-01   4.565E-03
1261 10.51294247   0.005  -0.36886   3.68892   7.25798   2.88292   0.00000   8.762E-01   1.188E-01   4.609E-03
1262 10.51326927   0.004  -0.36805   3.68896   7.25812   2.88516   0.00000   8.753E-01   1.197E-01   4.660E-03
1263 10.51359581   0.004  -0.36723   3.68899   7.25825   2.88742   0.00000   8.744E-01   1.206E-01   4.709E-03
1264 10.51392211   0.004  -0.36641   3.68903   7.25838   2.88970   0.00000   8.735E-01   1.220E-01   4.760E-03
1265 10.51424816   0.004  -0.36558   3.68907   7.25850   2.89200   0.00000   8.722E-01   1.234E-01   4.815E-03
1266 10.51457397   0.004  -0.36475   3.68910   7.25862   2.89432   0.00000   8.706E-01   1.244E-01   4.868E-03
1267 10.51489954   0.003  -0.36391   3.68914   7.25873   2.89664   0.00000   8.697E-01   1.253E-01   4.915E-03
1268 10.51522486   0.003  -0.36309   3.68918   7.25884   2.89898   0.00000   8.688E-01   1.262E-01   4.962E-03
1269 10.51554994   0.003  -0.36225   3.68922   7.25895   2.90135   0.00000   8.678E-01   1.272E-01   5.008E-03
1270 10.51587477   0.003  -0.36141   3.68926   7.25906   2.90372   0.00000   8.668E-01   1.282E-01   5.047E-03
1271 10.51619937   0.003  -0.36056   3.68929   7.25916   2.90611   0.00000   8.658E-01   1.292E-01   5.088E-03
1272 10.51652372   0.003  -0.35972   3.68933   7.25926   2.90852   0.00000   8.648E-01   1.302E-01   5.136E-03
1273 10.51684782   0.003  -0.35887   3.68936   7.25935   2.91094   0.00000   8.637E-01   1.312E-01   5.175E-03
1274 10.51717169   0.002  -0.35802   3.68940   7.25945   2.91338   0.00000   8.618E-01   1.322E-01   5.207E-03
1275 10.51749531   0.002  -0.35717   3.68944   7.25954   2.91583   0.00000   8.608E-01   1.332E-01   5.249E-03
1276 10.51781870   0.002  -0.35631   3.68947   7.25963   2.91830   0.00000   8.598E-01   1.342E-01   5.301E-03
1277 10.51814184   0.002  -0.35546   3.68950   7.25972   2.92077   0.00000   8.587E-01   1.353E-01   5.353E-03
1278 10.51846474   0.002  -0.35459   3.68953   7.25980   2.92327   0.00000   8.577E-01   1.366E-01   5.409E-03
1279 10.51878741   0.002  -0.35373   3.68957   7.25989   2.92578   0.00000   8.566E-01   1.384E-01   5.469E-03
1280 10.51910983   0.002  -0.35286   3.68960   7.25998   2.92829   0.00000   8.556E-01   1.394E-01   5.527E-03
1281 10.51943202   0.002  -0.35199   3.68964   7.26006   2.93082   0.00000   8.545E-01   1.405E-01   5.581E-03
1282 10.51975396   0.002  -0.35111   3.68967   7.26014   2.93336   0.00000   8.534E-01   1.416E-01   5.631E-03
1283 10.52007567   0.002  -0.35024   3.68970   7.26022   2.93592   0.00000   8.523E-01   1.427E-01   5.679E-03
1284 10.52039714   0.001  -0.34936   3.68974   7.26030   2.93849   0.00000   8.512E-01   1.438E-01   5.732E-03
1285 10.52071837   0.001  -0.34848   3.68977   7.26038   2.94109   0.00000   8.500E-01   1.440E-01   5.779E-03
1286 10.52103936   0.001  -0.34760   3.68980   7.26046   2.94369   0.00000   8.489E-01   1.451E-01   5.833E-03
1287 10.52136012   0.001  -0.34671   3.68984   7.26054   2.94631   0.00000   8.477E-01   1.463E-01   5.871E-03
1288 10.52168064   0.001  -0.34582   3.68986   7.26061   2.94895   0.00000   8.466E-01   1.474E-01   5.922E-03
1289 10.52200092   0.001  -0.34493   3.68989   7.26069   2.95160   0.00000   8.454E-01   1.486E-01   5.987E-03
1290 10.52232097   0.001  -0.34404   3.68992   7.26077   2.95427   0.00000   8.442E-01   1.498E-01   6.050E-03
1291 10.52264078   0.001  -0.34314   3.68995   7.26084   2.95695   0.00000   8.430E-01   1.510E-01   6.100E-03
1292 10.52353421   0.001  -0.34064   3.69003   7.26103   2.96455   0.00000   8.399E-01   1.541E-01   5.450E-03
1293 10.52442580   0.001  -0.33811   3.69013   7.26122   2.97226   0.00000   8.371E-01   1.579E-01   4.776E-03
1294 10.52531557   0.001  -0.33554   3.69022   7.26139   2.98010   0.00000   8.348E-01   1.605E-01   4.171E-03
1295 10.52620351   0.000  -0.33291   3.69032   7.26156   2.98806   0.00000   8.324E-01   1.636E-01   3.614E-03
1296 10.52708965   0.000  -0.33033   3.69038   7.26171   2.99618   0.00000   8.298E-01   1.672E-01   3.139E-03
1297 10.52797398   0.000  -0.32774   3.69045   7.26184   3.00449   0.00000   8.273E-01   1.703E-01   2.716E-03
1298 10.52885651   0.000  -0.32513   3.69049   7.26197   3.01295   0.00000   8.250E-01   1.730E-01   2.330E-03
1299 10.52973726   0.000  -0.32245   3.69055   7.26222   3.02131   0.00000   8.210E-01   1.766E-01   2.366E-03
1300 10.53061622   0.000  -0.31976   3.69061   7.26250   3.02977   0.00000   8.177E-01   1.800E-01   2.407E-03
1301 10.53149341   0.000  -0.31707   3.69065   7.26271   3.03854   0.00000   8.140E-01   1.830E-01   2.360E-03
1302 10.53236882   0.000  -0.31434   3.69069   7.26304   3.04756   0.00000   8.103E-01   1.871E-01   2.327E-03
1303 10.53324248   0.000  -0.31159   3.69073   7.26343   3.05709   0.00000   8.068E-01   1.912E-01   2.304E-03
1304 10.53411438   0.000  -0.30876   3.69078   7.26371   3.06635   0.00000   8.027E-01   1.952E-01   2.327E-03
1305 10.53498454   0.000  -0.30583   3.69086   7.26406   3.07584   0.00000   7.984E-01   1.986E-01   2.433E-03
1306 10.53585296   0.000  -0.30298   3.69089   7.26440   3.08556   0.00000   7.950E-01   2.030E-01   2.342E-03
1307 10.53671964   0.000  -0.30008   3.69091   7.26470   3.09559   0.00000   7.907E-01   2.073E-01   2.330E-03
1308 10.53758460   0.000  -0.29714   3.69093   7.26502   3.10568   0.00000   7.864E-01   2.116E-01   2.348E-03
1309 10.53844783   0.000  -0.29419   3.69093   7.26534   3.11596   0.00000   7.820E-01   2.160E-01   2.333E-03
1310 10.53930936   0.000  -0.29122   3.69093   7.26579   3.12646   0.00000   7.775E-01   2.205E-01   2.320E-03
1311 10.54016918   0.000  -0.28819   3.69092   7.26618   3.13739   0.00000   7.730E-01   2.250E-01   2.303E-03
1312 10.54102730   0.000  -0.28510   3.69091   7.26655   3.14844   0.00000   7.685E-01   2.295E-01   2.318E-03
1313 10.54188373   0.000  -0.28193   3.69093   7.26700   3.15978   0.00000   7.638E-01   2.342E-01   2.358E-03
1314 10.54273847   0.000  -0.27876   3.69090   7.26743   3.17130   0.00000   7.590E-01   2.390E-01   2.331E-03
1315 10.54359154   0.000  -0.27554   3.69088   7.26789   3.18324   0.00000   7.537E-01   2.438E-01   2.334E-03
1316 10.54444293   0.000  -0.27230   3.69083   7.26833   3.19538   0.00000   7.484E-01   2.486E-01   2.300E-03
1317 10.54529265   0.000  -0.26905   3.69077   7.26885   3.20786   0.00000   7.435E-01   2.543E-01   2.195E-03
1318 10.54614072   0.000  -0.26572   3.69068   7.26938   3.22071   0.00000   7.386E-01   2.594E-01   2.238E-03
1319 10.54698713   0.000  -0.26230   3.69061   7.26993   3.23388   0.00000   7.326E-01   2.654E-01   2.262E-03
1320 10.54783190   0.000  -0.25882   3.69054   7.27052   3.24733   0.00000   7.265E-01   2.706E-01   2.314E-03
1321 10.54867503   0.000  -0.25530   3.69044   7.27119   3.26125   0.00000   7.212E-01   2.768E-01   2.286E-03
1322 10.54951652   0.000  -0.25173   3.69032   7.27185   3.27579   0.00000   7.148E-01   2.832E-01   2.266E-03
1323 10.55035639   0.000  -0.24822   3.69012   7.27253   3.29068   0.00000   7.085E-01   2.895E-01   2.211E-03
1324 10.55119463   0.000  -0.24457   3.68995   7.27328   3.30602   0.00000   7.023E-01   2.957E-01   2.178E-03
1325 10.55203126   0.000  -0.24081   3.68978   7.27401   3.32200   0.00000   6.948E-01   3.032E-01   2.260E-03
1326 10.55286629   0.000  -0.23702   3.68959   7.27480   3.33828   0.00000   6.873E-01   3.107E-01   2.203E-03
1327 10.55369971   0.000  -0.23315   3.68936   7.27564   3.35525   0.00000   6.796E-01   3.180E-01   2.204E-03
1328 10.55453153   0.000  -0.22927   3.68909   7.27646   3.37287   0.00000   6.720E-01   3.260E-01   2.051E-03
1329 10.55536176   0.000  -0.22526   3.68882   7.27741   3.39089   0.00000   6.635E-01   3.345E-01   2.145E-03
1330 10.55619041   0.000  -0.22122   3.68851   7.27837   3.40982   0.00000   6.550E-01   3.430E-01   2.040E-03
1331 10.55701748   0.000  -0.21708   3.68816   7.27939   3.42929   0.00000   6.453E-01   3.527E-01   2.019E-03
1332 10.55784298   0.000  -0.21280   3.68781   7.28050   3.44949   0.00000   6.347E-01   3.633E-01   2.107E-03
1333 10.55866691   0.000  -0.20845   3.68742   7.28168   3.47054   0.00000   6.250E-01   3.730E-01   1.998E-03
1334 10.55948929   0.000  -0.20416   3.68695   7.28294   3.49250   0.00000   6.142E-01   3.848E-01   1.758E-03
1335 10.56031010   0.000  -0.19958   3.68645   7.28431   3.51531   0.00000   6.019E-01   3.969E-01   1.943E-03
1336 10.56112937   0.000  -0.19490   3.68592   7.28575   3.53911   0.00000   5.889E-01   4.091E-01   1.939E-03
1337 10.56194710   0.000  -0.19020   3.68532   7.28731   3.56396   0.00000   5.759E-01   4.221E-01   1.696E-03
1338 10.56276329   0.000  -0.18534   3.68468   7.28906   3.58975   0.00000   5.616E-01   4.367E-01   1.743E-03
1339 10.56357795   0.000  -0.17999   3.68392   7.29168   3.61990   0.00000   5.494E-01   4.486E-01   1.673E-03
1340 10.56439108   0.000  -0.17367   3.68284   7.29454   3.66104   0.00000   5.351E-01   4.629E-01   1.675E-03
1341 10.56520270   0.974  -0.16715   3.68163   7.29675   3.70362   0.00000   5.200E-01   4.790E-01   1.270E-03
