 # M = 0.30 Mo, Y = 0.2880, Z = 2.00000E-02, alpha = 1.68, X_D = 4.0E-05
 # Solar Mixture: Asplund et al. (2005)         
 # ------------------------------------------------------------------------------------------------------------
 # NMD   LOG AGE    Xc      LOG L     LOG TE    LOG Tc   LOG RHOc    M-CC       L-PP       L-CNO       L-GRA
 #        (yr)              (Lo)        (K)       (K)   (gr/cm^3)    (Mo)        (L)         (L)         (L)
 # ------------------------------------------------------------------------------------------------------------
   1  5.15551790   0.692  -0.12467   3.53582   6.00516  -0.71039   0.00000   1.003E+00   0.000E+00  -3.450E-03
   2  5.41630344   0.692  -0.13371   3.53559   6.00901  -0.69881   0.00000   9.459E-01   0.000E+00   5.388E-02
   3  5.57810618   0.692  -0.14366   3.53531   6.01321  -0.68616   0.00000   9.402E-01   0.000E+00   5.957E-02
   4  5.69572042   0.692  -0.15291   3.53505   6.01712  -0.67441   0.00000   9.428E-01   0.000E+00   5.678E-02
   5  5.78817569   0.692  -0.16083   3.53485   6.02050  -0.66425   0.00000   9.469E-01   0.000E+00   5.290E-02
   6  5.86436153   0.692  -0.16855   3.53465   6.02380  -0.65433   0.00000   9.503E-01   0.000E+00   4.963E-02
   7  5.92915601   0.692  -0.17562   3.53447   6.02683  -0.64524   0.00000   9.515E-01   0.000E+00   4.844E-02
   8  5.98552670   0.692  -0.18269   3.53429   6.02985  -0.63615   0.00000   9.526E-01   0.000E+00   4.725E-02
   9  6.03541405   0.692  -0.18964   3.53412   6.03284  -0.62718   0.00000   9.525E-01   0.000E+00   4.735E-02
  10  6.08015674   0.692  -0.19653   3.53396   6.03581  -0.61825   0.00000   9.518E-01   0.000E+00   4.798E-02
  11  6.12071737   0.692  -0.20343   3.53379   6.03878  -0.60932   0.00000   9.511E-01   0.000E+00   4.862E-02
  12  6.15781133   0.692  -0.21064   3.53362   6.04190  -0.59995   0.00000   9.492E-01   0.000E+00   5.054E-02
  13  6.19198483   0.692  -0.21789   3.53345   6.04503  -0.59051   0.00000   9.471E-01   0.000E+00   5.264E-02
  14  6.22366435   0.692  -0.22515   3.53328   6.04817  -0.58108   0.00000   9.451E-01   0.000E+00   5.474E-02
  15  6.25318930   0.692  -0.23318   3.53311   6.05167  -0.57055   0.00000   9.411E-01   0.000E+00   5.858E-02
  16  6.28083416   0.692  -0.24124   3.53294   6.05518  -0.55999   0.00000   9.371E-01   0.000E+00   6.246E-02
  17  6.30682412   0.692  -0.24957   3.53276   6.05881  -0.54905   0.00000   9.326E-01   0.000E+00   6.695E-02
  18  6.33134617   0.692  -0.25891   3.53257   6.06291  -0.53673   0.00000   9.262E-01   0.000E+00   7.368E-02
  19  6.35455729   0.692  -0.26826   3.53238   6.06700  -0.52441   0.00000   9.197E-01   0.000E+00   8.040E-02
  20  6.37659057   0.692  -0.27894   3.53217   6.07171  -0.51025   0.00000   9.094E-01   0.000E+00   9.069E-02
  21  6.39755978   0.692  -0.29011   3.53196   6.07664  -0.49544   0.00000   8.978E-01   0.000E+00   1.023E-01
  22  6.41756300   0.692  -0.30272   3.53173   6.08223  -0.47863   0.00000   8.817E-01   0.000E+00   1.183E-01
  23  6.43668530   0.692  -0.31632   3.53149   6.08827  -0.46046   0.00000   8.628E-01   0.000E+00   1.372E-01
  24  6.45500103   0.692  -0.33234   3.53122   6.09542  -0.43890   0.00000   8.328E-01   0.000E+00   1.672E-01
  25  6.47257548   0.692  -0.35016   3.53093   6.10340  -0.41487   0.00000   7.942E-01   0.000E+00   2.058E-01
  26  6.48946632   0.692  -0.37092   3.53061   6.11272  -0.38682   0.00000   7.401E-01   0.000E+00   2.599E-01
  27  6.50572475   0.692  -0.39565   3.53025   6.12391  -0.35317   0.00000   6.592E-01   0.000E+00   3.408E-01
  28  6.52139643   0.692  -0.42497   3.52985   6.13720  -0.31315   0.00000   5.456E-01   0.000E+00   4.544E-01
  29  6.53652222   0.692  -0.45855   3.52943   6.15252  -0.26698   0.00000   4.018E-01   0.000E+00   5.982E-01
  30  6.55113889   0.692  -0.49596   3.52899   6.16970  -0.21531   0.00000   2.516E-01   0.000E+00   7.484E-01
  31  6.56527960   0.692  -0.53379   3.52857   6.18715  -0.16276   0.00000   1.550E-01   0.000E+00   8.443E-01
  32  6.57897437   0.692  -0.56858   3.52821   6.20320  -0.11433   0.00000   1.246E-01   0.000E+00   8.754E-01
  33  6.59225046   0.692  -0.60075   3.52790   6.21812  -0.06937   0.00000   9.323E-02   0.000E+00   9.068E-01
  34  6.60513272   0.692  -0.63044   3.52765   6.23196  -0.02767   0.00000   6.591E-02   0.000E+00   9.341E-01
  35  6.61764384   0.692  -0.65799   3.52743   6.24482   0.01114   0.00000   4.506E-02   0.000E+00   9.549E-01
  36  6.62980461   0.692  -0.68343   3.52724   6.25674   0.04715   0.00000   2.994E-02   0.000E+00   9.701E-01
  37  6.64163412   0.692  -0.70712   3.52709   6.26788   0.08079   0.00000   1.891E-02   0.000E+00   9.811E-01
  38  6.65314994   0.692  -0.72912   3.52698   6.27828   0.11220   0.00000   1.234E-02   0.000E+00   9.877E-01
  39  6.66436827   0.692  -0.74962   3.52687   6.28798   0.14151   0.00000   7.936E-03   0.000E+00   9.921E-01
  40  6.67530410   0.692  -0.76874   3.52679   6.29706   0.16893   0.00000   4.917E-03   0.000E+00   9.951E-01
  41  6.68597131   0.692  -0.78667   3.52673   6.30561   0.19480   0.00000   3.000E-03   0.000E+00   9.970E-01
  42  6.70018738   0.692  -0.80943   3.52668   6.31651   0.22777   0.00000   1.785E-03   0.000E+00   9.982E-01
  43  6.71395283   0.692  -0.83057   3.52663   6.32665   0.25844   0.00000   1.000E-03   0.000E+00   9.990E-01
  44  6.72729533   0.692  -0.85023   3.52662   6.33612   0.28708   0.00000   6.049E-04   0.000E+00   9.994E-01
  45  6.74024011   0.692  -0.86860   3.52661   6.34500   0.31395   0.00000   0.000E+00   0.000E+00   1.000E+00
  46  6.75281019   0.692  -0.88586   3.52662   6.35336   0.33925   0.00000   0.000E+00   0.000E+00   1.000E+00
  47  6.76502666   0.692  -0.90215   3.52664   6.36126   0.36321   0.00000   0.000E+00   0.000E+00   1.000E+00
  48  6.77690887   0.692  -0.91756   3.52666   6.36878   0.38596   0.00000   0.000E+00   0.000E+00   1.000E+00
  49  6.78847462   0.692  -0.93200   3.52668   6.37582   0.40730   0.00000   0.000E+00   0.000E+00   1.000E+00
  50  6.79974033   0.692  -0.94578   3.52672   6.38255   0.42772   0.00000   0.000E+00   0.000E+00   1.000E+00
  51  6.81072119   0.692  -0.95901   3.52675   6.38902   0.44734   0.00000   0.000E+00   0.000E+00   1.000E+00
  52  6.82143123   0.692  -0.97164   3.52679   6.39521   0.46610   0.00000   0.000E+00   0.000E+00   1.000E+00
  53  6.83188350   0.692  -0.98358   3.52684   6.40108   0.48390   0.00000   0.000E+00   0.000E+00   1.000E+00
  54  6.84209011   0.692  -0.99520   3.52688   6.40679   0.50123   0.00000   0.000E+00   0.000E+00   1.000E+00
  55  6.85206235   0.692  -1.00626   3.52693   6.41224   0.51774   0.00000   0.000E+00   0.000E+00   1.000E+00
  56  6.86181074   0.692  -1.01692   3.52697   6.41748   0.53367   0.00000   0.000E+00   0.000E+00   1.000E+00
  57  6.87134510   0.692  -1.02726   3.52702   6.42258   0.54914   0.00000   0.000E+00   0.000E+00   1.000E+00
  58  6.88067464   0.692  -1.03711   3.52706   6.42743   0.56389   0.00000   0.000E+00   0.000E+00   1.000E+00
  59  6.88980797   0.692  -1.04678   3.52711   6.43221   0.57838   0.00000   0.000E+00   0.000E+00   1.000E+00
  60  6.89875317   0.692  -1.05596   3.52716   6.43674   0.59215   0.00000   0.000E+00   0.000E+00   1.000E+00
  61  6.90751784   0.692  -1.06502   3.52721   6.44122   0.60575   0.00000   0.000E+00   0.000E+00   1.000E+00
  62  6.91610912   0.692  -1.07365   3.52725   6.44548   0.61871   0.00000   0.000E+00   0.000E+00   1.000E+00
  63  6.92453374   0.692  -1.08214   3.52729   6.44967   0.63145   0.00000   0.000E+00   0.000E+00   1.000E+00
  64  6.93279804   0.692  -1.09034   3.52733   6.45372   0.64377   0.00000   0.000E+00   0.000E+00   1.000E+00
  65  6.94090801   0.692  -1.09828   3.52738   6.45765   0.65571   0.00000   0.000E+00   0.000E+00   1.000E+00
  66  6.94886930   0.692  -1.10614   3.52742   6.46154   0.66752   0.00000   0.000E+00   0.000E+00   1.000E+00
  67  6.95668728   0.692  -1.11358   3.52746   6.46522   0.67871   0.00000   0.000E+00   0.000E+00   1.000E+00
  68  6.96436700   0.692  -1.12102   3.52750   6.46889   0.68990   0.00000   0.000E+00   0.000E+00   1.000E+00
  69  6.97191328   0.692  -1.12816   3.52753   6.47242   0.70063   0.00000   0.000E+00   0.000E+00   1.000E+00
  70  6.97933067   0.692  -1.13513   3.52757   6.47587   0.71111   0.00000   0.000E+00   0.000E+00   1.000E+00
  71  6.98662350   0.692  -1.14211   3.52761   6.47932   0.72160   0.00000   0.000E+00   0.000E+00   1.000E+00
  72  6.99379589   0.692  -1.14866   3.52764   6.48255   0.73145   0.00000   0.000E+00   0.000E+00   1.000E+00
  73  7.00085175   0.692  -1.15519   3.52768   6.48578   0.74128   0.00000   0.000E+00   0.000E+00   1.000E+00
  74  7.00779480   0.692  -1.16168   3.52771   6.48898   0.75105   0.00000   0.000E+00   0.000E+00   1.000E+00
  75  7.01462860   0.692  -1.16781   3.52774   6.49201   0.76026   0.00000   0.000E+00   0.000E+00   1.000E+00
  76  7.02135653   0.692  -1.17394   3.52777   6.49503   0.76948   0.00000   0.000E+00   0.000E+00   1.000E+00
  77  7.02798183   0.692  -1.18005   3.52780   6.49805   0.77866   0.00000   0.000E+00   0.000E+00   1.000E+00
  78  7.03450757   0.692  -1.18579   3.52783   6.50088   0.78729   0.00000   0.000E+00   0.000E+00   1.000E+00
  79  7.04093670   0.692  -1.19154   3.52786   6.50371   0.79593   0.00000   0.000E+00   0.000E+00   1.000E+00
  80  7.04727204   0.692  -1.19728   3.52788   6.50655   0.80456   0.00000   0.000E+00   0.000E+00   1.000E+00
  81  7.05351629   0.692  -1.20275   3.52791   6.50924   0.81277   0.00000   0.000E+00   0.000E+00   1.000E+00
  82  7.05967204   0.692  -1.20814   3.52793   6.51189   0.82086   0.00000   0.000E+00   0.000E+00   1.000E+00
  83  7.06574175   0.692  -1.21353   3.52795   6.51455   0.82895   0.00000   0.000E+00   0.000E+00   1.000E+00
  84  7.07172780   0.692  -1.21882   3.52798   6.51715   0.83689   0.00000   0.000E+00   0.000E+00   1.000E+00
  85  7.07763246   0.692  -1.22387   3.52800   6.51963   0.84447   0.00000   0.000E+00   0.000E+00   1.000E+00
  86  7.08345792   0.692  -1.22893   3.52802   6.52212   0.85205   0.00000   0.000E+00   0.000E+00   1.000E+00
  87  7.08920627   0.692  -1.23399   3.52804   6.52460   0.85963   0.00000   0.000E+00   0.000E+00   1.000E+00
  88  7.09487952   0.692  -1.23886   3.52806   6.52699   0.86693   0.00000   0.000E+00   0.000E+00   1.000E+00
  89  7.10047962   0.692  -1.24360   3.52807   6.52932   0.87403   0.00000   0.000E+00   0.000E+00   1.000E+00
  90  7.10600843   0.692  -1.24834   3.52809   6.53165   0.88114   0.00000   0.000E+00   0.000E+00   1.000E+00
  91  7.11146774   0.692  -1.25308   3.52810   6.53397   0.88824   0.00000   0.000E+00   0.000E+00   1.000E+00
  92  7.11685927   0.692  -1.25763   3.52812   6.53620   0.89506   0.00000   0.000E+00   0.000E+00   1.000E+00
  93  7.12218469   0.692  -1.26207   3.52814   6.53838   0.90171   0.00000   0.000E+00   0.000E+00   1.000E+00
  94  7.12744560   0.692  -1.26651   3.52815   6.54055   0.90836   0.00000   0.000E+00   0.000E+00   1.000E+00
  95  7.13264354   0.692  -1.27095   3.52817   6.54273   0.91501   0.00000   0.000E+00   0.000E+00   1.000E+00
  96  7.13778000   0.692  -1.27527   3.52819   6.54485   0.92149   0.00000   0.000E+00   0.000E+00   1.000E+00
  97  7.14285642   0.692  -1.27944   3.52820   6.54689   0.92772   0.00000   0.000E+00   0.000E+00   1.000E+00
  98  7.14787419   0.692  -1.28361   3.52821   6.54892   0.93395   0.00000   0.000E+00   0.000E+00   1.000E+00
  99  7.15283465   0.692  -1.28778   3.52823   6.55096   0.94018   0.00000   0.000E+00   0.000E+00   1.000E+00
 100  7.15773908   0.692  -1.29195   3.52824   6.55300   0.94640   0.00000   0.000E+00   0.000E+00   1.000E+00
 101  7.16258876   0.692  -1.29589   3.52825   6.55492   0.95227   0.00000   0.000E+00   0.000E+00   1.000E+00
 102  7.16738487   0.692  -1.29980   3.52826   6.55683   0.95810   0.00000   0.000E+00   0.000E+00   1.000E+00
 103  7.17212859   0.692  -1.30370   3.52826   6.55874   0.96393   0.00000   0.000E+00   0.000E+00   1.000E+00
 104  7.17682106   0.692  -1.30761   3.52827   6.56064   0.96976   0.00000   0.000E+00   0.000E+00   1.000E+00
 105  7.18146337   0.692  -1.31149   3.52828   6.56254   0.97555   0.00000   0.000E+00   0.000E+00   1.000E+00
 106  7.18605659   0.692  -1.31516   3.52829   6.56432   0.98101   0.00000   0.000E+00   0.000E+00   1.000E+00
 107  7.19060173   0.692  -1.31883   3.52830   6.56610   0.98648   0.00000   0.000E+00   0.000E+00   1.000E+00
 108  7.19509979   0.692  -1.32249   3.52830   6.56789   0.99194   0.00000   0.000E+00   0.000E+00   1.000E+00
 109  7.19955175   0.692  -1.32616   3.52831   6.56967   0.99740   0.00000   0.000E+00   0.000E+00   1.000E+00
 110  7.20395853   0.692  -1.32982   3.52832   6.57146   1.00286   0.00000   0.000E+00   0.000E+00   1.000E+00
 111  7.20832104   0.692  -1.33327   3.52833   6.57313   1.00798   0.00000   0.000E+00   0.000E+00   1.000E+00
 112  7.21264017   0.692  -1.33671   3.52833   6.57480   1.01309   0.00000   0.000E+00   0.000E+00   1.000E+00
 113  7.21691676   0.692  -1.34015   3.52834   6.57647   1.01821   0.00000   0.000E+00   0.000E+00   1.000E+00
 114  7.22115166   0.692  -1.34359   3.52834   6.57814   1.02333   0.00000   0.000E+00   0.000E+00   1.000E+00
 115  7.22534565   0.692  -1.34703   3.52835   6.57981   1.02845   0.00000   0.000E+00   0.000E+00   1.000E+00
 116  7.22949954   0.692  -1.35035   3.52835   6.58142   1.03339   0.00000   0.000E+00   0.000E+00   1.000E+00
 117  7.23361406   0.692  -1.35358   3.52836   6.58298   1.03818   0.00000   0.000E+00   0.000E+00   1.000E+00
 118  7.23768998   0.692  -1.35681   3.52836   6.58455   1.04298   0.00000   0.000E+00   0.000E+00   1.000E+00
 119  7.24172799   0.692  -1.36004   3.52836   6.58611   1.04777   0.00000   0.000E+00   0.000E+00   1.000E+00
 120  7.24572881   0.692  -1.36326   3.52837   6.58768   1.05257   0.00000   0.000E+00   0.000E+00   1.000E+00
 121  7.24969310   0.692  -1.36649   3.52837   6.58924   1.05736   0.00000   0.000E+00   0.000E+00   1.000E+00
 122  7.25362154   0.692  -1.36957   3.52837   6.59073   1.06194   0.00000   1.180E-04   0.000E+00   9.999E-01
 123  7.25751476   0.692  -1.37260   3.52837   6.59220   1.06643   0.00000   2.794E-04   0.000E+00   9.997E-01
 124  7.26137338   0.692  -1.37563   3.52837   6.59366   1.07093   0.00000   4.408E-04   0.000E+00   9.996E-01
 125  7.26519803   0.692  -1.37866   3.52838   6.59513   1.07543   0.00000   6.022E-04   0.000E+00   9.994E-01
 126  7.26898929   0.692  -1.38169   3.52838   6.59659   1.07992   0.00000   7.636E-04   0.000E+00   9.992E-01
 127  7.27274774   0.692  -1.38472   3.52838   6.59806   1.08442   0.00000   9.250E-04   0.000E+00   9.991E-01
 128  7.27647394   0.692  -1.38765   3.52838   6.59947   1.08876   0.00000   1.000E-03   0.000E+00   9.990E-01
 129  7.28016844   0.692  -1.39050   3.52838   6.60085   1.09297   0.00000   1.000E-03   0.000E+00   9.990E-01
 130  7.28383178   0.692  -1.39335   3.52838   6.60222   1.09718   0.00000   1.000E-03   0.000E+00   9.990E-01
 131  7.28746447   0.692  -1.39619   3.52837   6.60359   1.10139   0.00000   1.000E-03   0.000E+00   9.990E-01
 132  7.29106704   0.692  -1.39904   3.52837   6.60496   1.10560   0.00000   1.000E-03   0.000E+00   9.990E-01
 133  7.29463996   0.692  -1.40189   3.52837   6.60633   1.10981   0.00000   1.000E-03   0.000E+00   9.990E-01
 134  7.29818373   0.692  -1.40473   3.52837   6.60770   1.11401   0.00000   1.000E-03   0.000E+00   9.990E-01
 135  7.30169882   0.692  -1.40741   3.52837   6.60899   1.11797   0.00000   1.000E-03   0.000E+00   9.990E-01
 136  7.30518568   0.692  -1.41008   3.52837   6.61028   1.12192   0.00000   1.000E-03   0.000E+00   9.990E-01
 137  7.30864477   0.692  -1.41275   3.52837   6.61156   1.12586   0.00000   1.000E-03   0.000E+00   9.990E-01
 138  7.31207653   0.692  -1.41542   3.52837   6.61284   1.12980   0.00000   1.000E-03   0.000E+00   9.990E-01
 139  7.31548138   0.692  -1.41809   3.52837   6.61413   1.13374   0.00000   1.000E-03   0.000E+00   9.990E-01
 140  7.31885975   0.692  -1.42076   3.52837   6.61541   1.13769   0.00000   1.000E-03   0.000E+00   9.990E-01
 141  7.32221204   0.692  -1.42343   3.52837   6.61670   1.14163   0.00000   1.000E-03   0.000E+00   9.990E-01
 142  7.32553865   0.692  -1.42595   3.52837   6.61791   1.14535   0.00000   1.000E-03   0.000E+00   9.990E-01
 143  7.32883997   0.692  -1.42846   3.52836   6.61911   1.14904   0.00000   1.000E-03   0.000E+00   9.990E-01
 144  7.33211639   0.692  -1.43096   3.52836   6.62031   1.15274   0.00000   1.000E-03   0.000E+00   9.990E-01
 145  7.33536827   0.692  -1.43347   3.52836   6.62152   1.15644   0.00000   1.000E-03   0.000E+00   9.990E-01
 146  7.33859599   0.692  -1.43598   3.52836   6.62272   1.16013   0.00000   1.000E-03   0.000E+00   9.990E-01
 147  7.34179989   0.692  -1.43849   3.52835   6.62392   1.16383   0.00000   1.000E-03   0.000E+00   9.990E-01
 148  7.34498033   0.692  -1.44099   3.52835   6.62513   1.16753   0.00000   1.000E-03   0.000E+00   9.990E-01
 149  7.34813765   0.692  -1.44344   3.52835   6.62630   1.17113   0.00000   1.000E-03   0.000E+00   9.990E-01
 150  7.35127218   0.692  -1.44579   3.52834   6.62742   1.17460   0.00000   1.000E-03   0.000E+00   9.990E-01
 151  7.35438425   0.692  -1.44814   3.52834   6.62855   1.17806   0.00000   1.000E-03   0.000E+00   9.990E-01
 152  7.35747418   0.692  -1.45049   3.52834   6.62968   1.18153   0.00000   1.000E-03   0.000E+00   9.990E-01
 153  7.36054228   0.692  -1.45285   3.52833   6.63080   1.18499   0.00000   1.000E-03   0.000E+00   9.990E-01
 154  7.36358886   0.692  -1.45520   3.52833   6.63193   1.18846   0.00000   1.000E-03   0.000E+00   9.990E-01
 155  7.36661421   0.692  -1.45755   3.52833   6.63306   1.19193   0.00000   1.000E-03   0.000E+00   9.990E-01
 156  7.36961863   0.692  -1.45990   3.52832   6.63418   1.19539   0.00000   1.000E-03   0.000E+00   9.990E-01
 157  7.37260241   0.692  -1.46219   3.52832   6.63528   1.19877   0.00000   1.051E-03   0.000E+00   9.989E-01
 158  7.37556584   0.692  -1.46440   3.52831   6.63633   1.20201   0.00000   1.169E-03   0.000E+00   9.988E-01
 159  7.37850917   0.692  -1.46661   3.52831   6.63739   1.20526   0.00000   1.287E-03   0.000E+00   9.987E-01
 160  7.38143270   0.692  -1.46882   3.52831   6.63845   1.20851   0.00000   1.404E-03   0.000E+00   9.986E-01
 161  7.38433667   0.692  -1.47102   3.52830   6.63950   1.21176   0.00000   1.522E-03   0.000E+00   9.985E-01
 162  7.38722136   0.692  -1.47323   3.52830   6.64056   1.21501   0.00000   1.639E-03   0.000E+00   9.984E-01
 163  7.39008701   0.692  -1.47544   3.52830   6.64161   1.21826   0.00000   1.757E-03   0.000E+00   9.982E-01
 164  7.39293388   0.692  -1.47765   3.52829   6.64267   1.22151   0.00000   1.875E-03   0.000E+00   9.981E-01
 165  7.39576221   0.692  -1.47985   3.52829   6.64372   1.22476   0.00000   1.992E-03   0.000E+00   9.980E-01
 166  7.39857223   0.692  -1.48193   3.52829   6.64471   1.22782   0.00000   2.000E-03   0.000E+00   9.980E-01
 167  7.40136419   0.692  -1.48400   3.52828   6.64570   1.23087   0.00000   2.000E-03   0.000E+00   9.980E-01
 168  7.40413832   0.692  -1.48607   3.52828   6.64669   1.23391   0.00000   2.000E-03   0.000E+00   9.980E-01
 169  7.40689484   0.692  -1.48814   3.52827   6.64768   1.23696   0.00000   2.000E-03   0.000E+00   9.980E-01
 170  7.40963398   0.692  -1.49021   3.52827   6.64866   1.24001   0.00000   2.000E-03   0.000E+00   9.980E-01
 171  7.41235594   0.692  -1.49228   3.52826   6.64965   1.24306   0.00000   2.000E-03   0.000E+00   9.980E-01
 172  7.41506096   0.692  -1.49435   3.52826   6.65064   1.24611   0.00000   2.000E-03   0.000E+00   9.980E-01
 173  7.41774922   0.692  -1.49642   3.52825   6.65163   1.24916   0.00000   2.000E-03   0.000E+00   9.980E-01
 174  7.42042095   0.692  -1.49849   3.52825   6.65261   1.25220   0.00000   2.000E-03   0.000E+00   9.980E-01
 175  7.42307635   0.692  -1.50045   3.52825   6.65355   1.25508   0.00000   2.090E-03   0.000E+00   9.979E-01
 176  7.42571561   0.692  -1.50239   3.52824   6.65447   1.25793   0.00000   2.194E-03   0.000E+00   9.978E-01
 177  7.42833892   0.692  -1.50433   3.52824   6.65540   1.26078   0.00000   2.297E-03   0.000E+00   9.977E-01
 178  7.43094649   0.692  -1.50628   3.52823   6.65632   1.26364   0.00000   2.401E-03   0.000E+00   9.976E-01
 179  7.43353849   0.692  -1.50822   3.52823   6.65725   1.26649   0.00000   2.504E-03   0.000E+00   9.975E-01
 180  7.43611511   0.692  -1.51016   3.52823   6.65817   1.26934   0.00000   2.608E-03   0.000E+00   9.974E-01
 181  7.43867654   0.692  -1.51210   3.52822   6.65910   1.27219   0.00000   2.711E-03   0.000E+00   9.973E-01
 182  7.44122295   0.692  -1.51405   3.52822   6.66003   1.27504   0.00000   2.815E-03   0.000E+00   9.972E-01
 183  7.44375451   0.692  -1.51599   3.52821   6.66095   1.27789   0.00000   2.918E-03   0.000E+00   9.971E-01
 184  7.44627141   0.692  -1.51791   3.52821   6.66186   1.28071   0.00000   3.021E-03   0.000E+00   9.970E-01
 185  7.44877380   0.692  -1.51973   3.52820   6.66273   1.28338   0.00000   3.118E-03   0.000E+00   9.969E-01
 186  7.45126185   0.692  -1.52155   3.52820   6.66360   1.28605   0.00000   3.215E-03   0.000E+00   9.968E-01
 187  7.45373574   0.692  -1.52337   3.52819   6.66446   1.28872   0.00000   3.312E-03   0.000E+00   9.967E-01
 188  7.45619561   0.692  -1.52519   3.52819   6.66533   1.29140   0.00000   3.409E-03   0.000E+00   9.966E-01
 189  7.45864162   0.692  -1.52701   3.52818   6.66620   1.29407   0.00000   3.506E-03   0.000E+00   9.965E-01
 190  7.46107394   0.692  -1.52883   3.52818   6.66706   1.29674   0.00000   3.603E-03   0.000E+00   9.964E-01
 191  7.46349271   0.692  -1.53065   3.52817   6.66793   1.29941   0.00000   3.701E-03   0.000E+00   9.963E-01
 192  7.46589808   0.692  -1.53248   3.52817   6.66880   1.30208   0.00000   3.798E-03   0.000E+00   9.962E-01
 193  7.46829021   0.692  -1.53430   3.52817   6.66966   1.30476   0.00000   3.895E-03   0.000E+00   9.961E-01
 194  7.47066923   0.692  -1.53612   3.52816   6.67053   1.30743   0.00000   3.992E-03   0.000E+00   9.960E-01
 195  7.47303529   0.692  -1.53783   3.52816   6.67134   1.30995   0.00000   4.083E-03   0.000E+00   9.959E-01
 196  7.47538852   0.692  -1.53954   3.52815   6.67215   1.31245   0.00000   4.175E-03   0.000E+00   9.958E-01
 197  7.47772908   0.692  -1.54125   3.52815   6.67296   1.31495   0.00000   4.266E-03   0.000E+00   9.957E-01
 198  7.48005709   0.692  -1.54295   3.52814   6.67377   1.31746   0.00000   4.357E-03   0.000E+00   9.956E-01
 199  7.48237269   0.692  -1.54466   3.52814   6.67458   1.31996   0.00000   4.448E-03   0.000E+00   9.956E-01
 200  7.48467600   0.692  -1.54637   3.52813   6.67540   1.32247   0.00000   4.539E-03   0.000E+00   9.955E-01
 201  7.48696717   0.692  -1.54807   3.52813   6.67621   1.32497   0.00000   4.630E-03   0.000E+00   9.954E-01
 202  7.48924631   0.692  -1.54978   3.52812   6.67702   1.32747   0.00000   4.721E-03   0.000E+00   9.953E-01
 203  7.49151355   0.692  -1.55149   3.52812   6.67783   1.32998   0.00000   4.812E-03   0.000E+00   9.952E-01
 204  7.49376902   0.692  -1.55319   3.52811   6.67864   1.33248   0.00000   4.903E-03   0.000E+00   9.951E-01
 205  7.49601284   0.692  -1.55490   3.52811   6.67945   1.33499   0.00000   4.994E-03   0.000E+00   9.950E-01
 206  7.49824512   0.692  -1.55651   3.52811   6.68021   1.33734   0.00000   5.080E-03   0.000E+00   9.949E-01
 207  7.50046598   0.692  -1.55810   3.52810   6.68097   1.33969   0.00000   5.165E-03   0.000E+00   9.948E-01
 208  7.50267555   0.692  -1.55970   3.52810   6.68173   1.34204   0.00000   5.250E-03   0.000E+00   9.947E-01
 209  7.50487393   0.692  -1.56130   3.52809   6.68249   1.34439   0.00000   5.336E-03   0.000E+00   9.947E-01
 210  7.50706124   0.692  -1.56290   3.52809   6.68324   1.34674   0.00000   5.421E-03   0.000E+00   9.946E-01
 211  7.50923759   0.692  -1.56450   3.52808   6.68400   1.34908   0.00000   5.506E-03   0.000E+00   9.945E-01
 212  7.51140309   0.692  -1.56610   3.52808   6.68476   1.35143   0.00000   5.592E-03   0.000E+00   9.944E-01
 213  7.51355784   0.692  -1.56770   3.52808   6.68552   1.35378   0.00000   5.677E-03   0.000E+00   9.943E-01
 214  7.51570196   0.692  -1.56930   3.52807   6.68628   1.35613   0.00000   5.762E-03   0.000E+00   9.942E-01
 215  7.51783554   0.692  -1.57090   3.52807   6.68704   1.35847   0.00000   5.848E-03   0.000E+00   9.942E-01
 216  7.51995869   0.692  -1.57250   3.52806   6.68780   1.36082   0.00000   5.933E-03   0.000E+00   9.941E-01
 217  7.52207151   0.692  -1.57407   3.52806   6.68854   1.36314   0.00000   6.017E-03   0.000E+00   9.940E-01
 218  7.52417410   0.692  -1.57557   3.52806   6.68925   1.36534   0.00000   6.097E-03   0.000E+00   9.939E-01
 219  7.52626657   0.692  -1.57707   3.52805   6.68996   1.36754   0.00000   6.177E-03   0.000E+00   9.938E-01
 220  7.52834900   0.692  -1.57856   3.52805   6.69067   1.36974   0.00000   6.257E-03   0.000E+00   9.937E-01
 221  7.53042149   0.692  -1.58006   3.52804   6.69138   1.37194   0.00000   6.337E-03   0.000E+00   9.937E-01
 222  7.53248414   0.692  -1.58156   3.52804   6.69209   1.37414   0.00000   6.417E-03   0.000E+00   9.936E-01
 223  7.53453703   0.692  -1.58305   3.52804   6.69280   1.37634   0.00000   6.497E-03   0.000E+00   9.935E-01
 224  7.53658027   0.692  -1.58455   3.52803   6.69351   1.37854   0.00000   6.577E-03   0.000E+00   9.934E-01
 225  7.53861395   0.692  -1.58604   3.52803   6.69422   1.38074   0.00000   6.657E-03   0.000E+00   9.933E-01
 226  7.54063814   0.692  -1.58754   3.52802   6.69493   1.38294   0.00000   6.737E-03   0.000E+00   9.933E-01
 227  7.54265294   0.692  -1.58904   3.52802   6.69564   1.38514   0.00000   6.817E-03   0.000E+00   9.932E-01
 228  7.54465844   0.692  -1.59053   3.52802   6.69635   1.38734   0.00000   6.897E-03   0.000E+00   9.931E-01
 229  7.54665472   0.692  -1.59203   3.52801   6.69706   1.38954   0.00000   6.976E-03   0.000E+00   9.930E-01
 230  7.54864187   0.692  -1.59346   3.52801   6.69773   1.39165   0.00000   7.106E-03   0.000E+00   9.929E-01
 231  7.55061996   0.692  -1.59486   3.52800   6.69839   1.39371   0.00000   7.255E-03   0.000E+00   9.927E-01
 232  7.55258909   0.692  -1.59625   3.52800   6.69904   1.39578   0.00000   7.405E-03   0.000E+00   9.926E-01
 233  7.55454933   0.692  -1.59765   3.52800   6.69970   1.39784   0.00000   7.554E-03   0.000E+00   9.924E-01
 234  7.55650076   0.692  -1.59905   3.52800   6.70036   1.39990   0.00000   7.704E-03   0.000E+00   9.923E-01
 235  7.55844346   0.692  -1.60045   3.52799   6.70101   1.40197   0.00000   7.854E-03   0.000E+00   9.921E-01
 236  7.56037751   0.692  -1.60185   3.52799   6.70167   1.40403   0.00000   8.003E-03   0.000E+00   9.920E-01
 237  7.56230298   0.692  -1.60325   3.52799   6.70232   1.40610   0.00000   8.153E-03   0.000E+00   9.918E-01
 238  7.56421996   0.692  -1.60465   3.52798   6.70298   1.40816   0.00000   8.302E-03   0.000E+00   9.917E-01
 239  7.56612851   0.692  -1.60605   3.52798   6.70364   1.41023   0.00000   8.452E-03   0.000E+00   9.915E-01
 240  7.56802871   0.692  -1.60745   3.52798   6.70429   1.41229   0.00000   8.602E-03   0.000E+00   9.914E-01
 241  7.56992063   0.692  -1.60884   3.52797   6.70495   1.41436   0.00000   8.751E-03   0.000E+00   9.912E-01
 242  7.57180435   0.692  -1.61024   3.52797   6.70561   1.41642   0.00000   8.901E-03   0.000E+00   9.911E-01
 243  7.57367993   0.692  -1.61161   3.52797   6.70624   1.41845   0.00000   9.071E-03   0.000E+00   9.909E-01
 244  7.57554745   0.692  -1.61292   3.52797   6.70684   1.42039   0.00000   9.281E-03   0.000E+00   9.907E-01
 245  7.57740697   0.692  -1.61423   3.52796   6.70744   1.42234   0.00000   9.490E-03   0.000E+00   9.905E-01
 246  7.57925856   0.692  -1.61553   3.52796   6.70804   1.42428   0.00000   9.700E-03   0.000E+00   9.903E-01
 247  7.58110229   0.692  -1.61684   3.52796   6.70864   1.42622   0.00000   9.910E-03   0.000E+00   9.901E-01
 248  7.58293823   0.692  -1.61815   3.52796   6.70924   1.42817   0.00000   1.012E-02   0.000E+00   9.899E-01
 249  7.58476644   0.692  -1.61946   3.52795   6.70984   1.43011   0.00000   1.033E-02   0.000E+00   9.897E-01
 250  7.58658698   0.692  -1.62076   3.52795   6.71044   1.43206   0.00000   1.054E-02   0.000E+00   9.895E-01
 251  7.58839993   0.692  -1.62207   3.52795   6.71104   1.43400   0.00000   1.075E-02   0.000E+00   9.893E-01
 252  7.59020534   0.692  -1.62338   3.52794   6.71164   1.43595   0.00000   1.096E-02   0.000E+00   9.890E-01
 253  7.59200327   0.692  -1.62469   3.52794   6.71224   1.43789   0.00000   1.117E-02   0.000E+00   9.888E-01
 254  7.59379379   0.692  -1.62599   3.52794   6.71284   1.43984   0.00000   1.138E-02   0.000E+00   9.886E-01
 255  7.59557696   0.692  -1.62730   3.52794   6.71345   1.44178   0.00000   1.159E-02   0.000E+00   9.884E-01
 256  7.59735284   0.692  -1.62861   3.52793   6.71405   1.44373   0.00000   1.180E-02   0.000E+00   9.882E-01
 257  7.59912149   0.692  -1.62991   3.52793   6.71464   1.44567   0.00000   1.201E-02   0.000E+00   9.880E-01
 258  7.60088296   0.692  -1.63113   3.52793   6.71519   1.44750   0.00000   1.220E-02   0.000E+00   9.878E-01
 259  7.60263732   0.692  -1.63235   3.52792   6.71574   1.44934   0.00000   1.240E-02   0.000E+00   9.876E-01
 260  7.60438462   0.692  -1.63357   3.52792   6.71629   1.45117   0.00000   1.260E-02   0.000E+00   9.874E-01
 261  7.60612491   0.692  -1.63479   3.52792   6.71684   1.45301   0.00000   1.279E-02   0.000E+00   9.872E-01
 262  7.60785826   0.692  -1.63601   3.52792   6.71739   1.45484   0.00000   1.299E-02   0.000E+00   9.870E-01
 263  7.60958472   0.692  -1.63724   3.52791   6.71794   1.45667   0.00000   1.319E-02   0.000E+00   9.868E-01
 264  7.61130435   0.692  -1.63846   3.52791   6.71849   1.45851   0.00000   1.338E-02   0.000E+00   9.866E-01
 265  7.61301719   0.692  -1.63968   3.52791   6.71904   1.46034   0.00000   1.358E-02   0.000E+00   9.864E-01
 266  7.61472330   0.692  -1.64090   3.52791   6.71959   1.46218   0.00000   1.377E-02   0.000E+00   9.862E-01
 267  7.61642274   0.692  -1.64212   3.52790   6.72013   1.46401   0.00000   1.397E-02   0.000E+00   9.860E-01
 268  7.61811555   0.692  -1.64334   3.52790   6.72068   1.46585   0.00000   1.417E-02   0.000E+00   9.858E-01
 269  7.61980180   0.692  -1.64456   3.52790   6.72123   1.46768   0.00000   1.436E-02   0.000E+00   9.856E-01
 270  7.62148151   0.692  -1.64578   3.52790   6.72178   1.46952   0.00000   1.456E-02   0.000E+00   9.854E-01
 271  7.62315476   0.692  -1.64700   3.52789   6.72233   1.47135   0.00000   1.475E-02   0.000E+00   9.852E-01
 272  7.62482159   0.692  -1.64822   3.52789   6.72288   1.47318   0.00000   1.495E-02   0.000E+00   9.850E-01
 273  7.62648204   0.692  -1.64938   3.52789   6.72340   1.47494   0.00000   1.518E-02   0.000E+00   9.848E-01
 274  7.62813617   0.692  -1.65052   3.52789   6.72390   1.47667   0.00000   1.543E-02   0.000E+00   9.846E-01
 275  7.62978402   0.692  -1.65165   3.52789   6.72440   1.47840   0.00000   1.567E-02   0.000E+00   9.843E-01
 276  7.63142564   0.692  -1.65279   3.52789   6.72491   1.48013   0.00000   1.591E-02   0.000E+00   9.841E-01
 277  7.63306108   0.692  -1.65393   3.52788   6.72541   1.48185   0.00000   1.616E-02   0.000E+00   9.838E-01
 278  7.63469039   0.692  -1.65507   3.52788   6.72591   1.48358   0.00000   1.640E-02   0.000E+00   9.836E-01
 279  7.63631360   0.692  -1.65621   3.52788   6.72642   1.48531   0.00000   1.665E-02   0.000E+00   9.834E-01
 280  7.63793077   0.692  -1.65734   3.52788   6.72692   1.48704   0.00000   1.689E-02   0.000E+00   9.831E-01
 281  7.63954194   0.692  -1.65848   3.52788   6.72742   1.48877   0.00000   1.714E-02   0.000E+00   9.829E-01
 282  7.64114716   0.692  -1.65962   3.52788   6.72793   1.49050   0.00000   1.738E-02   0.000E+00   9.826E-01
 283  7.64274647   0.692  -1.66076   3.52788   6.72843   1.49223   0.00000   1.762E-02   0.000E+00   9.824E-01
 284  7.64433990   0.692  -1.66189   3.52788   6.72893   1.49395   0.00000   1.787E-02   0.000E+00   9.821E-01
 285  7.64592752   0.692  -1.66303   3.52787   6.72944   1.49568   0.00000   1.811E-02   0.000E+00   9.819E-01
 286  7.64750935   0.692  -1.66417   3.52787   6.72994   1.49741   0.00000   1.836E-02   0.000E+00   9.816E-01
 287  7.64908543   0.692  -1.66531   3.52787   6.73045   1.49914   0.00000   1.860E-02   0.000E+00   9.814E-01
 288  7.65065582   0.692  -1.66644   3.52787   6.73095   1.50087   0.00000   1.884E-02   0.000E+00   9.812E-01
 289  7.65222056   0.692  -1.66755   3.52787   6.73144   1.50256   0.00000   1.910E-02   0.000E+00   9.809E-01
 290  7.65377967   0.692  -1.66861   3.52787   6.73190   1.50419   0.00000   1.939E-02   0.000E+00   9.806E-01
 291  7.65533321   0.692  -1.66967   3.52787   6.73236   1.50581   0.00000   1.967E-02   0.000E+00   9.803E-01
 292  7.65688121   0.692  -1.67073   3.52787   6.73282   1.50744   0.00000   1.996E-02   0.000E+00   9.800E-01
 293  7.65842371   0.692  -1.67179   3.52787   6.73329   1.50906   0.00000   2.024E-02   0.000E+00   9.798E-01
 294  7.65996075   0.692  -1.67285   3.52786   6.73375   1.51069   0.00000   2.053E-02   0.000E+00   9.795E-01
 295  7.66149238   0.692  -1.67391   3.52786   6.73421   1.51232   0.00000   2.081E-02   0.000E+00   9.792E-01
 296  7.66301862   0.692  -1.67497   3.52786   6.73467   1.51394   0.00000   2.109E-02   0.000E+00   9.789E-01
 297  7.66453951   0.692  -1.67603   3.52786   6.73514   1.51557   0.00000   2.138E-02   0.000E+00   9.786E-01
 298  7.66605510   0.692  -1.67709   3.52786   6.73560   1.51720   0.00000   2.166E-02   0.000E+00   9.783E-01
 299  7.66756541   0.692  -1.67815   3.52786   6.73606   1.51882   0.00000   2.195E-02   0.000E+00   9.781E-01
 300  7.66907050   0.692  -1.67921   3.52786   6.73652   1.52045   0.00000   2.223E-02   0.000E+00   9.778E-01
 301  7.67057038   0.692  -1.68026   3.52786   6.73699   1.52208   0.00000   2.252E-02   0.000E+00   9.775E-01
 302  7.67206510   0.692  -1.68132   3.52785   6.73745   1.52370   0.00000   2.280E-02   0.000E+00   9.772E-01
 303  7.67355470   0.692  -1.68238   3.52785   6.73791   1.52533   0.00000   2.309E-02   0.000E+00   9.769E-01
 304  7.67503920   0.692  -1.68344   3.52785   6.73837   1.52695   0.00000   2.337E-02   0.000E+00   9.766E-01
 305  7.67651865   0.692  -1.68450   3.52785   6.73884   1.52858   0.00000   2.365E-02   0.000E+00   9.763E-01
 306  7.67799307   0.692  -1.68556   3.52785   6.73930   1.53021   0.00000   2.394E-02   0.000E+00   9.761E-01
 307  7.67946251   0.692  -1.68656   3.52785   6.73973   1.53175   0.00000   2.425E-02   0.000E+00   9.758E-01
 308  7.68092699   0.692  -1.68755   3.52785   6.74016   1.53328   0.00000   2.457E-02   0.000E+00   9.754E-01
 309  7.68238655   0.692  -1.68853   3.52785   6.74058   1.53480   0.00000   2.488E-02   0.000E+00   9.751E-01
 310  7.68384122   0.692  -1.68951   3.52785   6.74101   1.53632   0.00000   2.520E-02   0.000E+00   9.748E-01
 311  7.68529103   0.692  -1.69050   3.52784   6.74143   1.53785   0.00000   2.552E-02   0.000E+00   9.745E-01
 312  7.68673602   0.692  -1.69148   3.52784   6.74186   1.53937   0.00000   2.584E-02   0.000E+00   9.742E-01
 313  7.68817622   0.692  -1.69247   3.52784   6.74228   1.54089   0.00000   2.616E-02   0.000E+00   9.738E-01
 314  7.68961165   0.692  -1.69345   3.52784   6.74271   1.54241   0.00000   2.647E-02   0.000E+00   9.735E-01
 315  7.69104236   0.692  -1.69444   3.52784   6.74314   1.54394   0.00000   2.679E-02   0.000E+00   9.732E-01
 316  7.69246837   0.692  -1.69542   3.52784   6.74356   1.54546   0.00000   2.711E-02   0.000E+00   9.729E-01
 317  7.69388972   0.692  -1.69641   3.52784   6.74399   1.54698   0.00000   2.743E-02   0.000E+00   9.726E-01
 318  7.69530643   0.692  -1.69739   3.52784   6.74441   1.54851   0.00000   2.774E-02   0.000E+00   9.723E-01
 319  7.69671853   0.692  -1.69837   3.52784   6.74484   1.55003   0.00000   2.806E-02   0.000E+00   9.719E-01
 320  7.69812605   0.692  -1.69936   3.52784   6.74526   1.55155   0.00000   2.838E-02   0.000E+00   9.716E-01
 321  7.69952903   0.692  -1.70034   3.52783   6.74569   1.55308   0.00000   2.870E-02   0.000E+00   9.713E-01
 322  7.70092749   0.692  -1.70133   3.52783   6.74611   1.55460   0.00000   2.901E-02   0.000E+00   9.710E-01
 323  7.70232146   0.692  -1.70231   3.52783   6.74654   1.55612   0.00000   2.933E-02   0.000E+00   9.707E-01
 324  7.70371097   0.692  -1.70330   3.52783   6.74696   1.55764   0.00000   2.965E-02   0.000E+00   9.703E-01
 325  7.70509605   0.692  -1.70428   3.52783   6.74739   1.55917   0.00000   2.997E-02   0.000E+00   9.700E-01
 326  7.70647673   0.692  -1.70520   3.52783   6.74778   1.56060   0.00000   3.035E-02   0.000E+00   9.696E-01
 327  7.70785303   0.692  -1.70611   3.52783   6.74817   1.56203   0.00000   3.075E-02   0.000E+00   9.693E-01
 328  7.70922498   0.692  -1.70703   3.52783   6.74856   1.56346   0.00000   3.114E-02   0.000E+00   9.689E-01
 329  7.71059261   0.692  -1.70794   3.52783   6.74896   1.56488   0.00000   3.154E-02   0.000E+00   9.685E-01
 330  7.71195595   0.692  -1.70885   3.52783   6.74935   1.56631   0.00000   3.193E-02   0.000E+00   9.681E-01
 331  7.71331503   0.692  -1.70977   3.52783   6.74974   1.56774   0.00000   3.232E-02   0.000E+00   9.677E-01
 332  7.71466986   0.692  -1.71068   3.52783   6.75013   1.56916   0.00000   3.272E-02   0.000E+00   9.673E-01
 333  7.71602048   0.692  -1.71159   3.52783   6.75052   1.57059   0.00000   3.311E-02   0.000E+00   9.669E-01
 334  7.71736691   0.692  -1.71251   3.52783   6.75091   1.57202   0.00000   3.350E-02   0.000E+00   9.665E-01
 335  7.71870918   0.692  -1.71342   3.52783   6.75130   1.57344   0.00000   3.390E-02   0.000E+00   9.661E-01
 336  7.72004732   0.692  -1.71433   3.52783   6.75170   1.57487   0.00000   3.429E-02   0.000E+00   9.657E-01
 337  7.72138134   0.692  -1.71525   3.52783   6.75209   1.57629   0.00000   3.469E-02   0.000E+00   9.653E-01
 338  7.72271128   0.692  -1.71616   3.52783   6.75248   1.57772   0.00000   3.508E-02   0.000E+00   9.649E-01
 339  7.72403716   0.692  -1.71707   3.52783   6.75287   1.57915   0.00000   3.547E-02   0.000E+00   9.645E-01
 340  7.72535900   0.692  -1.71798   3.52783   6.75326   1.58057   0.00000   3.587E-02   0.000E+00   9.641E-01
 341  7.72667684   0.692  -1.71890   3.52783   6.75365   1.58200   0.00000   3.626E-02   0.000E+00   9.637E-01
 342  7.72799068   0.692  -1.71981   3.52783   6.75404   1.58343   0.00000   3.665E-02   0.000E+00   9.633E-01
 343  7.72930057   0.692  -1.72072   3.52783   6.75443   1.58485   0.00000   3.705E-02   0.000E+00   9.630E-01
 344  7.73060651   0.692  -1.72164   3.52783   6.75483   1.58628   0.00000   3.744E-02   0.000E+00   9.626E-01
 345  7.73190854   0.692  -1.72255   3.52783   6.75522   1.58771   0.00000   3.784E-02   0.000E+00   9.622E-01
 346  7.73320668   0.692  -1.72342   3.52783   6.75559   1.58908   0.00000   3.824E-02   0.000E+00   9.618E-01
 347  7.73450095   0.692  -1.72427   3.52783   6.75595   1.59041   0.00000   3.865E-02   0.000E+00   9.613E-01
 348  7.73579137   0.692  -1.72511   3.52783   6.75631   1.59174   0.00000   3.906E-02   0.000E+00   9.609E-01
 349  7.73707797   0.692  -1.72596   3.52783   6.75668   1.59307   0.00000   3.947E-02   0.000E+00   9.605E-01
 350  7.73836077   0.692  -1.72680   3.52783   6.75704   1.59441   0.00000   3.988E-02   0.000E+00   9.601E-01
 351  7.73963979   0.692  -1.72765   3.52783   6.75740   1.59574   0.00000   4.029E-02   0.000E+00   9.597E-01
 352  7.74091506   0.692  -1.72849   3.52783   6.75776   1.59707   0.00000   4.071E-02   0.000E+00   9.593E-01
 353  7.74218659   0.692  -1.72933   3.52783   6.75812   1.59840   0.00000   4.112E-02   0.000E+00   9.589E-01
 354  7.74345441   0.692  -1.73018   3.52783   6.75848   1.59973   0.00000   4.153E-02   0.000E+00   9.585E-01
 355  7.74471854   0.692  -1.73102   3.52783   6.75885   1.60107   0.00000   4.194E-02   0.000E+00   9.581E-01
 356  7.74597900   0.692  -1.73187   3.52783   6.75921   1.60240   0.00000   4.235E-02   0.000E+00   9.577E-01
 357  7.74723582   0.692  -1.73271   3.52784   6.75957   1.60373   0.00000   4.276E-02   0.000E+00   9.572E-01
 358  7.74848900   0.692  -1.73356   3.52784   6.75993   1.60506   0.00000   4.317E-02   0.000E+00   9.568E-01
 359  7.74973858   0.692  -1.73440   3.52784   6.76029   1.60640   0.00000   4.358E-02   0.000E+00   9.564E-01
 360  7.75098458   0.692  -1.73525   3.52784   6.76065   1.60773   0.00000   4.399E-02   0.000E+00   9.560E-01
 361  7.75222701   0.692  -1.73609   3.52784   6.76101   1.60906   0.00000   4.440E-02   0.000E+00   9.556E-01
 362  7.75346590   0.692  -1.73694   3.52784   6.76138   1.61039   0.00000   4.481E-02   0.000E+00   9.552E-01
 363  7.75470126   0.692  -1.73778   3.52784   6.76174   1.61172   0.00000   4.522E-02   0.000E+00   9.548E-01
 364  7.75593312   0.692  -1.73862   3.52784   6.76210   1.61306   0.00000   4.564E-02   0.000E+00   9.544E-01
 365  7.75716150   0.692  -1.73947   3.52784   6.76246   1.61439   0.00000   4.605E-02   0.000E+00   9.540E-01
 366  7.75838641   0.692  -1.74031   3.52784   6.76282   1.61572   0.00000   4.646E-02   0.000E+00   9.535E-01
 367  7.75960787   0.692  -1.74116   3.52784   6.76318   1.61705   0.00000   4.687E-02   0.000E+00   9.531E-01
 368  7.76082591   0.692  -1.74196   3.52784   6.76353   1.61832   0.00000   4.734E-02   0.000E+00   9.527E-01
 369  7.76204055   0.692  -1.74274   3.52784   6.76386   1.61956   0.00000   4.785E-02   0.000E+00   9.521E-01
 370  7.76325179   0.692  -1.74352   3.52784   6.76419   1.62080   0.00000   4.836E-02   0.000E+00   9.516E-01
 371  7.76445967   0.692  -1.74430   3.52784   6.76453   1.62203   0.00000   4.886E-02   0.000E+00   9.511E-01
 372  7.76566419   0.692  -1.74508   3.52785   6.76486   1.62327   0.00000   4.937E-02   0.000E+00   9.506E-01
 373  7.76686539   0.692  -1.74586   3.52785   6.76519   1.62451   0.00000   4.988E-02   0.000E+00   9.501E-01
 374  7.76806327   0.692  -1.74664   3.52785   6.76553   1.62575   0.00000   5.038E-02   0.000E+00   9.496E-01
 375  7.76925786   0.692  -1.74742   3.52785   6.76586   1.62699   0.00000   5.089E-02   0.000E+00   9.491E-01
 376  7.77044917   0.692  -1.74820   3.52785   6.76619   1.62823   0.00000   5.140E-02   0.000E+00   9.486E-01
 377  7.77163722   0.692  -1.74898   3.52785   6.76653   1.62946   0.00000   5.190E-02   0.000E+00   9.481E-01
 378  7.77282203   0.692  -1.74976   3.52785   6.76686   1.63070   0.00000   5.241E-02   0.000E+00   9.476E-01
 379  7.77400362   0.692  -1.75053   3.52785   6.76719   1.63194   0.00000   5.292E-02   0.000E+00   9.471E-01
 380  7.77518200   0.692  -1.75131   3.52786   6.76752   1.63318   0.00000   5.343E-02   0.000E+00   9.466E-01
 381  7.77635719   0.692  -1.75209   3.52786   6.76786   1.63442   0.00000   5.393E-02   0.000E+00   9.461E-01
 382  7.77752921   0.692  -1.75287   3.52786   6.76819   1.63566   0.00000   5.444E-02   0.000E+00   9.456E-01
 383  7.77869807   0.692  -1.75365   3.52786   6.76852   1.63689   0.00000   5.495E-02   0.000E+00   9.451E-01
 384  7.77986380   0.692  -1.75443   3.52786   6.76886   1.63813   0.00000   5.545E-02   0.000E+00   9.445E-01
 385  7.78102641   0.692  -1.75521   3.52786   6.76919   1.63937   0.00000   5.596E-02   0.000E+00   9.440E-01
 386  7.78218591   0.692  -1.75599   3.52786   6.76952   1.64061   0.00000   5.647E-02   0.000E+00   9.435E-01
 387  7.78334233   0.692  -1.75677   3.52786   6.76986   1.64185   0.00000   5.697E-02   0.000E+00   9.430E-01
 388  7.78449567   0.692  -1.75755   3.52787   6.77019   1.64309   0.00000   5.748E-02   0.000E+00   9.425E-01
 389  7.78564596   0.692  -1.75833   3.52787   6.77052   1.64432   0.00000   5.799E-02   0.000E+00   9.420E-01
 390  7.78679322   0.692  -1.75911   3.52787   6.77086   1.64556   0.00000   5.849E-02   0.000E+00   9.415E-01
 391  7.78793745   0.692  -1.75989   3.52787   6.77119   1.64680   0.00000   5.900E-02   0.000E+00   9.410E-01
 392  7.87925547   0.692  -1.81743   3.52802   6.79616   1.73911   0.00000   1.202E-01   0.000E+00   8.798E-01
 393  7.95466832   0.692  -1.86091   3.52821   6.81591   1.80855   0.00000   2.045E-01   0.000E+00   7.955E-01
 394  8.01890323   0.692  -1.89422   3.52837   6.83207   1.86011   0.00000   3.056E-01   0.000E+00   6.944E-01
 395  8.07485010   0.692  -1.92008   3.52849   6.84550   1.89794   0.00000   4.146E-01   0.000E+00   5.854E-01
 396  8.12440532   0.692  -1.93910   3.52856   6.85620   1.92304   0.00000   5.203E-01   0.000E+00   4.797E-01
 397  8.16888073   0.692  -1.95358   3.52858   6.86493   1.94044   0.00000   6.159E-01   0.000E+00   3.841E-01
 398  8.20922161   0.691  -1.96428   3.52860   6.87192   1.95199   0.00000   6.989E-01   0.000E+00   3.011E-01
 399  8.24613172   0.691  -1.97122   3.52861   6.87652   1.95962   0.00000   7.605E-01   0.000E+00   2.395E-01
 400  8.28014913   0.691  -1.97751   3.52862   6.88069   1.96657   0.00000   8.182E-01   0.000E+00   1.818E-01
 401  8.31169449   0.691  -1.98068   3.52864   6.88215   1.97124   0.00000   8.478E-01   0.000E+00   1.520E-01
 402  8.34110287   0.692  -1.98385   3.52866   6.88361   1.97591   0.00000   8.774E-01   0.000E+00   1.223E-01
 403  8.36864552   0.692  -1.98656   3.52867   6.88486   1.97993   0.00000   9.033E-01   0.000E+00   9.636E-02
 404  8.39454512   0.692  -1.98782   3.52868   6.88547   1.98185   0.00000   9.173E-01   0.000E+00   8.236E-02
 405  8.41898671   0.692  -1.98909   3.52869   6.88607   1.98378   0.00000   9.312E-01   0.000E+00   6.835E-02
 406  8.44212574   0.692  -1.99035   3.52870   6.88667   1.98570   0.00000   9.452E-01   0.000E+00   5.434E-02
 407  8.46409404   0.692  -1.99154   3.52871   6.88724   1.98752   0.00000   9.584E-01   0.000E+00   4.112E-02
 408  8.48500440   0.692  -1.99192   3.52871   6.88742   1.98809   0.00000   9.630E-01   0.000E+00   3.649E-02
 409  8.50495405   0.692  -1.99229   3.52872   6.88760   1.98867   0.00000   9.677E-01   0.000E+00   3.187E-02
 410  8.52402741   0.692  -1.99267   3.52872   6.88779   1.98925   0.00000   9.723E-01   0.000E+00   2.725E-02
 411  8.54229822   0.692  -1.99304   3.52872   6.88797   1.98982   0.00000   9.770E-01   0.000E+00   2.263E-02
 412  8.55983131   0.692  -1.99342   3.52873   6.88816   1.99040   0.00000   9.817E-01   0.000E+00   1.801E-02
 413  8.57668394   0.692  -1.99379   3.52873   6.88834   1.99097   0.00000   9.863E-01   0.000E+00   1.339E-02
 414  8.59290698   0.692  -1.99390   3.52873   6.88840   1.99114   0.00000   9.880E-01   0.000E+00   1.173E-02
 415  8.60854576   0.692  -1.99395   3.52873   6.88843   1.99123   0.00000   9.892E-01   0.000E+00   1.059E-02
 416  8.62364091   0.692  -1.99401   3.52873   6.88846   1.99132   0.00000   9.904E-01   0.000E+00   9.449E-03
 417  8.63822896   0.692  -1.99407   3.52873   6.88850   1.99141   0.00000   9.915E-01   0.000E+00   8.309E-03
 418  8.65234288   0.692  -1.99413   3.52874   6.88853   1.99151   0.00000   9.927E-01   0.000E+00   7.169E-03
 419  8.66601252   0.692  -1.99418   3.52874   6.88856   1.99160   0.00000   9.939E-01   0.000E+00   6.028E-03
 420  8.67926500   0.692  -1.99424   3.52874   6.88860   1.99169   0.00000   9.951E-01   0.000E+00   4.888E-03
 421  8.69212503   0.692  -1.99430   3.52874   6.88863   1.99178   0.00000   9.962E-01   0.000E+00   3.748E-03
 422  8.70461518   0.692  -1.99435   3.52874   6.88866   1.99187   0.00000   9.974E-01   0.000E+00   2.608E-03
 423  8.71675613   0.692  -1.99436   3.52874   6.88867   1.99189   0.00000   9.981E-01   0.000E+00   1.925E-03
 424  8.72856689   0.692  -1.99432   3.52874   6.88866   1.99184   0.00000   9.983E-01   0.000E+00   1.695E-03
 425  8.74006494   0.692  -1.99429   3.52874   6.88865   1.99179   0.00000   9.985E-01   0.000E+00   1.465E-03
 426  8.75126641   0.692  -1.99425   3.52874   6.88864   1.99174   0.00000   9.988E-01   0.000E+00   1.235E-03
 427  8.76218622   0.692  -1.99422   3.52874   6.88863   1.99169   0.00000   9.990E-01   0.000E+00   1.006E-03
 428  8.77283818   0.692  -1.99418   3.52874   6.88862   1.99164   0.00000   9.992E-01   0.000E+00   7.758E-04
 429  8.78323512   0.692  -1.99414   3.52874   6.88861   1.99159   0.00000   9.994E-01   0.000E+00   5.460E-04
 430  8.79338897   0.692  -1.99411   3.52875   6.88860   1.99154   0.00000   9.996E-01   0.000E+00   3.162E-04
 431  8.80331084   0.692  -1.99407   3.52875   6.88859   1.99149   0.00000   9.998E-01   0.000E+00   8.647E-05
 432  8.81301108   0.692  -1.99403   3.52875   6.88858   1.99144   0.00000   1.000E+00   0.000E+00  -1.433E-04
 433  8.82249939   0.691  -1.99400   3.52875   6.88857   1.99139   0.00000   1.000E+00   0.000E+00  -3.731E-04
 434  8.83178483   0.691  -1.99396   3.52875   6.88856   1.99134   0.00000   1.000E+00   0.000E+00  -6.028E-04
 435  8.84087589   0.691  -1.99392   3.52875   6.88855   1.99129   0.00000   1.001E+00   0.000E+00  -8.326E-04
 436  8.84978054   0.691  -1.99389   3.52875   6.88853   1.99124   0.00000   1.001E+00   0.000E+00  -1.062E-03
 437  8.85850627   0.691  -1.99383   3.52875   6.88852   1.99117   0.00000   1.001E+00   0.000E+00  -1.201E-03
 438  8.86706014   0.691  -1.99376   3.52875   6.88849   1.99107   0.00000   1.001E+00   0.000E+00  -1.273E-03
 439  8.87544878   0.691  -1.99370   3.52875   6.88847   1.99097   0.00000   1.001E+00   0.000E+00  -1.345E-03
 440  8.88367845   0.691  -1.99363   3.52875   6.88844   1.99088   0.00000   1.001E+00   0.000E+00  -1.417E-03
 441  8.89175507   0.691  -1.99356   3.52875   6.88842   1.99078   0.00000   1.001E+00   0.000E+00  -1.489E-03
 442  8.89968423   0.691  -1.99350   3.52875   6.88839   1.99069   0.00000   1.001E+00   0.000E+00  -1.560E-03
 443  8.90747121   0.691  -1.99343   3.52875   6.88836   1.99059   0.00000   1.001E+00   0.000E+00  -1.632E-03
 444  8.91512103   0.691  -1.99336   3.52876   6.88834   1.99050   0.00000   1.002E+00   0.000E+00  -1.704E-03
 445  8.92263843   0.691  -1.99330   3.52876   6.88831   1.99040   0.00000   1.002E+00   0.000E+00  -1.776E-03
 446  8.93002791   0.691  -1.99323   3.52876   6.88829   1.99031   0.00000   1.002E+00   0.000E+00  -1.848E-03
 447  8.93729377   0.691  -1.99316   3.52876   6.88826   1.99021   0.00000   1.002E+00   0.000E+00  -1.919E-03
 448  8.94444006   0.691  -1.99310   3.52876   6.88824   1.99011   0.00000   1.002E+00   0.000E+00  -1.991E-03
 449  8.95147067   0.691  -1.99303   3.52876   6.88821   1.99002   0.00000   1.002E+00   0.000E+00  -2.063E-03
 450  8.95838927   0.691  -1.99296   3.52876   6.88819   1.98992   0.00000   1.002E+00   0.000E+00  -2.135E-03
 451  8.96519937   0.691  -1.99289   3.52876   6.88816   1.98981   0.00000   1.002E+00   0.000E+00  -2.185E-03
 452  8.97190434   0.691  -1.99281   3.52876   6.88813   1.98969   0.00000   1.002E+00   0.000E+00  -2.223E-03
 453  8.97850736   0.691  -1.99272   3.52876   6.88809   1.98957   0.00000   1.002E+00   0.000E+00  -2.261E-03
 454  8.98501149   0.691  -1.99264   3.52876   6.88806   1.98945   0.00000   1.002E+00   0.000E+00  -2.299E-03
 455  8.99141965   0.691  -1.99256   3.52876   6.88803   1.98933   0.00000   1.002E+00   0.000E+00  -2.337E-03
 456  8.99773462   0.691  -1.99248   3.52876   6.88800   1.98921   0.00000   1.002E+00   0.000E+00  -2.375E-03
 457  9.00395909   0.691  -1.99240   3.52876   6.88797   1.98909   0.00000   1.002E+00   0.000E+00  -2.413E-03
 458  9.01009560   0.691  -1.99231   3.52876   6.88793   1.98897   0.00000   1.003E+00   0.000E+00  -2.451E-03
 459  9.01614662   0.691  -1.99223   3.52876   6.88790   1.98885   0.00000   1.003E+00   0.000E+00  -2.489E-03
 460  9.02211448   0.691  -1.99215   3.52876   6.88787   1.98873   0.00000   1.003E+00   0.000E+00  -2.527E-03
 461  9.02800144   0.691  -1.99207   3.52876   6.88784   1.98861   0.00000   1.003E+00   0.000E+00  -2.565E-03
 462  9.03380967   0.691  -1.99199   3.52876   6.88780   1.98849   0.00000   1.003E+00   0.000E+00  -2.603E-03
 463  9.03954125   0.691  -1.99190   3.52876   6.88777   1.98837   0.00000   1.003E+00   0.000E+00  -2.641E-03
 464  9.04519817   0.691  -1.99182   3.52876   6.88774   1.98825   0.00000   1.003E+00   0.000E+00  -2.679E-03
 465  9.05078235   0.691  -1.99173   3.52876   6.88770   1.98812   0.00000   1.003E+00   0.000E+00  -2.709E-03
 466  9.05629564   0.691  -1.99164   3.52876   6.88766   1.98799   0.00000   1.003E+00   0.000E+00  -2.734E-03
 467  9.06173982   0.691  -1.99155   3.52876   6.88763   1.98785   0.00000   1.003E+00   0.000E+00  -2.760E-03
 468  9.06711659   0.691  -1.99145   3.52876   6.88759   1.98772   0.00000   1.003E+00   0.000E+00  -2.786E-03
 469  9.07242761   0.691  -1.99136   3.52876   6.88755   1.98758   0.00000   1.003E+00   0.000E+00  -2.812E-03
 470  9.07767446   0.691  -1.99127   3.52876   6.88751   1.98744   0.00000   1.003E+00   0.000E+00  -2.838E-03
 471  9.08285869   0.691  -1.99117   3.52876   6.88747   1.98731   0.00000   1.003E+00   0.000E+00  -2.864E-03
 472  9.08798175   0.691  -1.99108   3.52877   6.88744   1.98717   0.00000   1.003E+00   0.000E+00  -2.890E-03
 473  9.09304509   0.691  -1.99099   3.52877   6.88740   1.98704   0.00000   1.003E+00   0.000E+00  -2.915E-03
 474  9.09805007   0.691  -1.99089   3.52877   6.88736   1.98690   0.00000   1.003E+00   0.000E+00  -2.941E-03
 475  9.10299803   0.691  -1.99080   3.52877   6.88732   1.98677   0.00000   1.003E+00   0.000E+00  -2.967E-03
 476  9.10789026   0.691  -1.99071   3.52877   6.88728   1.98663   0.00000   1.003E+00   0.000E+00  -2.993E-03
 477  9.11272798   0.691  -1.99061   3.52877   6.88725   1.98649   0.00000   1.003E+00   0.000E+00  -3.019E-03
 478  9.11751242   0.691  -1.99052   3.52877   6.88721   1.98636   0.00000   1.003E+00   0.000E+00  -3.045E-03
 479  9.12224471   0.691  -1.99042   3.52877   6.88717   1.98621   0.00000   1.003E+00   0.000E+00  -3.064E-03
 480  9.12692600   0.691  -1.99032   3.52877   6.88713   1.98606   0.00000   1.003E+00   0.000E+00  -3.081E-03
 481  9.13155736   0.691  -1.99022   3.52877   6.88709   1.98592   0.00000   1.003E+00   0.000E+00  -3.098E-03
 482  9.13613986   0.691  -1.99012   3.52877   6.88704   1.98577   0.00000   1.003E+00   0.000E+00  -3.115E-03
 483  9.14067451   0.691  -1.99002   3.52877   6.88700   1.98562   0.00000   1.003E+00   0.000E+00  -3.133E-03
 484  9.14516230   0.691  -1.98992   3.52877   6.88696   1.98547   0.00000   1.003E+00   0.000E+00  -3.150E-03
 485  9.14960418   0.691  -1.98982   3.52877   6.88692   1.98533   0.00000   1.003E+00   0.000E+00  -3.167E-03
 486  9.15400110   0.691  -1.98972   3.52877   6.88688   1.98518   0.00000   1.003E+00   0.000E+00  -3.184E-03
 487  9.15835395   0.691  -1.98962   3.52877   6.88684   1.98503   0.00000   1.003E+00   0.000E+00  -3.202E-03
 488  9.16266360   0.691  -1.98952   3.52877   6.88680   1.98488   0.00000   1.003E+00   0.000E+00  -3.219E-03
 489  9.16693090   0.691  -1.98941   3.52877   6.88676   1.98473   0.00000   1.003E+00   0.000E+00  -3.236E-03
 490  9.17115669   0.691  -1.98931   3.52877   6.88672   1.98459   0.00000   1.003E+00   0.000E+00  -3.253E-03
 491  9.17534175   0.691  -1.98921   3.52877   6.88668   1.98444   0.00000   1.003E+00   0.000E+00  -3.270E-03
 492  9.17948686   0.691  -1.98911   3.52877   6.88664   1.98429   0.00000   1.003E+00   0.000E+00  -3.288E-03
 493  9.18359279   0.691  -1.98901   3.52877   6.88659   1.98413   0.00000   1.003E+00   0.000E+00  -3.301E-03
 494  9.18766026   0.691  -1.98890   3.52877   6.88654   1.98397   0.00000   1.003E+00   0.000E+00  -3.313E-03
 495  9.19168999   0.691  -1.98880   3.52877   6.88650   1.98382   0.00000   1.003E+00   0.000E+00  -3.325E-03
 496  9.19568268   0.691  -1.98869   3.52877   6.88645   1.98366   0.00000   1.003E+00   0.000E+00  -3.337E-03
 497  9.19963899   0.691  -1.98858   3.52877   6.88641   1.98350   0.00000   1.003E+00   0.000E+00  -3.349E-03
 498  9.20355958   0.691  -1.98848   3.52877   6.88636   1.98334   0.00000   1.003E+00   0.000E+00  -3.362E-03
 499  9.20744510   0.691  -1.98837   3.52877   6.88631   1.98318   0.00000   1.003E+00   0.000E+00  -3.374E-03
 500  9.21129616   0.691  -1.98826   3.52878   6.88627   1.98302   0.00000   1.003E+00   0.000E+00  -3.386E-03
 501  9.21511338   0.691  -1.98816   3.52878   6.88622   1.98286   0.00000   1.003E+00   0.000E+00  -3.398E-03
 502  9.21889733   0.691  -1.98805   3.52878   6.88618   1.98270   0.00000   1.003E+00   0.000E+00  -3.410E-03
 503  9.22264860   0.691  -1.98795   3.52878   6.88613   1.98255   0.00000   1.003E+00   0.000E+00  -3.423E-03
 504  9.22636775   0.691  -1.98784   3.52878   6.88608   1.98239   0.00000   1.003E+00   0.000E+00  -3.435E-03
 505  9.23005532   0.691  -1.98773   3.52878   6.88604   1.98223   0.00000   1.003E+00   0.000E+00  -3.447E-03
 506  9.23371184   0.691  -1.98763   3.52878   6.88599   1.98207   0.00000   1.003E+00   0.000E+00  -3.459E-03
 507  9.23733783   0.690  -1.98752   3.52878   6.88595   1.98191   0.00000   1.003E+00   0.000E+00  -3.463E-03
 508  9.24093379   0.690  -1.98741   3.52878   6.88590   1.98175   0.00000   1.003E+00   0.000E+00  -3.467E-03
 509  9.24450023   0.690  -1.98730   3.52878   6.88586   1.98159   0.00000   1.003E+00   0.000E+00  -3.471E-03
 510  9.24803762   0.690  -1.98720   3.52878   6.88581   1.98143   0.00000   1.003E+00   0.000E+00  -3.474E-03
 511  9.25154642   0.690  -1.98709   3.52878   6.88577   1.98127   0.00000   1.003E+00   0.000E+00  -3.478E-03
 512  9.25502711   0.690  -1.98698   3.52878   6.88572   1.98111   0.00000   1.003E+00   0.000E+00  -3.481E-03
 513  9.25848012   0.690  -1.98687   3.52878   6.88568   1.98095   0.00000   1.003E+00   0.000E+00  -3.485E-03
 514  9.26190589   0.690  -1.98676   3.52878   6.88563   1.98079   0.00000   1.003E+00   0.000E+00  -3.489E-03
 515  9.26530485   0.690  -1.98666   3.52878   6.88559   1.98063   0.00000   1.003E+00   0.000E+00  -3.492E-03
 516  9.26867742   0.690  -1.98655   3.52878   6.88554   1.98047   0.00000   1.003E+00   0.000E+00  -3.496E-03
 517  9.27202400   0.690  -1.98644   3.52878   6.88550   1.98031   0.00000   1.003E+00   0.000E+00  -3.499E-03
 518  9.27534498   0.690  -1.98633   3.52878   6.88545   1.98015   0.00000   1.003E+00   0.000E+00  -3.503E-03
 519  9.27864077   0.690  -1.98623   3.52878   6.88540   1.97999   0.00000   1.003E+00   0.000E+00  -3.506E-03
 520  9.28191173   0.690  -1.98612   3.52878   6.88536   1.97983   0.00000   1.003E+00   0.000E+00  -3.510E-03
 521  9.28515824   0.690  -1.98601   3.52878   6.88531   1.97967   0.00000   1.003E+00   0.000E+00  -3.511E-03
 522  9.28838066   0.690  -1.98590   3.52878   6.88527   1.97951   0.00000   1.003E+00   0.000E+00  -3.511E-03
 523  9.29157935   0.690  -1.98579   3.52878   6.88522   1.97935   0.00000   1.003E+00   0.000E+00  -3.512E-03
 524  9.29475465   0.690  -1.98568   3.52878   6.88518   1.97919   0.00000   1.003E+00   0.000E+00  -3.513E-03
 525  9.29790690   0.690  -1.98557   3.52878   6.88513   1.97903   0.00000   1.003E+00   0.000E+00  -3.514E-03
 526  9.30103644   0.690  -1.98546   3.52878   6.88508   1.97887   0.00000   1.003E+00   0.000E+00  -3.514E-03
 527  9.30414358   0.690  -1.98535   3.52879   6.88504   1.97871   0.00000   1.003E+00   0.000E+00  -3.515E-03
 528  9.30722866   0.690  -1.98525   3.52879   6.88499   1.97855   0.00000   1.003E+00   0.000E+00  -3.516E-03
 529  9.31029197   0.690  -1.98514   3.52879   6.88495   1.97839   0.00000   1.003E+00   0.000E+00  -3.516E-03
 530  9.31333383   0.690  -1.98503   3.52879   6.88490   1.97823   0.00000   1.003E+00   0.000E+00  -3.517E-03
 531  9.31635453   0.690  -1.98492   3.52879   6.88485   1.97807   0.00000   1.003E+00   0.000E+00  -3.518E-03
 532  9.31935437   0.690  -1.98481   3.52879   6.88481   1.97791   0.00000   1.003E+00   0.000E+00  -3.519E-03
 533  9.32233362   0.690  -1.98470   3.52879   6.88476   1.97775   0.00000   1.003E+00   0.000E+00  -3.519E-03
 534  9.32529258   0.690  -1.98459   3.52879   6.88472   1.97759   0.00000   1.003E+00   0.000E+00  -3.520E-03
 535  9.32823151   0.690  -1.98448   3.52879   6.88467   1.97743   0.00000   1.003E+00   0.000E+00  -3.517E-03
 536  9.33115069   0.690  -1.98437   3.52879   6.88463   1.97727   0.00000   1.003E+00   0.000E+00  -3.514E-03
 537  9.33405038   0.690  -1.98427   3.52879   6.88458   1.97711   0.00000   1.003E+00   0.000E+00  -3.511E-03
 538  9.33693084   0.690  -1.98416   3.52879   6.88454   1.97695   0.00000   1.003E+00   0.000E+00  -3.508E-03
 539  9.33979232   0.690  -1.98405   3.52879   6.88449   1.97679   0.00000   1.003E+00   0.000E+00  -3.505E-03
 540  9.34263506   0.690  -1.98394   3.52879   6.88444   1.97663   0.00000   1.003E+00   0.000E+00  -3.503E-03
 541  9.34545932   0.690  -1.98383   3.52879   6.88440   1.97647   0.00000   1.003E+00   0.000E+00  -3.500E-03
 542  9.34826534   0.690  -1.98372   3.52879   6.88435   1.97631   0.00000   1.003E+00   0.000E+00  -3.497E-03
 543  9.35105334   0.690  -1.98361   3.52879   6.88431   1.97615   0.00000   1.003E+00   0.000E+00  -3.494E-03
 544  9.35382355   0.690  -1.98351   3.52879   6.88426   1.97599   0.00000   1.003E+00   0.000E+00  -3.491E-03
 545  9.35657621   0.690  -1.98340   3.52879   6.88422   1.97583   0.00000   1.003E+00   0.000E+00  -3.488E-03
 546  9.35931153   0.690  -1.98329   3.52879   6.88417   1.97566   0.00000   1.003E+00   0.000E+00  -3.485E-03
 547  9.36202973   0.690  -1.98318   3.52879   6.88413   1.97550   0.00000   1.003E+00   0.000E+00  -3.482E-03
 548  9.36473102   0.690  -1.98307   3.52879   6.88408   1.97535   0.00000   1.003E+00   0.000E+00  -3.479E-03
 549  9.36741561   0.690  -1.98297   3.52879   6.88404   1.97519   0.00000   1.003E+00   0.000E+00  -3.474E-03
 550  9.37008372   0.690  -1.98286   3.52879   6.88399   1.97503   0.00000   1.003E+00   0.000E+00  -3.469E-03
 551  9.37273553   0.690  -1.98275   3.52879   6.88395   1.97487   0.00000   1.003E+00   0.000E+00  -3.464E-03
 552  9.37537124   0.690  -1.98265   3.52879   6.88390   1.97472   0.00000   1.003E+00   0.000E+00  -3.459E-03
 553  9.37799106   0.690  -1.98254   3.52879   6.88386   1.97456   0.00000   1.003E+00   0.000E+00  -3.454E-03
 554  9.38059517   0.690  -1.98244   3.52879   6.88382   1.97440   0.00000   1.003E+00   0.000E+00  -3.449E-03
 555  9.38318375   0.690  -1.98233   3.52879   6.88377   1.97424   0.00000   1.003E+00   0.000E+00  -3.444E-03
 556  9.38575700   0.690  -1.98222   3.52879   6.88373   1.97409   0.00000   1.003E+00   0.000E+00  -3.439E-03
 557  9.38831509   0.690  -1.98212   3.52879   6.88368   1.97393   0.00000   1.003E+00   0.000E+00  -3.434E-03
 558  9.39085820   0.690  -1.98201   3.52879   6.88364   1.97377   0.00000   1.003E+00   0.000E+00  -3.429E-03
 559  9.39338651   0.690  -1.98190   3.52879   6.88359   1.97362   0.00000   1.003E+00   0.000E+00  -3.424E-03
 560  9.39590018   0.690  -1.98180   3.52879   6.88355   1.97346   0.00000   1.003E+00   0.000E+00  -3.419E-03
 561  9.39839939   0.690  -1.98169   3.52879   6.88350   1.97330   0.00000   1.003E+00   0.000E+00  -3.414E-03
 562  9.40088430   0.690  -1.98159   3.52879   6.88346   1.97314   0.00000   1.003E+00   0.000E+00  -3.409E-03
 563  9.40335507   0.690  -1.98148   3.52879   6.88342   1.97299   0.00000   1.003E+00   0.000E+00  -3.402E-03
 564  9.40581186   0.690  -1.98138   3.52879   6.88337   1.97284   0.00000   1.003E+00   0.000E+00  -3.396E-03
 565  9.40825484   0.690  -1.98127   3.52879   6.88333   1.97268   0.00000   1.003E+00   0.000E+00  -3.389E-03
 566  9.41068415   0.690  -1.98117   3.52879   6.88328   1.97253   0.00000   1.003E+00   0.000E+00  -3.383E-03
 567  9.41309994   0.690  -1.98107   3.52879   6.88324   1.97238   0.00000   1.003E+00   0.000E+00  -3.376E-03
 568  9.41550237   0.690  -1.98096   3.52879   6.88320   1.97222   0.00000   1.003E+00   0.000E+00  -3.370E-03
 569  9.41789159   0.690  -1.98086   3.52880   6.88315   1.97207   0.00000   1.003E+00   0.000E+00  -3.363E-03
 570  9.42026773   0.690  -1.98075   3.52880   6.88311   1.97192   0.00000   1.003E+00   0.000E+00  -3.357E-03
 571  9.42263094   0.690  -1.98065   3.52880   6.88307   1.97176   0.00000   1.003E+00   0.000E+00  -3.350E-03
 572  9.42498136   0.690  -1.98054   3.52880   6.88302   1.97161   0.00000   1.003E+00   0.000E+00  -3.344E-03
 573  9.42731914   0.690  -1.98044   3.52880   6.88298   1.97145   0.00000   1.003E+00   0.000E+00  -3.337E-03
 574  9.42964439   0.690  -1.98034   3.52880   6.88293   1.97130   0.00000   1.003E+00   0.000E+00  -3.331E-03
 575  9.43195726   0.690  -1.98023   3.52880   6.88289   1.97115   0.00000   1.003E+00   0.000E+00  -3.324E-03
 576  9.43425788   0.690  -1.98013   3.52880   6.88285   1.97099   0.00000   1.003E+00   0.000E+00  -3.318E-03
 577  9.43654637   0.690  -1.98003   3.52880   6.88280   1.97084   0.00000   1.003E+00   0.000E+00  -3.310E-03
 578  9.43882287   0.690  -1.97993   3.52880   6.88276   1.97069   0.00000   1.003E+00   0.000E+00  -3.302E-03
 579  9.44108750   0.690  -1.97983   3.52880   6.88272   1.97054   0.00000   1.003E+00   0.000E+00  -3.294E-03
 580  9.44334038   0.690  -1.97972   3.52880   6.88267   1.97039   0.00000   1.003E+00   0.000E+00  -3.286E-03
 581  9.44558164   0.690  -1.97962   3.52880   6.88263   1.97024   0.00000   1.003E+00   0.000E+00  -3.278E-03
 582  9.44781139   0.690  -1.97952   3.52880   6.88259   1.97009   0.00000   1.003E+00   0.000E+00  -3.270E-03
 583  9.45002974   0.690  -1.97942   3.52880   6.88255   1.96994   0.00000   1.003E+00   0.000E+00  -3.262E-03
 584  9.45223683   0.690  -1.97932   3.52880   6.88250   1.96979   0.00000   1.003E+00   0.000E+00  -3.254E-03
 585  9.45443275   0.690  -1.97922   3.52880   6.88246   1.96964   0.00000   1.003E+00   0.000E+00  -3.247E-03
 586  9.45661763   0.690  -1.97912   3.52880   6.88242   1.96949   0.00000   1.003E+00   0.000E+00  -3.239E-03
 587  9.45879157   0.690  -1.97902   3.52880   6.88237   1.96934   0.00000   1.003E+00   0.000E+00  -3.231E-03
 588  9.46095468   0.689  -1.97891   3.52880   6.88233   1.96919   0.00000   1.003E+00   0.000E+00  -3.223E-03
 589  9.46310708   0.689  -1.97881   3.52880   6.88229   1.96904   0.00000   1.003E+00   0.000E+00  -3.215E-03
 590  9.46524885   0.689  -1.97871   3.52880   6.88224   1.96890   0.00000   1.003E+00   0.000E+00  -3.207E-03
 591  9.46738012   0.689  -1.97861   3.52880   6.88220   1.96875   0.00000   1.003E+00   0.000E+00  -3.199E-03
 592  9.46950098   0.689  -1.97852   3.52880   6.88216   1.96861   0.00000   1.003E+00   0.000E+00  -3.191E-03
 593  9.47161153   0.689  -1.97842   3.52880   6.88212   1.96846   0.00000   1.003E+00   0.000E+00  -3.183E-03
 594  9.47371188   0.689  -1.97832   3.52880   6.88208   1.96832   0.00000   1.003E+00   0.000E+00  -3.175E-03
 595  9.47580211   0.689  -1.97822   3.52880   6.88204   1.96817   0.00000   1.003E+00   0.000E+00  -3.168E-03
 596  9.47788234   0.689  -1.97812   3.52880   6.88200   1.96803   0.00000   1.003E+00   0.000E+00  -3.160E-03
 597  9.47995264   0.689  -1.97802   3.52880   6.88196   1.96788   0.00000   1.003E+00   0.000E+00  -3.152E-03
 598  9.48201313   0.689  -1.97793   3.52880   6.88192   1.96774   0.00000   1.003E+00   0.000E+00  -3.144E-03
 599  9.48406388   0.689  -1.97783   3.52880   6.88188   1.96759   0.00000   1.003E+00   0.000E+00  -3.136E-03
 600  9.48610500   0.689  -1.97773   3.52880   6.88184   1.96744   0.00000   1.003E+00   0.000E+00  -3.128E-03
 601  9.48813657   0.689  -1.97763   3.52880   6.88179   1.96730   0.00000   1.003E+00   0.000E+00  -3.120E-03
 602  9.49015868   0.689  -1.97753   3.52880   6.88175   1.96715   0.00000   1.003E+00   0.000E+00  -3.112E-03
 603  9.49217142   0.689  -1.97743   3.52880   6.88171   1.96701   0.00000   1.003E+00   0.000E+00  -3.104E-03
 604  9.49417487   0.689  -1.97734   3.52880   6.88167   1.96687   0.00000   1.003E+00   0.000E+00  -3.096E-03
 605  9.49616912   0.689  -1.97724   3.52880   6.88163   1.96673   0.00000   1.003E+00   0.000E+00  -3.088E-03
 606  9.49815426   0.689  -1.97715   3.52880   6.88159   1.96659   0.00000   1.003E+00   0.000E+00  -3.079E-03
 607  9.50013037   0.689  -1.97705   3.52880   6.88155   1.96645   0.00000   1.003E+00   0.000E+00  -3.070E-03
 608  9.50209752   0.689  -1.97696   3.52880   6.88151   1.96631   0.00000   1.003E+00   0.000E+00  -3.062E-03
 609  9.50405580   0.689  -1.97686   3.52880   6.88147   1.96617   0.00000   1.003E+00   0.000E+00  -3.053E-03
 610  9.50600530   0.689  -1.97676   3.52880   6.88143   1.96603   0.00000   1.003E+00   0.000E+00  -3.044E-03
 611  9.50794608   0.689  -1.97667   3.52881   6.88139   1.96589   0.00000   1.003E+00   0.000E+00  -3.036E-03
 612  9.50987823   0.689  -1.97657   3.52881   6.88135   1.96575   0.00000   1.003E+00   0.000E+00  -3.027E-03
 613  9.51180181   0.689  -1.97648   3.52881   6.88131   1.96561   0.00000   1.003E+00   0.000E+00  -3.019E-03
 614  9.51371692   0.689  -1.97638   3.52881   6.88127   1.96547   0.00000   1.003E+00   0.000E+00  -3.010E-03
 615  9.51562362   0.689  -1.97629   3.52881   6.88123   1.96533   0.00000   1.003E+00   0.000E+00  -3.001E-03
 616  9.51752198   0.689  -1.97619   3.52881   6.88119   1.96519   0.00000   1.003E+00   0.000E+00  -2.993E-03
 617  9.51941209   0.689  -1.97610   3.52881   6.88115   1.96505   0.00000   1.003E+00   0.000E+00  -2.984E-03
 618  9.52129400   0.689  -1.97600   3.52881   6.88111   1.96491   0.00000   1.003E+00   0.000E+00  -2.976E-03
 619  9.52316779   0.689  -1.97591   3.52881   6.88107   1.96477   0.00000   1.003E+00   0.000E+00  -2.968E-03
 620  9.52503353   0.689  -1.97582   3.52881   6.88103   1.96464   0.00000   1.003E+00   0.000E+00  -2.960E-03
 621  9.52689130   0.689  -1.97573   3.52881   6.88100   1.96450   0.00000   1.003E+00   0.000E+00  -2.952E-03
 622  9.52874114   0.689  -1.97563   3.52881   6.88096   1.96437   0.00000   1.003E+00   0.000E+00  -2.944E-03
 623  9.53058315   0.689  -1.97554   3.52881   6.88092   1.96423   0.00000   1.003E+00   0.000E+00  -2.936E-03
 624  9.53241737   0.689  -1.97545   3.52881   6.88088   1.96409   0.00000   1.003E+00   0.000E+00  -2.928E-03
 625  9.53424388   0.689  -1.97536   3.52881   6.88084   1.96396   0.00000   1.003E+00   0.000E+00  -2.921E-03
 626  9.53606274   0.689  -1.97527   3.52881   6.88081   1.96382   0.00000   1.003E+00   0.000E+00  -2.913E-03
 627  9.53787401   0.689  -1.97517   3.52881   6.88077   1.96369   0.00000   1.003E+00   0.000E+00  -2.905E-03
 628  9.53967776   0.689  -1.97508   3.52881   6.88073   1.96355   0.00000   1.003E+00   0.000E+00  -2.897E-03
 629  9.54147405   0.689  -1.97499   3.52881   6.88069   1.96342   0.00000   1.003E+00   0.000E+00  -2.889E-03
 630  9.54326294   0.689  -1.97490   3.52881   6.88065   1.96328   0.00000   1.003E+00   0.000E+00  -2.881E-03
 631  9.54504450   0.689  -1.97481   3.52881   6.88062   1.96314   0.00000   1.003E+00   0.000E+00  -2.873E-03
 632  9.54681877   0.689  -1.97472   3.52881   6.88058   1.96301   0.00000   1.003E+00   0.000E+00  -2.865E-03
 633  9.54858583   0.689  -1.97463   3.52881   6.88054   1.96288   0.00000   1.003E+00   0.000E+00  -2.856E-03
 634  9.55034572   0.689  -1.97454   3.52881   6.88050   1.96275   0.00000   1.003E+00   0.000E+00  -2.848E-03
 635  9.55209851   0.689  -1.97445   3.52881   6.88047   1.96262   0.00000   1.003E+00   0.000E+00  -2.839E-03
 636  9.55384426   0.689  -1.97436   3.52881   6.88043   1.96249   0.00000   1.003E+00   0.000E+00  -2.830E-03
 637  9.55558301   0.689  -1.97428   3.52881   6.88039   1.96236   0.00000   1.003E+00   0.000E+00  -2.822E-03
 638  9.55731484   0.689  -1.97419   3.52881   6.88035   1.96223   0.00000   1.003E+00   0.000E+00  -2.813E-03
 639  9.55903978   0.689  -1.97410   3.52881   6.88032   1.96210   0.00000   1.003E+00   0.000E+00  -2.805E-03
 640  9.56075790   0.689  -1.97401   3.52881   6.88028   1.96197   0.00000   1.003E+00   0.000E+00  -2.796E-03
 641  9.56246925   0.689  -1.97392   3.52881   6.88024   1.96184   0.00000   1.003E+00   0.000E+00  -2.787E-03
 642  9.56417388   0.689  -1.97383   3.52881   6.88020   1.96171   0.00000   1.003E+00   0.000E+00  -2.779E-03
 643  9.56587185   0.689  -1.97375   3.52881   6.88017   1.96158   0.00000   1.003E+00   0.000E+00  -2.770E-03
 644  9.56756321   0.689  -1.97366   3.52881   6.88013   1.96145   0.00000   1.003E+00   0.000E+00  -2.761E-03
 645  9.56924800   0.689  -1.97357   3.52881   6.88009   1.96132   0.00000   1.003E+00   0.000E+00  -2.753E-03
 646  9.57092629   0.689  -1.97348   3.52881   6.88006   1.96120   0.00000   1.003E+00   0.000E+00  -2.744E-03
 647  9.57259811   0.689  -1.97340   3.52881   6.88002   1.96107   0.00000   1.003E+00   0.000E+00  -2.736E-03
 648  9.57426352   0.689  -1.97331   3.52881   6.87999   1.96094   0.00000   1.003E+00   0.000E+00  -2.727E-03
 649  9.57592257   0.689  -1.97323   3.52881   6.87995   1.96082   0.00000   1.003E+00   0.000E+00  -2.718E-03
 650  9.57757531   0.689  -1.97314   3.52881   6.87992   1.96069   0.00000   1.003E+00   0.000E+00  -2.710E-03
 651  9.57922178   0.689  -1.97306   3.52881   6.87988   1.96057   0.00000   1.003E+00   0.000E+00  -2.701E-03
 652  9.58086203   0.689  -1.97297   3.52881   6.87985   1.96044   0.00000   1.003E+00   0.000E+00  -2.693E-03
 653  9.58249611   0.689  -1.97288   3.52882   6.87981   1.96032   0.00000   1.003E+00   0.000E+00  -2.684E-03
 654  9.58412406   0.689  -1.97280   3.52882   6.87978   1.96019   0.00000   1.003E+00   0.000E+00  -2.675E-03
 655  9.58574594   0.689  -1.97271   3.52882   6.87974   1.96007   0.00000   1.003E+00   0.000E+00  -2.667E-03
 656  9.58736178   0.689  -1.97263   3.52882   6.87970   1.95994   0.00000   1.003E+00   0.000E+00  -2.658E-03
 657  9.58897163   0.689  -1.97254   3.52882   6.87967   1.95981   0.00000   1.003E+00   0.000E+00  -2.649E-03
 658  9.59057554   0.689  -1.97246   3.52882   6.87963   1.95969   0.00000   1.003E+00   0.000E+00  -2.641E-03
 659  9.59217354   0.689  -1.97237   3.52882   6.87960   1.95956   0.00000   1.003E+00   0.000E+00  -2.632E-03
 660  9.59376569   0.689  -1.97229   3.52882   6.87956   1.95944   0.00000   1.003E+00   0.000E+00  -2.624E-03
 661  9.59535202   0.689  -1.97221   3.52882   6.87953   1.95932   0.00000   1.003E+00   0.000E+00  -2.616E-03
 662  9.59693257   0.689  -1.97212   3.52882   6.87950   1.95920   0.00000   1.003E+00   0.000E+00  -2.608E-03
 663  9.59850740   0.689  -1.97204   3.52882   6.87946   1.95908   0.00000   1.003E+00   0.000E+00  -2.600E-03
 664  9.60007654   0.689  -1.97196   3.52882   6.87943   1.95896   0.00000   1.003E+00   0.000E+00  -2.593E-03
 665  9.60164002   0.689  -1.97188   3.52882   6.87940   1.95884   0.00000   1.003E+00   0.000E+00  -2.585E-03
 666  9.60319790   0.689  -1.97179   3.52882   6.87936   1.95872   0.00000   1.003E+00   0.000E+00  -2.577E-03
 667  9.60475021   0.689  -1.97171   3.52882   6.87933   1.95860   0.00000   1.003E+00   0.000E+00  -2.569E-03
 668  9.60629699   0.689  -1.97163   3.52882   6.87930   1.95848   0.00000   1.003E+00   0.000E+00  -2.561E-03
 669  9.60783828   0.689  -1.97155   3.52882   6.87926   1.95835   0.00000   1.003E+00   0.000E+00  -2.553E-03
 670  9.60937412   0.689  -1.97146   3.52882   6.87923   1.95823   0.00000   1.003E+00   0.000E+00  -2.545E-03
 671  9.61090455   0.689  -1.97138   3.52882   6.87919   1.95811   0.00000   1.003E+00   0.000E+00  -2.537E-03
 672  9.61242961   0.689  -1.97130   3.52882   6.87916   1.95799   0.00000   1.003E+00   0.000E+00  -2.529E-03
 673  9.61394933   0.689  -1.97122   3.52882   6.87913   1.95787   0.00000   1.003E+00   0.000E+00  -2.521E-03
 674  9.61546374   0.689  -1.97114   3.52882   6.87909   1.95776   0.00000   1.003E+00   0.000E+00  -2.514E-03
 675  9.61697290   0.689  -1.97106   3.52882   6.87906   1.95764   0.00000   1.003E+00   0.000E+00  -2.507E-03
 676  9.61847683   0.689  -1.97098   3.52882   6.87903   1.95752   0.00000   1.003E+00   0.000E+00  -2.500E-03
 677  9.61997557   0.689  -1.97090   3.52882   6.87899   1.95741   0.00000   1.003E+00   0.000E+00  -2.493E-03
 678  9.62146916   0.689  -1.97082   3.52882   6.87896   1.95729   0.00000   1.003E+00   0.000E+00  -2.485E-03
 679  9.62295762   0.689  -1.97074   3.52882   6.87893   1.95718   0.00000   1.003E+00   0.000E+00  -2.478E-03
 680  9.62444101   0.689  -1.97066   3.52882   6.87889   1.95706   0.00000   1.003E+00   0.000E+00  -2.471E-03
 681  9.62591934   0.688  -1.97058   3.52883   6.87886   1.95695   0.00000   1.002E+00   0.000E+00  -2.464E-03
 682  9.62739266   0.688  -1.97050   3.52883   6.87883   1.95683   0.00000   1.002E+00   0.000E+00  -2.457E-03
 683  9.62886099   0.688  -1.97042   3.52883   6.87880   1.95672   0.00000   1.002E+00   0.000E+00  -2.450E-03
 684  9.63032438   0.688  -1.97035   3.52883   6.87876   1.95660   0.00000   1.002E+00   0.000E+00  -2.442E-03
 685  9.63178286   0.688  -1.97027   3.52883   6.87873   1.95648   0.00000   1.002E+00   0.000E+00  -2.435E-03
 686  9.63323645   0.688  -1.97019   3.52883   6.87870   1.95637   0.00000   1.002E+00   0.000E+00  -2.428E-03
 687  9.63468519   0.688  -1.97011   3.52883   6.87866   1.95625   0.00000   1.002E+00   0.000E+00  -2.421E-03
 688  9.63612912   0.688  -1.97003   3.52883   6.87863   1.95614   0.00000   1.002E+00   0.000E+00  -2.414E-03
 689  9.63756826   0.688  -1.96996   3.52883   6.87860   1.95603   0.00000   1.002E+00   0.000E+00  -2.406E-03
 690  9.63900265   0.688  -1.96988   3.52883   6.87857   1.95592   0.00000   1.002E+00   0.000E+00  -2.399E-03
 691  9.64043232   0.688  -1.96980   3.52883   6.87854   1.95580   0.00000   1.002E+00   0.000E+00  -2.392E-03
 692  9.64185730   0.688  -1.96973   3.52883   6.87851   1.95569   0.00000   1.002E+00   0.000E+00  -2.385E-03
 693  9.64327761   0.688  -1.96965   3.52883   6.87847   1.95558   0.00000   1.002E+00   0.000E+00  -2.378E-03
 694  9.64469330   0.688  -1.96958   3.52883   6.87844   1.95547   0.00000   1.002E+00   0.000E+00  -2.371E-03
 695  9.64610439   0.688  -1.96950   3.52883   6.87841   1.95536   0.00000   1.002E+00   0.000E+00  -2.363E-03
 696  9.64751090   0.688  -1.96942   3.52883   6.87838   1.95524   0.00000   1.002E+00   0.000E+00  -2.356E-03
 697  9.64891288   0.688  -1.96935   3.52883   6.87835   1.95513   0.00000   1.002E+00   0.000E+00  -2.349E-03
 698  9.65031034   0.688  -1.96927   3.52883   6.87832   1.95502   0.00000   1.002E+00   0.000E+00  -2.342E-03
 699  9.65170333   0.688  -1.96920   3.52883   6.87828   1.95491   0.00000   1.002E+00   0.000E+00  -2.335E-03
 700  9.65309186   0.688  -1.96912   3.52883   6.87825   1.95480   0.00000   1.002E+00   0.000E+00  -2.327E-03
 701  9.65447596   0.688  -1.96904   3.52883   6.87822   1.95468   0.00000   1.002E+00   0.000E+00  -2.320E-03
 702  9.65585567   0.688  -1.96897   3.52883   6.87819   1.95458   0.00000   1.002E+00   0.000E+00  -2.313E-03
 703  9.65723100   0.688  -1.96890   3.52883   6.87816   1.95447   0.00000   1.002E+00   0.000E+00  -2.306E-03
 704  9.65860200   0.688  -1.96882   3.52883   6.87813   1.95436   0.00000   1.002E+00   0.000E+00  -2.299E-03
 705  9.65996868   0.688  -1.96875   3.52883   6.87810   1.95426   0.00000   1.002E+00   0.000E+00  -2.292E-03
 706  9.66133107   0.688  -1.96868   3.52883   6.87807   1.95415   0.00000   1.002E+00   0.000E+00  -2.284E-03
 707  9.66268921   0.688  -1.96860   3.52883   6.87804   1.95404   0.00000   1.002E+00   0.000E+00  -2.277E-03
 708  9.66404311   0.688  -1.96853   3.52883   6.87801   1.95394   0.00000   1.002E+00   0.000E+00  -2.270E-03
 709  9.66539280   0.688  -1.96846   3.52883   6.87798   1.95383   0.00000   1.002E+00   0.000E+00  -2.263E-03
 710  9.66673831   0.688  -1.96838   3.52883   6.87795   1.95372   0.00000   1.002E+00   0.000E+00  -2.256E-03
 711  9.66807966   0.688  -1.96831   3.52883   6.87792   1.95361   0.00000   1.002E+00   0.000E+00  -2.248E-03
 712  9.66941689   0.688  -1.96824   3.52883   6.87789   1.95351   0.00000   1.002E+00   0.000E+00  -2.241E-03
 713  9.67075001   0.688  -1.96816   3.52883   6.87786   1.95340   0.00000   1.002E+00   0.000E+00  -2.234E-03
 714  9.67207905   0.688  -1.96809   3.52883   6.87783   1.95329   0.00000   1.002E+00   0.000E+00  -2.227E-03
 715  9.67340403   0.688  -1.96802   3.52883   6.87780   1.95319   0.00000   1.002E+00   0.000E+00  -2.220E-03
 716  9.67472499   0.688  -1.96795   3.52883   6.87777   1.95308   0.00000   1.002E+00   0.000E+00  -2.213E-03
 717  9.67604194   0.688  -1.96788   3.52883   6.87774   1.95298   0.00000   1.002E+00   0.000E+00  -2.207E-03
 718  9.67735490   0.688  -1.96781   3.52883   6.87771   1.95288   0.00000   1.002E+00   0.000E+00  -2.200E-03
 719  9.67866391   0.688  -1.96774   3.52883   6.87768   1.95277   0.00000   1.002E+00   0.000E+00  -2.194E-03
 720  9.67996899   0.688  -1.96767   3.52883   6.87766   1.95267   0.00000   1.002E+00   0.000E+00  -2.187E-03
 721  9.68127016   0.688  -1.96760   3.52883   6.87763   1.95257   0.00000   1.002E+00   0.000E+00  -2.181E-03
 722  9.68256744   0.688  -1.96753   3.52884   6.87760   1.95246   0.00000   1.002E+00   0.000E+00  -2.175E-03
 723  9.68386085   0.688  -1.96745   3.52884   6.87757   1.95236   0.00000   1.002E+00   0.000E+00  -2.168E-03
 724  9.68515043   0.688  -1.96738   3.52884   6.87754   1.95226   0.00000   1.002E+00   0.000E+00  -2.162E-03
 725  9.68643619   0.688  -1.96731   3.52884   6.87751   1.95215   0.00000   1.002E+00   0.000E+00  -2.155E-03
 726  9.68771815   0.688  -1.96724   3.52884   6.87748   1.95205   0.00000   1.002E+00   0.000E+00  -2.149E-03
 727  9.68899634   0.688  -1.96717   3.52884   6.87745   1.95195   0.00000   1.002E+00   0.000E+00  -2.142E-03
 728  9.69027078   0.688  -1.96710   3.52884   6.87743   1.95184   0.00000   1.002E+00   0.000E+00  -2.136E-03
 729  9.69154149   0.688  -1.96703   3.52884   6.87740   1.95174   0.00000   1.002E+00   0.000E+00  -2.129E-03
 730  9.69280849   0.688  -1.96696   3.52884   6.87737   1.95164   0.00000   1.002E+00   0.000E+00  -2.123E-03
 731  9.69407181   0.688  -1.96690   3.52884   6.87734   1.95154   0.00000   1.002E+00   0.000E+00  -2.116E-03
 732  9.69533146   0.688  -1.96683   3.52884   6.87731   1.95144   0.00000   1.002E+00   0.000E+00  -2.110E-03
 733  9.69658747   0.688  -1.96676   3.52884   6.87729   1.95134   0.00000   1.002E+00   0.000E+00  -2.103E-03
 734  9.69783986   0.688  -1.96669   3.52884   6.87726   1.95124   0.00000   1.002E+00   0.000E+00  -2.097E-03
 735  9.69908865   0.688  -1.96662   3.52884   6.87723   1.95115   0.00000   1.002E+00   0.000E+00  -2.091E-03
 736  9.70033385   0.688  -1.96656   3.52884   6.87720   1.95105   0.00000   1.002E+00   0.000E+00  -2.084E-03
 737  9.70157550   0.688  -1.96649   3.52884   6.87717   1.95095   0.00000   1.002E+00   0.000E+00  -2.078E-03
 738  9.70281361   0.688  -1.96642   3.52884   6.87715   1.95085   0.00000   1.002E+00   0.000E+00  -2.071E-03
 739  9.70404819   0.688  -1.96635   3.52884   6.87712   1.95075   0.00000   1.002E+00   0.000E+00  -2.065E-03
 740  9.70527928   0.688  -1.96628   3.52884   6.87709   1.95065   0.00000   1.002E+00   0.000E+00  -2.058E-03
 741  9.70650689   0.688  -1.96621   3.52884   6.87706   1.95055   0.00000   1.002E+00   0.000E+00  -2.052E-03
 742  9.70773104   0.688  -1.96615   3.52884   6.87703   1.95045   0.00000   1.002E+00   0.000E+00  -2.045E-03
 743  9.70895174   0.688  -1.96608   3.52884   6.87701   1.95035   0.00000   1.002E+00   0.000E+00  -2.039E-03
 744  9.71016903   0.688  -1.96601   3.52884   6.87698   1.95026   0.00000   1.002E+00   0.000E+00  -2.033E-03
 745  9.71138291   0.688  -1.96595   3.52884   6.87695   1.95016   0.00000   1.002E+00   0.000E+00  -2.027E-03
 746  9.71259341   0.688  -1.96588   3.52884   6.87693   1.95007   0.00000   1.002E+00   0.000E+00  -2.022E-03
 747  9.71380054   0.688  -1.96582   3.52884   6.87690   1.94997   0.00000   1.002E+00   0.000E+00  -2.016E-03
 748  9.71500433   0.688  -1.96575   3.52884   6.87687   1.94988   0.00000   1.002E+00   0.000E+00  -2.010E-03
 749  9.71620479   0.688  -1.96569   3.52884   6.87685   1.94978   0.00000   1.002E+00   0.000E+00  -2.005E-03
 750  9.71740194   0.688  -1.96562   3.52885   6.87682   1.94968   0.00000   1.002E+00   0.000E+00  -1.999E-03
 751  9.71859580   0.688  -1.96556   3.52885   6.87679   1.94959   0.00000   1.002E+00   0.000E+00  -1.993E-03
 752  9.71978639   0.688  -1.96549   3.52885   6.87677   1.94949   0.00000   1.002E+00   0.000E+00  -1.987E-03
 753  9.72097372   0.688  -1.96542   3.52885   6.87674   1.94940   0.00000   1.002E+00   0.000E+00  -1.982E-03
 754  9.72215782   0.688  -1.96536   3.52885   6.87671   1.94930   0.00000   1.002E+00   0.000E+00  -1.976E-03
 755  9.72333870   0.688  -1.96529   3.52885   6.87669   1.94921   0.00000   1.002E+00   0.000E+00  -1.970E-03
 756  9.72451637   0.688  -1.96523   3.52885   6.87666   1.94911   0.00000   1.002E+00   0.000E+00  -1.964E-03
 757  9.72569086   0.688  -1.96516   3.52885   6.87663   1.94902   0.00000   1.002E+00   0.000E+00  -1.959E-03
 758  9.72686218   0.688  -1.96510   3.52885   6.87661   1.94893   0.00000   1.002E+00   0.000E+00  -1.953E-03
 759  9.72803035   0.688  -1.96504   3.52885   6.87658   1.94883   0.00000   1.002E+00   0.000E+00  -1.947E-03
 760  9.72919539   0.688  -1.96497   3.52885   6.87656   1.94874   0.00000   1.002E+00   0.000E+00  -1.941E-03
 761  9.73035731   0.688  -1.96491   3.52885   6.87653   1.94865   0.00000   1.002E+00   0.000E+00  -1.936E-03
 762  9.73151613   0.688  -1.96485   3.52885   6.87650   1.94856   0.00000   1.002E+00   0.000E+00  -1.930E-03
 763  9.73267186   0.688  -1.96479   3.52885   6.87648   1.94847   0.00000   1.002E+00   0.000E+00  -1.924E-03
 764  9.73382453   0.688  -1.96472   3.52885   6.87645   1.94837   0.00000   1.002E+00   0.000E+00  -1.918E-03
 765  9.73497415   0.688  -1.96466   3.52885   6.87643   1.94828   0.00000   1.002E+00   0.000E+00  -1.913E-03
 766  9.73612073   0.688  -1.96460   3.52885   6.87640   1.94819   0.00000   1.002E+00   0.000E+00  -1.907E-03
 767  9.73726429   0.688  -1.96453   3.52885   6.87638   1.94810   0.00000   1.002E+00   0.000E+00  -1.901E-03
 768  9.73840485   0.688  -1.96447   3.52885   6.87635   1.94801   0.00000   1.002E+00   0.000E+00  -1.895E-03
 769  9.73954243   0.688  -1.96441   3.52885   6.87632   1.94791   0.00000   1.002E+00   0.000E+00  -1.890E-03
 770  9.74067703   0.688  -1.96434   3.52885   6.87630   1.94782   0.00000   1.002E+00   0.000E+00  -1.884E-03
 771  9.74180867   0.688  -1.96428   3.52885   6.87627   1.94773   0.00000   1.002E+00   0.000E+00  -1.878E-03
 772  9.74293737   0.688  -1.96422   3.52885   6.87625   1.94764   0.00000   1.002E+00   0.000E+00  -1.872E-03
 773  9.74406315   0.688  -1.96416   3.52885   6.87622   1.94755   0.00000   1.002E+00   0.000E+00  -1.867E-03
 774  9.74518602   0.688  -1.96410   3.52885   6.87620   1.94747   0.00000   1.002E+00   0.000E+00  -1.861E-03
 775  9.74630599   0.688  -1.96404   3.52885   6.87617   1.94738   0.00000   1.002E+00   0.000E+00  -1.855E-03
 776  9.74742308   0.688  -1.96398   3.52885   6.87615   1.94729   0.00000   1.002E+00   0.000E+00  -1.849E-03
 777  9.74853730   0.688  -1.96392   3.52885   6.87613   1.94720   0.00000   1.002E+00   0.000E+00  -1.844E-03
 778  9.74964867   0.688  -1.96386   3.52885   6.87610   1.94711   0.00000   1.002E+00   0.000E+00  -1.838E-03
 779  9.75075721   0.688  -1.96380   3.52885   6.87608   1.94702   0.00000   1.002E+00   0.000E+00  -1.832E-03
 780  9.75186292   0.688  -1.96374   3.52885   6.87605   1.94694   0.00000   1.002E+00   0.000E+00  -1.826E-03
 781  9.75296583   0.688  -1.96368   3.52885   6.87603   1.94685   0.00000   1.002E+00   0.000E+00  -1.821E-03
 782  9.75406594   0.688  -1.96362   3.52885   6.87600   1.94676   0.00000   1.002E+00   0.000E+00  -1.815E-03
 783  9.75516327   0.688  -1.96356   3.52885   6.87598   1.94667   0.00000   1.002E+00   0.000E+00  -1.809E-03
 784  9.75625784   0.688  -1.96350   3.52885   6.87595   1.94658   0.00000   1.002E+00   0.000E+00  -1.803E-03
 785  9.75734965   0.687  -1.96344   3.52885   6.87593   1.94650   0.00000   1.002E+00   0.000E+00  -1.798E-03
 786  9.75843873   0.687  -1.96338   3.52885   6.87591   1.94641   0.00000   1.002E+00   0.000E+00  -1.793E-03
 787  9.75952508   0.687  -1.96332   3.52885   6.87588   1.94633   0.00000   1.002E+00   0.000E+00  -1.788E-03
 788  9.76060872   0.687  -1.96326   3.52885   6.87586   1.94624   0.00000   1.002E+00   0.000E+00  -1.783E-03
 789  9.76168967   0.687  -1.96320   3.52885   6.87584   1.94616   0.00000   1.002E+00   0.000E+00  -1.778E-03
 790  9.76276793   0.687  -1.96314   3.52885   6.87582   1.94607   0.00000   1.002E+00   0.000E+00  -1.773E-03
 791  9.76384352   0.687  -1.96308   3.52885   6.87579   1.94599   0.00000   1.002E+00   0.000E+00  -1.768E-03
 792  9.76491645   0.687  -1.96302   3.52886   6.87577   1.94590   0.00000   1.002E+00   0.000E+00  -1.763E-03
 793  9.76598674   0.687  -1.96297   3.52886   6.87575   1.94582   0.00000   1.002E+00   0.000E+00  -1.758E-03
 794  9.76705440   0.687  -1.96291   3.52886   6.87572   1.94573   0.00000   1.002E+00   0.000E+00  -1.753E-03
 795  9.76811944   0.687  -1.96285   3.52886   6.87570   1.94565   0.00000   1.002E+00   0.000E+00  -1.748E-03
 796  9.76918187   0.687  -1.96279   3.52886   6.87568   1.94556   0.00000   1.002E+00   0.000E+00  -1.743E-03
 797  9.77024171   0.687  -1.96273   3.52886   6.87566   1.94548   0.00000   1.002E+00   0.000E+00  -1.738E-03
 798  9.77129897   0.687  -1.96267   3.52886   6.87563   1.94539   0.00000   1.002E+00   0.000E+00  -1.733E-03
 799  9.77235367   0.687  -1.96261   3.52886   6.87561   1.94531   0.00000   1.002E+00   0.000E+00  -1.728E-03
 800  9.77340580   0.687  -1.96256   3.52886   6.87559   1.94523   0.00000   1.002E+00   0.000E+00  -1.723E-03
 801  9.77445540   0.687  -1.96250   3.52886   6.87556   1.94515   0.00000   1.002E+00   0.000E+00  -1.718E-03
 802  9.77550246   0.687  -1.96244   3.52886   6.87554   1.94506   0.00000   1.002E+00   0.000E+00  -1.713E-03
 803  9.77654701   0.687  -1.96239   3.52886   6.87552   1.94498   0.00000   1.002E+00   0.000E+00  -1.708E-03
 804  9.77758905   0.687  -1.96233   3.52886   6.87549   1.94490   0.00000   1.002E+00   0.000E+00  -1.703E-03
 805  9.77862860   0.687  -1.96227   3.52886   6.87547   1.94482   0.00000   1.002E+00   0.000E+00  -1.697E-03
 806  9.77966566   0.687  -1.96222   3.52886   6.87545   1.94473   0.00000   1.002E+00   0.000E+00  -1.692E-03
 807  9.78070025   0.687  -1.96216   3.52886   6.87543   1.94465   0.00000   1.002E+00   0.000E+00  -1.687E-03
 808  9.78173239   0.687  -1.96210   3.52886   6.87540   1.94457   0.00000   1.002E+00   0.000E+00  -1.682E-03
 809  9.78276208   0.687  -1.96205   3.52886   6.87538   1.94449   0.00000   1.002E+00   0.000E+00  -1.677E-03
 810  9.78378933   0.687  -1.96199   3.52886   6.87536   1.94440   0.00000   1.002E+00   0.000E+00  -1.672E-03
 811  9.78481416   0.687  -1.96193   3.52886   6.87533   1.94432   0.00000   1.002E+00   0.000E+00  -1.667E-03
 812  9.78583657   0.687  -1.96188   3.52886   6.87531   1.94424   0.00000   1.002E+00   0.000E+00  -1.662E-03
 813  9.78685658   0.687  -1.96182   3.52886   6.87529   1.94416   0.00000   1.002E+00   0.000E+00  -1.658E-03
 814  9.78787421   0.687  -1.96177   3.52886   6.87527   1.94408   0.00000   1.002E+00   0.000E+00  -1.653E-03
 815  9.78888945   0.687  -1.96171   3.52886   6.87525   1.94400   0.00000   1.002E+00   0.000E+00  -1.649E-03
 816  9.78990233   0.687  -1.96166   3.52886   6.87522   1.94392   0.00000   1.002E+00   0.000E+00  -1.645E-03
 817  9.79091285   0.687  -1.96160   3.52886   6.87520   1.94384   0.00000   1.002E+00   0.000E+00  -1.640E-03
 818  9.79192103   0.687  -1.96155   3.52886   6.87518   1.94376   0.00000   1.002E+00   0.000E+00  -1.636E-03
 819  9.79292686   0.687  -1.96149   3.52886   6.87516   1.94368   0.00000   1.002E+00   0.000E+00  -1.632E-03
 820  9.79393038   0.687  -1.96144   3.52887   6.87514   1.94360   0.00000   1.002E+00   0.000E+00  -1.628E-03
 821  9.79493158   0.687  -1.96138   3.52887   6.87512   1.94352   0.00000   1.002E+00   0.000E+00  -1.623E-03
 822  9.79593048   0.687  -1.96133   3.52887   6.87509   1.94344   0.00000   1.002E+00   0.000E+00  -1.619E-03
 823  9.79692709   0.687  -1.96127   3.52887   6.87507   1.94336   0.00000   1.002E+00   0.000E+00  -1.615E-03
 824  9.79792141   0.687  -1.96122   3.52887   6.87505   1.94328   0.00000   1.002E+00   0.000E+00  -1.610E-03
 825  9.79891347   0.687  -1.96117   3.52887   6.87503   1.94320   0.00000   1.002E+00   0.000E+00  -1.606E-03
 826  9.79990326   0.687  -1.96111   3.52887   6.87501   1.94312   0.00000   1.002E+00   0.000E+00  -1.602E-03
 827  9.80089080   0.687  -1.96106   3.52887   6.87499   1.94304   0.00000   1.002E+00   0.000E+00  -1.597E-03
 828  9.80187610   0.687  -1.96101   3.52887   6.87497   1.94297   0.00000   1.002E+00   0.000E+00  -1.593E-03
 829  9.80285917   0.687  -1.96095   3.52887   6.87495   1.94289   0.00000   1.002E+00   0.000E+00  -1.589E-03
 830  9.80384002   0.687  -1.96090   3.52887   6.87492   1.94281   0.00000   1.002E+00   0.000E+00  -1.584E-03
 831  9.80481867   0.687  -1.96085   3.52887   6.87490   1.94274   0.00000   1.002E+00   0.000E+00  -1.580E-03
 832  9.80579511   0.687  -1.96080   3.52887   6.87488   1.94266   0.00000   1.002E+00   0.000E+00  -1.576E-03
 833  9.80676936   0.687  -1.96074   3.52887   6.87486   1.94259   0.00000   1.002E+00   0.000E+00  -1.571E-03
 834  9.80774142   0.687  -1.96069   3.52887   6.87484   1.94251   0.00000   1.002E+00   0.000E+00  -1.567E-03
 835  9.80871132   0.687  -1.96064   3.52887   6.87482   1.94243   0.00000   1.002E+00   0.000E+00  -1.563E-03
 836  9.80967906   0.687  -1.96059   3.52887   6.87480   1.94236   0.00000   1.002E+00   0.000E+00  -1.559E-03
 837  9.81064465   0.687  -1.96053   3.52887   6.87478   1.94228   0.00000   1.002E+00   0.000E+00  -1.554E-03
 838  9.81160809   0.687  -1.96048   3.52887   6.87476   1.94221   0.00000   1.002E+00   0.000E+00  -1.550E-03
 839  9.81256940   0.687  -1.96043   3.52887   6.87474   1.94213   0.00000   1.002E+00   0.000E+00  -1.546E-03
 840  9.81352859   0.687  -1.96038   3.52887   6.87472   1.94205   0.00000   1.002E+00   0.000E+00  -1.541E-03
 841  9.81448566   0.687  -1.96032   3.52887   6.87470   1.94198   0.00000   1.002E+00   0.000E+00  -1.537E-03
 842  9.81544063   0.687  -1.96027   3.52887   6.87468   1.94191   0.00000   1.002E+00   0.000E+00  -1.533E-03
 843  9.81639351   0.687  -1.96022   3.52887   6.87466   1.94183   0.00000   1.002E+00   0.000E+00  -1.528E-03
 844  9.81734429   0.687  -1.96017   3.52887   6.87464   1.94176   0.00000   1.002E+00   0.000E+00  -1.524E-03
 845  9.81829300   0.687  -1.96012   3.52887   6.87462   1.94168   0.00000   1.002E+00   0.000E+00  -1.520E-03
 846  9.81923965   0.687  -1.96007   3.52887   6.87460   1.94161   0.00000   1.002E+00   0.000E+00  -1.515E-03
 847  9.82018423   0.687  -1.96002   3.52887   6.87458   1.94154   0.00000   1.002E+00   0.000E+00  -1.511E-03
 848  9.82112677   0.687  -1.95997   3.52888   6.87456   1.94146   0.00000   1.001E+00   0.000E+00  -1.507E-03
 849  9.82206726   0.687  -1.95992   3.52888   6.87454   1.94139   0.00000   1.001E+00   0.000E+00  -1.503E-03
 850  9.82300572   0.687  -1.95987   3.52888   6.87452   1.94131   0.00000   1.001E+00   0.000E+00  -1.498E-03
 851  9.82394216   0.687  -1.95982   3.52888   6.87450   1.94124   0.00000   1.001E+00   0.000E+00  -1.494E-03
 852  9.82487658   0.687  -1.95976   3.52888   6.87448   1.94117   0.00000   1.001E+00   0.000E+00  -1.490E-03
 853  9.82580900   0.687  -1.95971   3.52888   6.87445   1.94109   0.00000   1.001E+00   0.000E+00  -1.485E-03
 854  9.82673941   0.687  -1.95966   3.52888   6.87443   1.94102   0.00000   1.001E+00   0.000E+00  -1.481E-03
 855  9.82766784   0.687  -1.95961   3.52888   6.87442   1.94095   0.00000   1.001E+00   0.000E+00  -1.477E-03
 856  9.82859429   0.687  -1.95956   3.52888   6.87440   1.94087   0.00000   1.001E+00   0.000E+00  -1.474E-03
 857  9.82951877   0.687  -1.95951   3.52888   6.87438   1.94080   0.00000   1.001E+00   0.000E+00  -1.470E-03
 858  9.83044128   0.687  -1.95946   3.52888   6.87436   1.94073   0.00000   1.001E+00   0.000E+00  -1.466E-03
 859  9.83136184   0.687  -1.95941   3.52888   6.87434   1.94066   0.00000   1.001E+00   0.000E+00  -1.463E-03
 860  9.83228045   0.687  -1.95936   3.52888   6.87432   1.94059   0.00000   1.001E+00   0.000E+00  -1.459E-03
 861  9.83319712   0.687  -1.95932   3.52888   6.87430   1.94052   0.00000   1.001E+00   0.000E+00  -1.456E-03
 862  9.83411187   0.687  -1.95927   3.52888   6.87428   1.94045   0.00000   1.001E+00   0.000E+00  -1.452E-03
 863  9.83502468   0.687  -1.95922   3.52888   6.87426   1.94038   0.00000   1.001E+00   0.000E+00  -1.449E-03
 864  9.83593559   0.687  -1.95917   3.52888   6.87424   1.94031   0.00000   1.001E+00   0.000E+00  -1.445E-03
 865  9.83684458   0.687  -1.95912   3.52888   6.87422   1.94024   0.00000   1.001E+00   0.000E+00  -1.441E-03
 866  9.83775168   0.687  -1.95907   3.52888   6.87420   1.94016   0.00000   1.001E+00   0.000E+00  -1.438E-03
 867  9.83865689   0.687  -1.95902   3.52888   6.87418   1.94009   0.00000   1.001E+00   0.000E+00  -1.434E-03
 868  9.83956022   0.687  -1.95897   3.52888   6.87416   1.94002   0.00000   1.001E+00   0.000E+00  -1.431E-03
 869  9.84046167   0.687  -1.95892   3.52888   6.87414   1.93995   0.00000   1.001E+00   0.000E+00  -1.427E-03
 870  9.84136125   0.687  -1.95887   3.52888   6.87413   1.93988   0.00000   1.001E+00   0.000E+00  -1.423E-03
 871  9.84225897   0.687  -1.95883   3.52888   6.87411   1.93981   0.00000   1.001E+00   0.000E+00  -1.420E-03
 872  9.84315484   0.687  -1.95878   3.52888   6.87409   1.93975   0.00000   1.001E+00   0.000E+00  -1.416E-03
 873  9.84404887   0.687  -1.95873   3.52888   6.87407   1.93968   0.00000   1.001E+00   0.000E+00  -1.413E-03
 874  9.84494106   0.687  -1.95868   3.52888   6.87405   1.93961   0.00000   1.001E+00   0.000E+00  -1.409E-03
 875  9.84583142   0.687  -1.95864   3.52888   6.87403   1.93954   0.00000   1.001E+00   0.000E+00  -1.405E-03
 876  9.84671996   0.687  -1.95859   3.52889   6.87401   1.93947   0.00000   1.001E+00   0.000E+00  -1.402E-03
 877  9.84760669   0.687  -1.95854   3.52889   6.87400   1.93940   0.00000   1.001E+00   0.000E+00  -1.398E-03
 878  9.84849161   0.687  -1.95849   3.52889   6.87398   1.93933   0.00000   1.001E+00   0.000E+00  -1.395E-03
 879  9.84937473   0.687  -1.95845   3.52889   6.87396   1.93926   0.00000   1.001E+00   0.000E+00  -1.391E-03
 880  9.85025605   0.687  -1.95840   3.52889   6.87394   1.93919   0.00000   1.001E+00   0.000E+00  -1.388E-03
 881  9.85113560   0.687  -1.95835   3.52889   6.87392   1.93913   0.00000   1.001E+00   0.000E+00  -1.384E-03
 882  9.85201336   0.687  -1.95830   3.52889   6.87390   1.93906   0.00000   1.001E+00   0.000E+00  -1.380E-03
 883  9.85288936   0.687  -1.95826   3.52889   6.87388   1.93899   0.00000   1.001E+00   0.000E+00  -1.377E-03
 884  9.85376359   0.687  -1.95821   3.52889   6.87387   1.93892   0.00000   1.001E+00   0.000E+00  -1.373E-03
 885  9.85463606   0.687  -1.95817   3.52889   6.87385   1.93886   0.00000   1.001E+00   0.000E+00  -1.370E-03
 886  9.85550679   0.687  -1.95812   3.52889   6.87383   1.93879   0.00000   1.001E+00   0.000E+00  -1.366E-03
 887  9.85637577   0.687  -1.95807   3.52889   6.87382   1.93872   0.00000   1.001E+00   0.000E+00  -1.362E-03
 888  9.85724302   0.687  -1.95803   3.52889   6.87380   1.93866   0.00000   1.001E+00   0.000E+00  -1.359E-03
 889  9.85810854   0.687  -1.95798   3.52889   6.87378   1.93859   0.00000   1.001E+00   0.000E+00  -1.355E-03
 890  9.85897234   0.687  -1.95794   3.52889   6.87376   1.93852   0.00000   1.001E+00   0.000E+00  -1.352E-03
 891  9.85983442   0.687  -1.95789   3.52889   6.87375   1.93846   0.00000   1.001E+00   0.000E+00  -1.348E-03
 892  9.86069479   0.687  -1.95784   3.52889   6.87373   1.93839   0.00000   1.001E+00   0.000E+00  -1.344E-03
 893  9.86155347   0.687  -1.95780   3.52889   6.87371   1.93832   0.00000   1.001E+00   0.000E+00  -1.341E-03
 894  9.86241045   0.687  -1.95775   3.52889   6.87369   1.93825   0.00000   1.001E+00   0.000E+00  -1.337E-03
 895  9.86326574   0.687  -1.95771   3.52889   6.87368   1.93819   0.00000   1.001E+00   0.000E+00  -1.334E-03
 896  9.86411935   0.687  -1.95766   3.52889   6.87366   1.93812   0.00000   1.001E+00   0.000E+00  -1.330E-03
 897  9.86497129   0.687  -1.95762   3.52889   6.87364   1.93806   0.00000   1.001E+00   0.000E+00  -1.327E-03
 898  9.86582156   0.687  -1.95757   3.52889   6.87362   1.93799   0.00000   1.001E+00   0.000E+00  -1.324E-03
 899  9.86667017   0.686  -1.95753   3.52889   6.87360   1.93792   0.00000   1.001E+00   0.000E+00  -1.321E-03
 900  9.86751712   0.686  -1.95748   3.52889   6.87359   1.93786   0.00000   1.001E+00   0.000E+00  -1.319E-03
 901  9.86836242   0.686  -1.95744   3.52889   6.87357   1.93779   0.00000   1.001E+00   0.000E+00  -1.316E-03
 902  9.86920608   0.686  -1.95739   3.52889   6.87355   1.93772   0.00000   1.001E+00   0.000E+00  -1.313E-03
 903  9.87004811   0.686  -1.95735   3.52890   6.87353   1.93766   0.00000   1.001E+00   0.000E+00  -1.310E-03
 904  9.87088851   0.686  -1.95730   3.52890   6.87351   1.93759   0.00000   1.001E+00   0.000E+00  -1.307E-03
 905  9.87172728   0.686  -1.95726   3.52890   6.87349   1.93753   0.00000   1.001E+00   0.000E+00  -1.304E-03
 906  9.87256444   0.686  -1.95722   3.52890   6.87347   1.93746   0.00000   1.001E+00   0.000E+00  -1.301E-03
 907  9.87339998   0.686  -1.95717   3.52890   6.87346   1.93739   0.00000   1.001E+00   0.000E+00  -1.298E-03
 908  9.87423392   0.686  -1.95713   3.52890   6.87344   1.93733   0.00000   1.001E+00   0.000E+00  -1.296E-03
 909  9.87506627   0.686  -1.95708   3.52890   6.87342   1.93726   0.00000   1.001E+00   0.000E+00  -1.293E-03
 910  9.87589702   0.686  -1.95704   3.52890   6.87340   1.93720   0.00000   1.001E+00   0.000E+00  -1.290E-03
 911  9.87672618   0.686  -1.95699   3.52890   6.87338   1.93713   0.00000   1.001E+00   0.000E+00  -1.286E-03
 912  9.87755377   0.686  -1.95695   3.52890   6.87337   1.93707   0.00000   1.001E+00   0.000E+00  -1.283E-03
 913  9.87837978   0.686  -1.95691   3.52890   6.87335   1.93701   0.00000   1.001E+00   0.000E+00  -1.279E-03
 914  9.87920422   0.686  -1.95687   3.52890   6.87333   1.93695   0.00000   1.001E+00   0.000E+00  -1.275E-03
 915  9.88002710   0.686  -1.95682   3.52890   6.87332   1.93688   0.00000   1.001E+00   0.000E+00  -1.272E-03
 916  9.88084843   0.686  -1.95678   3.52890   6.87330   1.93682   0.00000   1.001E+00   0.000E+00  -1.268E-03
 917  9.88166820   0.686  -1.95674   3.52890   6.87328   1.93676   0.00000   1.001E+00   0.000E+00  -1.265E-03
 918  9.88248643   0.686  -1.95669   3.52890   6.87327   1.93670   0.00000   1.001E+00   0.000E+00  -1.261E-03
 919  9.88330312   0.686  -1.95665   3.52890   6.87325   1.93663   0.00000   1.001E+00   0.000E+00  -1.257E-03
 920  9.88411828   0.686  -1.95661   3.52890   6.87323   1.93657   0.00000   1.001E+00   0.000E+00  -1.254E-03
 921  9.88493191   0.686  -1.95656   3.52890   6.87322   1.93651   0.00000   1.001E+00   0.000E+00  -1.250E-03
 922  9.88574402   0.686  -1.95652   3.52890   6.87320   1.93645   0.00000   1.001E+00   0.000E+00  -1.247E-03
 923  9.88655462   0.686  -1.95648   3.52890   6.87318   1.93638   0.00000   1.001E+00   0.000E+00  -1.243E-03
 924  9.88736370   0.686  -1.95643   3.52890   6.87317   1.93632   0.00000   1.001E+00   0.000E+00  -1.240E-03
 925  9.88817128   0.686  -1.95639   3.52890   6.87315   1.93626   0.00000   1.001E+00   0.000E+00  -1.236E-03
 926  9.88897736   0.686  -1.95635   3.52890   6.87314   1.93620   0.00000   1.001E+00   0.000E+00  -1.232E-03
 927  9.88978195   0.686  -1.95631   3.52890   6.87312   1.93614   0.00000   1.001E+00   0.000E+00  -1.229E-03
 928  9.89058505   0.686  -1.95627   3.52890   6.87310   1.93608   0.00000   1.001E+00   0.000E+00  -1.225E-03
 929  9.89138666   0.686  -1.95622   3.52890   6.87309   1.93602   0.00000   1.001E+00   0.000E+00  -1.222E-03
 930  9.89218680   0.686  -1.95618   3.52890   6.87307   1.93596   0.00000   1.001E+00   0.000E+00  -1.218E-03
 931  9.89298547   0.686  -1.95614   3.52891   6.87306   1.93591   0.00000   1.001E+00   0.000E+00  -1.214E-03
 932  9.89378267   0.686  -1.95610   3.52891   6.87304   1.93585   0.00000   1.001E+00   0.000E+00  -1.211E-03
 933  9.89457842   0.686  -1.95605   3.52891   6.87303   1.93579   0.00000   1.001E+00   0.000E+00  -1.207E-03
 934  9.89537270   0.686  -1.95601   3.52891   6.87301   1.93573   0.00000   1.001E+00   0.000E+00  -1.204E-03
 935  9.89616554   0.686  -1.95597   3.52891   6.87299   1.93567   0.00000   1.001E+00   0.000E+00  -1.200E-03
 936  9.89695693   0.686  -1.95593   3.52891   6.87298   1.93561   0.00000   1.001E+00   0.000E+00  -1.196E-03
 937  9.89774688   0.686  -1.95588   3.52891   6.87296   1.93555   0.00000   1.001E+00   0.000E+00  -1.193E-03
 938  9.89853540   0.686  -1.95584   3.52891   6.87295   1.93549   0.00000   1.001E+00   0.000E+00  -1.189E-03
 939  9.89932249   0.686  -1.95580   3.52891   6.87293   1.93543   0.00000   1.001E+00   0.000E+00  -1.187E-03
 940  9.90010815   0.686  -1.95576   3.52891   6.87292   1.93537   0.00000   1.001E+00   0.000E+00  -1.184E-03
 941  9.90089240   0.686  -1.95572   3.52891   6.87290   1.93531   0.00000   1.001E+00   0.000E+00  -1.181E-03
 942  9.90167523   0.686  -1.95568   3.52891   6.87288   1.93525   0.00000   1.001E+00   0.000E+00  -1.178E-03
 943  9.90245666   0.686  -1.95564   3.52891   6.87287   1.93519   0.00000   1.001E+00   0.000E+00  -1.175E-03
 944  9.90323668   0.686  -1.95560   3.52891   6.87285   1.93514   0.00000   1.001E+00   0.000E+00  -1.172E-03
 945  9.90401530   0.686  -1.95556   3.52891   6.87284   1.93508   0.00000   1.001E+00   0.000E+00  -1.169E-03
 946  9.90479253   0.686  -1.95552   3.52891   6.87282   1.93502   0.00000   1.001E+00   0.000E+00  -1.166E-03
 947  9.90556837   0.686  -1.95548   3.52891   6.87280   1.93496   0.00000   1.001E+00   0.000E+00  -1.164E-03
 948  9.90634282   0.686  -1.95544   3.52891   6.87279   1.93490   0.00000   1.001E+00   0.000E+00  -1.161E-03
 949  9.90711590   0.686  -1.95540   3.52891   6.87277   1.93484   0.00000   1.001E+00   0.000E+00  -1.158E-03
 950  9.90788761   0.686  -1.95536   3.52891   6.87276   1.93478   0.00000   1.001E+00   0.000E+00  -1.155E-03
 951  9.90865794   0.686  -1.95532   3.52891   6.87274   1.93472   0.00000   1.001E+00   0.000E+00  -1.152E-03
 952  9.90942691   0.686  -1.95528   3.52891   6.87273   1.93466   0.00000   1.001E+00   0.000E+00  -1.149E-03
 953  9.91019452   0.686  -1.95524   3.52891   6.87271   1.93461   0.00000   1.001E+00   0.000E+00  -1.146E-03
 954  9.91096078   0.686  -1.95520   3.52891   6.87270   1.93455   0.00000   1.001E+00   0.000E+00  -1.143E-03
 955  9.91172569   0.686  -1.95516   3.52891   6.87268   1.93450   0.00000   1.001E+00   0.000E+00  -1.141E-03
 956  9.91248925   0.686  -1.95512   3.52891   6.87267   1.93444   0.00000   1.001E+00   0.000E+00  -1.138E-03
 957  9.91325148   0.686  -1.95508   3.52891   6.87265   1.93438   0.00000   1.001E+00   0.000E+00  -1.135E-03
 958  9.91401237   0.686  -1.95504   3.52891   6.87264   1.93433   0.00000   1.001E+00   0.000E+00  -1.132E-03
 959  9.91477192   0.686  -1.95500   3.52892   6.87262   1.93427   0.00000   1.001E+00   0.000E+00  -1.129E-03
 960  9.91553015   0.686  -1.95496   3.52892   6.87261   1.93422   0.00000   1.001E+00   0.000E+00  -1.126E-03
 961  9.91628706   0.686  -1.95492   3.52892   6.87259   1.93416   0.00000   1.001E+00   0.000E+00  -1.123E-03
 962  9.91704266   0.686  -1.95488   3.52892   6.87258   1.93410   0.00000   1.001E+00   0.000E+00  -1.120E-03
 963  9.91779694   0.686  -1.95484   3.52892   6.87256   1.93405   0.00000   1.001E+00   0.000E+00  -1.118E-03
 964  9.91854991   0.686  -1.95481   3.52892   6.87254   1.93399   0.00000   1.001E+00   0.000E+00  -1.115E-03
 965  9.91930158   0.686  -1.95477   3.52892   6.87253   1.93394   0.00000   1.001E+00   0.000E+00  -1.112E-03
 966  9.92005195   0.686  -1.95473   3.52892   6.87252   1.93388   0.00000   1.001E+00   0.000E+00  -1.109E-03
 967  9.92080103   0.686  -1.95469   3.52892   6.87250   1.93383   0.00000   1.001E+00   0.000E+00  -1.107E-03
 968  9.92154881   0.686  -1.95465   3.52892   6.87249   1.93377   0.00000   1.001E+00   0.000E+00  -1.105E-03
 969  9.92229531   0.686  -1.95461   3.52892   6.87247   1.93372   0.00000   1.001E+00   0.000E+00  -1.103E-03
 970  9.92304054   0.686  -1.95457   3.52892   6.87246   1.93366   0.00000   1.001E+00   0.000E+00  -1.101E-03
 971  9.92378448   0.686  -1.95454   3.52892   6.87244   1.93361   0.00000   1.001E+00   0.000E+00  -1.098E-03
 972  9.92452715   0.686  -1.95450   3.52892   6.87243   1.93355   0.00000   1.001E+00   0.000E+00  -1.096E-03
 973  9.92526855   0.686  -1.95446   3.52892   6.87241   1.93350   0.00000   1.001E+00   0.000E+00  -1.094E-03
 974  9.92600869   0.686  -1.95442   3.52892   6.87240   1.93344   0.00000   1.001E+00   0.000E+00  -1.092E-03
 975  9.92674758   0.686  -1.95438   3.52892   6.87239   1.93339   0.00000   1.001E+00   0.000E+00  -1.090E-03
 976  9.92748520   0.686  -1.95435   3.52892   6.87237   1.93334   0.00000   1.001E+00   0.000E+00  -1.088E-03
 977  9.92822158   0.686  -1.95431   3.52892   6.87236   1.93328   0.00000   1.001E+00   0.000E+00  -1.086E-03
 978  9.92895671   0.686  -1.95427   3.52892   6.87234   1.93323   0.00000   1.001E+00   0.000E+00  -1.083E-03
 979  9.92969059   0.686  -1.95423   3.52892   6.87233   1.93317   0.00000   1.001E+00   0.000E+00  -1.081E-03
 980  9.93042324   0.686  -1.95419   3.52892   6.87231   1.93312   0.00000   1.001E+00   0.000E+00  -1.079E-03
 981  9.93115466   0.686  -1.95416   3.52892   6.87230   1.93307   0.00000   1.001E+00   0.000E+00  -1.076E-03
 982  9.93188484   0.686  -1.95412   3.52892   6.87229   1.93301   0.00000   1.001E+00   0.000E+00  -1.073E-03
 983  9.93261380   0.686  -1.95408   3.52892   6.87227   1.93296   0.00000   1.001E+00   0.000E+00  -1.070E-03
 984  9.93334154   0.686  -1.95405   3.52892   6.87226   1.93291   0.00000   1.001E+00   0.000E+00  -1.067E-03
 985  9.93406806   0.686  -1.95401   3.52892   6.87225   1.93286   0.00000   1.001E+00   0.000E+00  -1.064E-03
 986  9.93479337   0.686  -1.95398   3.52892   6.87223   1.93280   0.00000   1.001E+00   0.000E+00  -1.062E-03
 987  9.93551746   0.686  -1.95394   3.52892   6.87222   1.93275   0.00000   1.001E+00   0.000E+00  -1.059E-03
 988  9.93624036   0.686  -1.95390   3.52892   6.87221   1.93270   0.00000   1.001E+00   0.000E+00  -1.056E-03
 989  9.93696205   0.686  -1.95387   3.52892   6.87219   1.93265   0.00000   1.001E+00   0.000E+00  -1.053E-03
 990  9.93768254   0.686  -1.95383   3.52892   6.87218   1.93259   0.00000   1.001E+00   0.000E+00  -1.050E-03
 991  9.93840184   0.686  -1.95379   3.52892   6.87216   1.93254   0.00000   1.001E+00   0.000E+00  -1.047E-03
 992  9.93911995   0.686  -1.95376   3.52892   6.87215   1.93249   0.00000   1.001E+00   0.000E+00  -1.044E-03
 993  9.93983688   0.686  -1.95372   3.52892   6.87214   1.93244   0.00000   1.001E+00   0.000E+00  -1.041E-03
 994  9.94055262   0.686  -1.95368   3.52892   6.87212   1.93238   0.00000   1.001E+00   0.000E+00  -1.039E-03
 995  9.94126719   0.686  -1.95365   3.52892   6.87211   1.93233   0.00000   1.001E+00   0.000E+00  -1.037E-03
 996  9.94198058   0.686  -1.95361   3.52892   6.87210   1.93228   0.00000   1.001E+00   0.000E+00  -1.035E-03
 997  9.94269281   0.686  -1.95357   3.52892   6.87208   1.93223   0.00000   1.001E+00   0.000E+00  -1.032E-03
 998  9.94340386   0.686  -1.95354   3.52892   6.87207   1.93218   0.00000   1.001E+00   0.000E+00  -1.030E-03
 999  9.94411376   0.686  -1.95350   3.52892   6.87206   1.93213   0.00000   1.001E+00   0.000E+00  -1.028E-03
1000  9.94482249   0.686  -1.95347   3.52892   6.87205   1.93207   0.00000   1.001E+00   0.000E+00  -1.026E-03
1001  9.94553008   0.686  -1.95343   3.52893   6.87203   1.93202   0.00000   1.001E+00   0.000E+00  -1.024E-03
1002  9.94623651   0.686  -1.95340   3.52893   6.87202   1.93197   0.00000   1.001E+00   0.000E+00  -1.022E-03
1003  9.94694179   0.686  -1.95336   3.52893   6.87201   1.93192   0.00000   1.001E+00   0.000E+00  -1.020E-03
1004  9.94764593   0.686  -1.95332   3.52893   6.87199   1.93187   0.00000   1.001E+00   0.000E+00  -1.017E-03
1005  9.94834893   0.686  -1.95329   3.52893   6.87198   1.93182   0.00000   1.001E+00   0.000E+00  -1.015E-03
1006  9.94905079   0.686  -1.95325   3.52893   6.87197   1.93176   0.00000   1.001E+00   0.000E+00  -1.013E-03
1007  9.94975152   0.686  -1.95322   3.52893   6.87196   1.93171   0.00000   1.001E+00   0.000E+00  -1.011E-03
1008  9.95045113   0.686  -1.95318   3.52893   6.87194   1.93166   0.00000   1.001E+00   0.000E+00  -1.009E-03
1009  9.95114960   0.686  -1.95315   3.52893   6.87193   1.93161   0.00000   1.001E+00   0.000E+00  -1.006E-03
1010  9.95184696   0.686  -1.95311   3.52893   6.87192   1.93156   0.00000   1.001E+00   0.000E+00  -1.004E-03
1011  9.95254320   0.686  -1.95307   3.52893   6.87190   1.93151   0.00000   1.001E+00   0.000E+00  -1.002E-03
1012  9.95323832   0.686  -1.95304   3.52893   6.87189   1.93146   0.00000   1.001E+00   0.000E+00  -9.992E-04
1013  9.95393233   0.686  -1.95300   3.52893   6.87188   1.93141   0.00000   1.001E+00   0.000E+00  -9.968E-04
1014  9.95462524   0.686  -1.95297   3.52893   6.87187   1.93136   0.00000   1.001E+00   0.000E+00  -9.944E-04
1015  9.95531704   0.686  -1.95293   3.52893   6.87185   1.93132   0.00000   1.001E+00   0.000E+00  -9.921E-04
1016  9.95600774   0.686  -1.95290   3.52893   6.87184   1.93127   0.00000   1.001E+00   0.000E+00  -9.897E-04
1017  9.95669735   0.686  -1.95286   3.52893   6.87183   1.93122   0.00000   1.001E+00   0.000E+00  -9.873E-04
1018  9.95738586   0.686  -1.95283   3.52893   6.87181   1.93117   0.00000   1.001E+00   0.000E+00  -9.850E-04
1019  9.95807328   0.686  -1.95279   3.52893   6.87180   1.93112   0.00000   1.001E+00   0.000E+00  -9.826E-04
1020  9.95875961   0.686  -1.95276   3.52893   6.87179   1.93107   0.00000   1.001E+00   0.000E+00  -9.802E-04
1021  9.95944487   0.686  -1.95272   3.52893   6.87177   1.93102   0.00000   1.001E+00   0.000E+00  -9.779E-04
1022  9.96012904   0.686  -1.95269   3.52893   6.87176   1.93097   0.00000   1.001E+00   0.000E+00  -9.756E-04
1023  9.96081213   0.686  -1.95265   3.52893   6.87175   1.93092   0.00000   1.001E+00   0.000E+00  -9.734E-04
1024  9.96149416   0.685  -1.95262   3.52893   6.87174   1.93087   0.00000   1.001E+00   0.000E+00  -9.711E-04
1025  9.96217511   0.685  -1.95259   3.52893   6.87173   1.93083   0.00000   1.001E+00   0.000E+00  -9.689E-04
1026  9.96285500   0.685  -1.95255   3.52893   6.87171   1.93078   0.00000   1.001E+00   0.000E+00  -9.667E-04
1027  9.96353383   0.685  -1.95252   3.52893   6.87170   1.93073   0.00000   1.001E+00   0.000E+00  -9.645E-04
1028  9.96421159   0.685  -1.95249   3.52893   6.87169   1.93068   0.00000   1.001E+00   0.000E+00  -9.622E-04
1029  9.96488830   0.685  -1.95245   3.52894   6.87168   1.93063   0.00000   1.001E+00   0.000E+00  -9.600E-04
1030  9.96556396   0.685  -1.95242   3.52894   6.87166   1.93058   0.00000   1.001E+00   0.000E+00  -9.578E-04
1031  9.96623857   0.685  -1.95238   3.52894   6.87165   1.93054   0.00000   1.001E+00   0.000E+00  -9.556E-04
1032  9.96691213   0.685  -1.95235   3.52894   6.87164   1.93049   0.00000   1.001E+00   0.000E+00  -9.533E-04
1033  9.96758465   0.685  -1.95232   3.52894   6.87163   1.93044   0.00000   1.001E+00   0.000E+00  -9.511E-04
1034  9.96825613   0.685  -1.95228   3.52894   6.87162   1.93039   0.00000   1.001E+00   0.000E+00  -9.489E-04
1035  9.96892657   0.685  -1.95225   3.52894   6.87160   1.93034   0.00000   1.001E+00   0.000E+00  -9.466E-04
1036  9.96959598   0.685  -1.95222   3.52894   6.87159   1.93030   0.00000   1.001E+00   0.000E+00  -9.445E-04
1037  9.97026436   0.685  -1.95218   3.52894   6.87158   1.93025   0.00000   1.001E+00   0.000E+00  -9.423E-04
1038  9.97093171   0.685  -1.95215   3.52894   6.87157   1.93020   0.00000   1.001E+00   0.000E+00  -9.402E-04
1039  9.97159804   0.685  -1.95212   3.52894   6.87155   1.93016   0.00000   1.001E+00   0.000E+00  -9.380E-04
1040  9.97226334   0.685  -1.95208   3.52894   6.87154   1.93011   0.00000   1.001E+00   0.000E+00  -9.359E-04
1041  9.97292763   0.685  -1.95205   3.52894   6.87153   1.93006   0.00000   1.001E+00   0.000E+00  -9.337E-04
1042  9.97359091   0.685  -1.95202   3.52894   6.87152   1.93002   0.00000   1.001E+00   0.000E+00  -9.315E-04
1043  9.97425317   0.685  -1.95199   3.52894   6.87151   1.92997   0.00000   1.001E+00   0.000E+00  -9.294E-04
1044  9.97491442   0.685  -1.95195   3.52894   6.87149   1.92992   0.00000   1.001E+00   0.000E+00  -9.272E-04
1045  9.97557467   0.685  -1.95192   3.52894   6.87148   1.92988   0.00000   1.001E+00   0.000E+00  -9.251E-04
1046  9.97623392   0.685  -1.95189   3.52894   6.87147   1.92983   0.00000   1.001E+00   0.000E+00  -9.229E-04
1047  9.97689217   0.685  -1.95185   3.52894   6.87146   1.92978   0.00000   1.001E+00   0.000E+00  -9.208E-04
1048  9.97754942   0.685  -1.95182   3.52894   6.87144   1.92974   0.00000   1.001E+00   0.000E+00  -9.186E-04
1049  9.97820568   0.685  -1.95179   3.52894   6.87143   1.92969   0.00000   1.001E+00   0.000E+00  -9.165E-04
1050  9.97886095   0.685  -1.95176   3.52894   6.87142   1.92964   0.00000   1.001E+00   0.000E+00  -9.144E-04
1051  9.97951523   0.685  -1.95172   3.52894   6.87141   1.92960   0.00000   1.001E+00   0.000E+00  -9.124E-04
1052  9.98016853   0.685  -1.95169   3.52894   6.87140   1.92955   0.00000   1.001E+00   0.000E+00  -9.104E-04
1053  9.98082084   0.685  -1.95166   3.52894   6.87139   1.92951   0.00000   1.001E+00   0.000E+00  -9.084E-04
1054  9.98147218   0.685  -1.95163   3.52894   6.87138   1.92946   0.00000   1.001E+00   0.000E+00  -9.064E-04
1055  9.98212254   0.685  -1.95160   3.52894   6.87136   1.92942   0.00000   1.001E+00   0.000E+00  -9.044E-04
1056  9.98277193   0.685  -1.95157   3.52894   6.87135   1.92937   0.00000   1.001E+00   0.000E+00  -9.024E-04
1057  9.98342035   0.685  -1.95153   3.52895   6.87134   1.92933   0.00000   1.001E+00   0.000E+00  -9.004E-04
1058  9.98406781   0.685  -1.95150   3.52895   6.87133   1.92928   0.00000   1.001E+00   0.000E+00  -8.983E-04
1059  9.98471430   0.685  -1.95147   3.52895   6.87132   1.92924   0.00000   1.001E+00   0.000E+00  -8.963E-04
1060  9.98535982   0.685  -1.95144   3.52895   6.87131   1.92919   0.00000   1.001E+00   0.000E+00  -8.943E-04
1061  9.98600440   0.685  -1.95141   3.52895   6.87129   1.92915   0.00000   1.001E+00   0.000E+00  -8.923E-04
1062  9.98664801   0.685  -1.95138   3.52895   6.87128   1.92910   0.00000   1.001E+00   0.000E+00  -8.903E-04
1063  9.98729067   0.685  -1.95134   3.52895   6.87127   1.92906   0.00000   1.001E+00   0.000E+00  -8.883E-04
1064  9.98793239   0.685  -1.95131   3.52895   6.87126   1.92901   0.00000   1.001E+00   0.000E+00  -8.927E-04
1065  9.98857315   0.685  -1.95128   3.52895   6.87125   1.92896   0.00000   1.001E+00   0.000E+00  -8.981E-04
1066  9.98921298   0.685  -1.95124   3.52895   6.87123   1.92891   0.00000   1.001E+00   0.000E+00  -9.036E-04
1067  9.98985186   0.685  -1.95121   3.52895   6.87122   1.92886   0.00000   1.001E+00   0.000E+00  -9.090E-04
1068  9.99048980   0.685  -1.95117   3.52895   6.87121   1.92881   0.00000   1.001E+00   0.000E+00  -9.145E-04
1069  9.99112681   0.685  -1.95114   3.52895   6.87119   1.92876   0.00000   1.001E+00   0.000E+00  -9.199E-04
1070  9.99176288   0.685  -1.95110   3.52895   6.87118   1.92872   0.00000   1.001E+00   0.000E+00  -9.254E-04
1071  9.99239803   0.685  -1.95107   3.52895   6.87117   1.92867   0.00000   1.001E+00   0.000E+00  -9.309E-04
1072  9.99303224   0.685  -1.95103   3.52895   6.87116   1.92862   0.00000   1.001E+00   0.000E+00  -9.363E-04
1073  9.99366553   0.685  -1.95100   3.52895   6.87114   1.92857   0.00000   1.001E+00   0.000E+00  -9.418E-04
1074  9.99429790   0.685  -1.95097   3.52895   6.87113   1.92852   0.00000   1.001E+00   0.000E+00  -9.472E-04
1075  9.99492935   0.685  -1.95093   3.52895   6.87112   1.92847   0.00000   1.001E+00   0.000E+00  -9.527E-04
1076  9.99555989   0.685  -1.95090   3.52895   6.87110   1.92842   0.00000   1.001E+00   0.000E+00  -9.581E-04
1077  9.99618951   0.685  -1.95086   3.52895   6.87109   1.92837   0.00000   1.001E+00   0.000E+00  -9.636E-04
1078  9.99681821   0.685  -1.95083   3.52895   6.87108   1.92832   0.00000   1.001E+00   0.000E+00  -9.629E-04
1079  9.99744601   0.685  -1.95079   3.52895   6.87107   1.92828   0.00000   1.001E+00   0.000E+00  -9.618E-04
1080  9.99807291   0.685  -1.95076   3.52895   6.87105   1.92823   0.00000   1.001E+00   0.000E+00  -9.606E-04
1081  9.99869890   0.685  -1.95072   3.52895   6.87104   1.92818   0.00000   1.001E+00   0.000E+00  -9.595E-04
1082  9.99932398   0.685  -1.95069   3.52895   6.87103   1.92813   0.00000   1.001E+00   0.000E+00  -9.583E-04
1083  9.99994817   0.685  -1.95066   3.52895   6.87102   1.92808   0.00000   1.001E+00   0.000E+00  -9.572E-04
1084 10.00057147   0.685  -1.95062   3.52895   6.87101   1.92803   0.00000   1.001E+00   0.000E+00  -9.560E-04
1085 10.00119387   0.685  -1.95059   3.52896   6.87099   1.92798   0.00000   1.001E+00   0.000E+00  -9.549E-04
1086 10.00181538   0.685  -1.95055   3.52896   6.87098   1.92793   0.00000   1.001E+00   0.000E+00  -9.537E-04
1087 10.00243600   0.685  -1.95052   3.52896   6.87097   1.92789   0.00000   1.001E+00   0.000E+00  -9.526E-04
1088 10.00305574   0.685  -1.95048   3.52896   6.87096   1.92784   0.00000   1.001E+00   0.000E+00  -9.514E-04
1089 10.00367459   0.685  -1.95045   3.52896   6.87094   1.92779   0.00000   1.001E+00   0.000E+00  -9.503E-04
1090 10.00429256   0.685  -1.95041   3.52896   6.87093   1.92774   0.00000   1.001E+00   0.000E+00  -9.491E-04
1091 10.00490966   0.685  -1.95038   3.52896   6.87092   1.92769   0.00000   1.001E+00   0.000E+00  -9.480E-04
