 # M = 0.75 Mo, Y = 0.2880, Z = 2.00000E-02, alpha = 1.68, X_D = 4.0E-05
 # Solar Mixture: Asplund et al. (2005)         
 # ------------------------------------------------------------------------------------------------------------
 # NMD   LOG AGE    Xc      LOG L     LOG TE    LOG Tc   LOG RHOc    M-CC       L-PP       L-CNO       L-GRA
 #        (yr)              (Lo)        (K)       (K)   (gr/cm^3)    (Mo)        (L)         (L)         (L)
 # ------------------------------------------------------------------------------------------------------------
   1  4.95991514   0.692   0.81623   3.61942   6.09173  -1.22877   0.00000   9.280E-01   0.000E+00   7.160E-02
   2  5.10034766   0.692   0.80840   3.61960   6.09586  -1.21636   0.00000   9.327E-01   0.000E+00   6.718E-02
   3  5.20629537   0.692   0.80143   3.61976   6.09953  -1.20532   0.00000   9.373E-01   0.000E+00   6.273E-02
   4  5.29139893   0.692   0.79480   3.61991   6.10302  -1.19485   0.00000   9.420E-01   0.000E+00   5.828E-02
   5  5.36252703   0.692   0.78914   3.62004   6.10601  -1.18585   0.00000   9.451E-01   0.000E+00   5.502E-02
   6  5.42362876   0.692   0.78374   3.62017   6.10887  -1.17726   0.00000   9.479E-01   0.000E+00   5.208E-02
   7  5.47718470   0.692   0.77835   3.62029   6.11173  -1.16868   0.00000   9.507E-01   0.000E+00   4.915E-02
   8  5.52485539   0.692   0.77333   3.62041   6.11437  -1.16073   0.00000   9.515E-01   0.000E+00   4.838E-02
   9  5.56780718   0.692   0.76835   3.62052   6.11699  -1.15287   0.00000   9.521E-01   0.000E+00   4.791E-02
  10  5.60689073   0.692   0.76338   3.62063   6.11961  -1.14500   0.00000   9.526E-01   0.000E+00   4.743E-02
  11  5.64274559   0.692   0.75839   3.62074   6.12224  -1.13711   0.00000   9.527E-01   0.000E+00   4.738E-02
  12  5.67586473   0.692   0.75334   3.62085   6.12490  -1.12913   0.00000   9.517E-01   0.000E+00   4.828E-02
  13  5.70663620   0.692   0.74829   3.62096   6.12755  -1.12116   0.00000   9.506E-01   0.000E+00   4.918E-02
  14  5.73537090   0.692   0.74324   3.62107   6.13021  -1.11318   0.00000   9.496E-01   0.000E+00   5.008E-02
  15  5.76232182   0.692   0.73798   3.62118   6.13297  -1.10488   0.00000   9.481E-01   0.000E+00   5.157E-02
  16  5.78769752   0.692   0.73242   3.62130   6.13589  -1.09612   0.00000   9.460E-01   0.000E+00   5.385E-02
  17  5.81167202   0.692   0.72687   3.62142   6.13880  -1.08736   0.00000   9.439E-01   0.000E+00   5.613E-02
  18  5.83439200   0.692   0.72131   3.62153   6.14172  -1.07860   0.00000   9.418E-01   0.000E+00   5.841E-02
  19  5.85598225   0.692   0.71518   3.62166   6.14493  -1.06895   0.00000   9.384E-01   0.000E+00   6.194E-02
  20  5.87654982   0.692   0.70868   3.62178   6.14833  -1.05874   0.00000   9.340E-01   0.000E+00   6.627E-02
  21  5.89618722   0.692   0.70218   3.62191   6.15173  -1.04853   0.00000   9.297E-01   0.000E+00   7.060E-02
  22  5.91497496   0.692   0.69546   3.62204   6.15524  -1.03798   0.00000   9.248E-01   0.000E+00   7.547E-02
  23  5.93298352   0.692   0.68749   3.62219   6.15939  -1.02552   0.00000   9.167E-01   0.000E+00   8.348E-02
  24  5.95027498   0.692   0.67952   3.62234   6.16354  -1.01306   0.00000   9.086E-01   0.000E+00   9.148E-02
  25  5.96690426   0.692   0.67118   3.62249   6.16788  -1.00000   0.00000   8.993E-01   0.000E+00   1.007E-01
  26  5.98292021   0.692   0.66116   3.62267   6.17309  -0.98436   0.00000   8.849E-01   0.000E+00   1.151E-01
  27  5.99836646   0.692   0.65114   3.62285   6.17830  -0.96871   0.00000   8.704E-01   0.000E+00   1.296E-01
  28  6.01328217   0.692   0.63898   3.62304   6.18458  -0.94987   0.00000   8.468E-01   0.000E+00   1.532E-01
  29  6.02770257   0.692   0.62616   3.62323   6.19118  -0.93005   0.00000   8.204E-01   0.000E+00   1.796E-01
  30  6.04165949   0.692   0.61054   3.62345   6.19920  -0.90595   0.00000   7.782E-01   0.000E+00   2.218E-01
  31  6.05518182   0.692   0.59318   3.62367   6.20810  -0.87922   0.00000   7.251E-01   0.000E+00   2.749E-01
  32  6.06829579   0.692   0.57281   3.62391   6.21850  -0.84802   0.00000   6.520E-01   0.000E+00   3.480E-01
  33  6.08102535   0.692   0.54857   3.62416   6.23077  -0.81119   0.00000   5.491E-01   0.000E+00   4.509E-01
  34  6.09339239   0.692   0.52045   3.62437   6.24491  -0.76878   0.00000   4.197E-01   0.000E+00   5.803E-01
  35  6.10541700   0.692   0.48928   3.62455   6.26045  -0.72210   0.00000   2.807E-01   0.000E+00   7.193E-01
  36  6.11711763   0.692   0.45620   3.62462   6.27681  -0.67308   0.00000   1.601E-01   0.000E+00   8.399E-01
  37  6.12851127   0.692   0.42322   3.62462   6.29293  -0.62474   0.00000   7.740E-02   0.000E+00   9.226E-01
  38  6.13961363   0.692   0.39192   3.62452   6.30805  -0.57933   0.00000   3.558E-02   0.000E+00   9.644E-01
  39  6.15043922   0.692   0.36265   3.62434   6.32212  -0.53723   0.00000   1.609E-02   0.000E+00   9.839E-01
  40  6.16100152   0.692   0.33556   3.62411   6.33491  -0.49881   0.00000   7.337E-03   0.000E+00   9.927E-01
  41  6.17131302   0.692   0.31030   3.62384   6.34673  -0.46331   0.00000   3.000E-03   0.000E+00   9.970E-01
  42  6.19659084   0.692   0.25341   3.62298   6.37287  -0.38475   0.00000   0.000E+00   0.000E+00   1.000E+00
  43  6.22047796   0.692   0.20496   3.62201   6.39471  -0.31917   0.00000   0.000E+00   0.000E+00   1.000E+00
  44  6.24311946   0.692   0.16252   3.62099   6.41353  -0.26264   0.00000   0.000E+00   0.000E+00   1.000E+00
  45  6.26463882   0.692   0.12506   3.62002   6.42997  -0.21324   0.00000   0.000E+00   0.000E+00   1.000E+00
  46  6.28514204   0.692   0.09154   3.61907   6.44455  -0.16943   0.00000   0.000E+00   0.000E+00   1.000E+00
  47  6.30472078   0.692   0.06115   3.61817   6.45771  -0.12989   0.00000   0.000E+00   0.000E+00   1.000E+00
  48  6.32345482   0.692   0.03350   3.61733   6.46963  -0.09409   0.00000   0.000E+00   0.000E+00   1.000E+00
  49  6.34141405   0.692   0.00796   3.61653   6.48061  -0.06110   0.00000   0.000E+00   0.000E+00   1.000E+00
  50  6.35866001   0.692  -0.01551   3.61577   6.49063  -0.03094   0.00000   0.000E+00   0.000E+00   1.000E+00
  51  6.37524720   0.692  -0.03739   3.61505   6.49997  -0.00287   0.00000   0.000E+00   0.000E+00   1.000E+00
  52  6.39122411   0.692  -0.05782   3.61438   6.50869   0.02333   0.00000   0.000E+00   0.000E+00   1.000E+00
  53  6.40663406   0.692  -0.07700   3.61374   6.51685   0.04788   0.00000   0.000E+00   0.000E+00   1.000E+00
  54  6.42151590   0.692  -0.09505   3.61313   6.52453   0.07097   0.00000   0.000E+00   0.000E+00   1.000E+00
  55  6.43590464   0.692  -0.11212   3.61255   6.53179   0.09277   0.00000   0.000E+00   0.000E+00   1.000E+00
  56  6.44983191   0.692  -0.12831   3.61199   6.53866   0.11342   0.00000   0.000E+00   0.000E+00   1.000E+00
  57  6.46332640   0.692  -0.14376   3.61146   6.54521   0.13310   0.00000   0.000E+00   0.000E+00   1.000E+00
  58  6.47641418   0.692  -0.15832   3.61096   6.55140   0.15171   0.00000   0.000E+00   0.000E+00   1.000E+00
  59  6.48911907   0.692  -0.17225   3.61048   6.55729   0.16943   0.00000   0.000E+00   0.000E+00   1.000E+00
  60  6.50146283   0.692  -0.18564   3.61001   6.56295   0.18646   0.00000   0.000E+00   0.000E+00   1.000E+00
  61  6.51346542   0.692  -0.19853   3.60957   6.56842   0.20291   0.00000   0.000E+00   0.000E+00   1.000E+00
  62  6.52514519   0.692  -0.21070   3.60914   6.57356   0.21838   0.00000   0.000E+00   0.000E+00   1.000E+00
  63  6.53651907   0.692  -0.22253   3.60872   6.57857   0.23344   0.00000   0.000E+00   0.000E+00   1.000E+00
  64  6.54760265   0.692  -0.23396   3.60832   6.58340   0.24796   0.00000   0.000E+00   0.000E+00   1.000E+00
  65  6.55841040   0.692  -0.24484   3.60794   6.58800   0.26180   0.00000   0.000E+00   0.000E+00   1.000E+00
  66  6.56895571   0.692  -0.25556   3.60757   6.59253   0.27543   0.00000   0.000E+00   0.000E+00   1.000E+00
  67  6.57925102   0.692  -0.26568   3.60721   6.59680   0.28827   0.00000   0.000E+00   0.000E+00   1.000E+00
  68  6.58930791   0.692  -0.27568   3.60685   6.60102   0.30097   0.00000   0.000E+00   0.000E+00   1.000E+00
  69  6.59913718   0.692  -0.28518   3.60651   6.60503   0.31305   0.00000   0.000E+00   0.000E+00   1.000E+00
  70  6.60874889   0.692  -0.29457   3.60618   6.60898   0.32500   0.00000   0.000E+00   0.000E+00   1.000E+00
  71  6.61815249   0.692  -0.30350   3.60586   6.61267   0.33645   0.00000   0.000E+00   0.000E+00   1.000E+00
  72  6.62735677   0.692  -0.31239   3.60554   6.61632   0.34785   0.00000   0.000E+00   0.000E+00   1.000E+00
  73  6.63637003   0.692  -0.32080   3.60524   6.61970   0.35872   0.00000   0.000E+00   0.000E+00   1.000E+00
  74  6.64520002   0.692  -0.32921   3.60494   6.62308   0.36960   0.00000   0.000E+00   0.000E+00   1.000E+00
  75  6.65385406   0.692  -0.33717   3.60466   6.62622   0.38000   0.00000   0.000E+00   0.000E+00   1.000E+00
  76  6.66233901   0.692  -0.34507   3.60438   6.62932   0.39033   0.00000   0.000E+00   0.000E+00   1.000E+00
  77  6.67066137   0.692  -0.35273   3.60410   6.63229   0.40041   0.00000   0.000E+00   0.000E+00   1.000E+00
  78  6.67882723   0.692  -0.36014   3.60384   6.63513   0.41023   0.00000   0.000E+00   0.000E+00   1.000E+00
  79  6.68684239   0.692  -0.36756   3.60357   6.63798   0.42005   0.00000   0.000E+00   0.000E+00   1.000E+00
  80  6.69471230   0.692  -0.37455   3.60333   6.64060   0.42941   0.00000   0.000E+00   0.000E+00   1.000E+00
  81  6.70244213   0.692  -0.38151   3.60308   6.64322   0.43875   0.00000   0.000E+00   0.000E+00   1.000E+00
  82  6.71003678   0.692  -0.38836   3.60283   6.64578   0.44797   0.00000   0.000E+00   0.000E+00   1.000E+00
  83  6.71750090   0.692  -0.39489   3.60260   6.64818   0.45685   0.00000   0.000E+00   0.000E+00   1.000E+00
  84  6.72483891   0.692  -0.40142   3.60237   6.65058   0.46574   0.00000   0.000E+00   0.000E+00   1.000E+00
  85  6.73205498   0.692  -0.40780   3.60214   6.65291   0.47446   0.00000   0.000E+00   0.000E+00   1.000E+00
  86  6.73915311   0.692  -0.41391   3.60192   6.65512   0.48292   0.00000   0.000E+00   0.000E+00   1.000E+00
  87  6.74613709   0.692  -0.42003   3.60171   6.65733   0.49137   0.00000   0.000E+00   0.000E+00   1.000E+00
  88  6.75301054   0.692  -0.42603   3.60150   6.65949   0.49970   0.00000   0.000E+00   0.000E+00   1.000E+00
  89  6.75977690   0.692  -0.43174   3.60130   6.66152   0.50775   0.00000   0.000E+00   0.000E+00   1.000E+00
  90  6.76643945   0.692  -0.43746   3.60109   6.66356   0.51580   0.00000   0.000E+00   0.000E+00   1.000E+00
  91  6.77300133   0.692  -0.44316   3.60089   6.66559   0.52383   0.00000   0.000E+00   0.000E+00   1.000E+00
  92  6.77946554   0.692  -0.44851   3.60071   6.66748   0.53149   0.00000   0.000E+00   0.000E+00   1.000E+00
  93  6.78583494   0.692  -0.45386   3.60053   6.66936   0.53916   0.00000   0.000E+00   0.000E+00   1.000E+00
  94  6.79211228   0.692  -0.45921   3.60034   6.67124   0.54682   0.00000   0.000E+00   0.000E+00   1.000E+00
  95  6.79830018   0.692  -0.46437   3.60017   6.67305   0.55428   0.00000   0.000E+00   0.000E+00   1.000E+00
  96  6.80440115   0.692  -0.46936   3.60000   6.67480   0.56158   0.00000   0.000E+00   0.000E+00   1.000E+00
  97  6.81041759   0.692  -0.47436   3.59983   6.67655   0.56887   0.00000   0.000E+00   0.000E+00   1.000E+00
  98  6.81635183   0.692  -0.47935   3.59966   6.67829   0.57617   0.00000   0.000E+00   0.000E+00   1.000E+00
  99  6.82220607   0.692  -0.48406   3.59951   6.67994   0.58318   0.00000   0.000E+00   0.000E+00   1.000E+00
 100  6.82798245   0.692  -0.48871   3.59935   6.68155   0.59013   0.00000   0.000E+00   0.000E+00   1.000E+00
 101  6.83368300   0.692  -0.49335   3.59920   6.68317   0.59707   0.00000   0.000E+00   0.000E+00   1.000E+00
 102  6.83930970   0.692  -0.49800   3.59905   6.68479   0.60401   0.00000   0.000E+00   0.000E+00   1.000E+00
 103  6.84486443   0.692  -0.50239   3.59891   6.68632   0.61069   0.00000   0.000E+00   0.000E+00   1.000E+00
 104  6.85034901   0.692  -0.50672   3.59877   6.68782   0.61730   0.00000   0.000E+00   0.000E+00   1.000E+00
 105  6.85576519   0.692  -0.51104   3.59863   6.68932   0.62392   0.00000   0.000E+00   0.000E+00   1.000E+00
 106  6.86111465   0.692  -0.51537   3.59849   6.69083   0.63053   0.00000   0.000E+00   0.000E+00   1.000E+00
 107  6.86639902   0.692  -0.51954   3.59836   6.69228   0.63698   0.00000   0.000E+00   0.000E+00   1.000E+00
 108  6.87161987   0.692  -0.52355   3.59824   6.69367   0.64328   0.00000   0.000E+00   0.000E+00   1.000E+00
 109  6.87677870   0.692  -0.52756   3.59812   6.69507   0.64957   0.00000   0.000E+00   0.000E+00   1.000E+00
 110  6.88187697   0.692  -0.53158   3.59800   6.69647   0.65586   0.00000   0.000E+00   0.000E+00   1.000E+00
 111  6.88691608   0.692  -0.53559   3.59788   6.69787   0.66216   0.00000   0.000E+00   0.000E+00   1.000E+00
 112  6.89189739   0.692  -0.53935   3.59777   6.69918   0.66819   0.00000   0.000E+00   0.000E+00   1.000E+00
 113  6.89682222   0.692  -0.54307   3.59766   6.70048   0.67419   0.00000   0.000E+00   0.000E+00   1.000E+00
 114  6.90169182   0.692  -0.54679   3.59755   6.70178   0.68018   0.00000   0.000E+00   0.000E+00   1.000E+00
 115  6.90650743   0.692  -0.55051   3.59744   6.70308   0.68618   0.00000   0.000E+00   0.000E+00   1.000E+00
 116  6.91127022   0.692  -0.55423   3.59733   6.70438   0.69217   0.00000   0.000E+00   0.000E+00   1.000E+00
 117  6.91598135   0.692  -0.55770   3.59724   6.70558   0.69787   0.00000   1.657E-04   0.000E+00   9.998E-01
 118  6.92064192   0.692  -0.56113   3.59714   6.70677   0.70354   0.00000   3.518E-04   0.000E+00   9.996E-01
 119  6.92525301   0.692  -0.56456   3.59705   6.70796   0.70921   0.00000   5.379E-04   0.000E+00   9.995E-01
 120  6.92981566   0.692  -0.56799   3.59696   6.70915   0.71487   0.00000   7.239E-04   0.000E+00   9.993E-01
 121  6.93433086   0.692  -0.57142   3.59686   6.71034   0.72054   0.00000   9.100E-04   0.000E+00   9.991E-01
 122  6.93879961   0.692  -0.57471   3.59678   6.71151   0.72609   0.00000   1.000E-03   0.000E+00   9.990E-01
 123  6.94322284   0.692  -0.57788   3.59670   6.71264   0.73152   0.00000   1.000E-03   0.000E+00   9.990E-01
 124  6.94760148   0.692  -0.58104   3.59662   6.71377   0.73696   0.00000   1.000E-03   0.000E+00   9.990E-01
 125  6.95193641   0.692  -0.58421   3.59654   6.71491   0.74239   0.00000   1.000E-03   0.000E+00   9.990E-01
 126  6.95622850   0.692  -0.58737   3.59646   6.71604   0.74783   0.00000   1.000E-03   0.000E+00   9.990E-01
 127  6.96047859   0.692  -0.59054   3.59638   6.71718   0.75326   0.00000   1.000E-03   0.000E+00   9.990E-01
 128  6.96468748   0.692  -0.59352   3.59631   6.71826   0.75852   0.00000   1.000E-03   0.000E+00   9.990E-01
 129  6.96885598   0.692  -0.59643   3.59625   6.71932   0.76369   0.00000   1.000E-03   0.000E+00   9.990E-01
 130  6.97298485   0.692  -0.59934   3.59618   6.72039   0.76887   0.00000   1.000E-03   0.000E+00   9.990E-01
 131  6.97707483   0.692  -0.60225   3.59611   6.72145   0.77404   0.00000   1.000E-03   0.000E+00   9.990E-01
 132  6.98112665   0.692  -0.60516   3.59605   6.72251   0.77922   0.00000   1.000E-03   0.000E+00   9.990E-01
 133  6.98514102   0.692  -0.60807   3.59598   6.72357   0.78440   0.00000   1.000E-03   0.000E+00   9.990E-01
 134  6.98911863   0.692  -0.61089   3.59592   6.72461   0.78948   0.00000   1.000E-03   0.000E+00   9.990E-01
 135  6.99306013   0.692  -0.61354   3.59587   6.72560   0.79440   0.00000   1.000E-03   0.000E+00   9.990E-01
 136  6.99696619   0.692  -0.61619   3.59582   6.72660   0.79931   0.00000   1.000E-03   0.000E+00   9.990E-01
 137  7.00083743   0.692  -0.61885   3.59576   6.72759   0.80423   0.00000   1.000E-03   0.000E+00   9.990E-01
 138  7.00467446   0.692  -0.62150   3.59571   6.72858   0.80915   0.00000   1.000E-03   0.000E+00   9.990E-01
 139  7.00847789   0.692  -0.62415   3.59566   6.72958   0.81407   0.00000   1.000E-03   0.000E+00   9.990E-01
 140  7.01224830   0.692  -0.62680   3.59560   6.73057   0.81899   0.00000   1.000E-03   0.000E+00   9.990E-01
 141  7.01598625   0.692  -0.62929   3.59556   6.73153   0.82374   0.00000   1.000E-03   0.000E+00   9.990E-01
 142  7.01969231   0.692  -0.63170   3.59552   6.73246   0.82843   0.00000   1.000E-03   0.000E+00   9.990E-01
 143  7.02336701   0.692  -0.63412   3.59549   6.73340   0.83311   0.00000   1.000E-03   0.000E+00   9.990E-01
 144  7.02701088   0.692  -0.63654   3.59545   6.73433   0.83780   0.00000   1.000E-03   0.000E+00   9.990E-01
 145  7.03062443   0.692  -0.63896   3.59541   6.73527   0.84248   0.00000   1.000E-03   0.000E+00   9.990E-01
 146  7.03420816   0.692  -0.64138   3.59537   6.73621   0.84717   0.00000   1.000E-03   0.000E+00   9.990E-01
 147  7.03776256   0.692  -0.64379   3.59533   6.73714   0.85185   0.00000   1.000E-03   0.000E+00   9.990E-01
 148  7.04128811   0.692  -0.64606   3.59530   6.73804   0.85638   0.00000   1.097E-03   0.000E+00   9.989E-01
 149  7.04478527   0.692  -0.64826   3.59528   6.73892   0.86085   0.00000   1.232E-03   0.000E+00   9.988E-01
 150  7.04825449   0.692  -0.65046   3.59525   6.73980   0.86532   0.00000   1.368E-03   0.000E+00   9.986E-01
 151  7.05169621   0.692  -0.65267   3.59522   6.74069   0.86978   0.00000   1.503E-03   0.000E+00   9.985E-01
 152  7.05511088   0.692  -0.65487   3.59520   6.74157   0.87425   0.00000   1.639E-03   0.000E+00   9.984E-01
 153  7.05849891   0.692  -0.65707   3.59517   6.74245   0.87872   0.00000   1.775E-03   0.000E+00   9.982E-01
 154  7.06186071   0.692  -0.65927   3.59515   6.74334   0.88319   0.00000   1.910E-03   0.000E+00   9.981E-01
 155  7.06519669   0.692  -0.66141   3.59513   6.74420   0.88758   0.00000   2.000E-03   0.000E+00   9.980E-01
 156  7.06850724   0.692  -0.66341   3.59511   6.74504   0.89185   0.00000   2.000E-03   0.000E+00   9.980E-01
 157  7.07179274   0.692  -0.66541   3.59510   6.74588   0.89611   0.00000   2.000E-03   0.000E+00   9.980E-01
 158  7.07505357   0.692  -0.66741   3.59508   6.74671   0.90037   0.00000   2.000E-03   0.000E+00   9.980E-01
 159  7.07829011   0.692  -0.66941   3.59507   6.74755   0.90464   0.00000   2.000E-03   0.000E+00   9.980E-01
 160  7.08150270   0.692  -0.67141   3.59505   6.74839   0.90890   0.00000   2.000E-03   0.000E+00   9.980E-01
 161  7.08469170   0.692  -0.67342   3.59504   6.74922   0.91317   0.00000   2.000E-03   0.000E+00   9.980E-01
 162  7.08785746   0.692  -0.67542   3.59503   6.75006   0.91743   0.00000   2.000E-03   0.000E+00   9.980E-01
 163  7.09100030   0.692  -0.67731   3.59502   6.75087   0.92158   0.00000   2.000E-03   0.000E+00   9.980E-01
 164  7.09412057   0.692  -0.67912   3.59501   6.75167   0.92566   0.00000   2.000E-03   0.000E+00   9.980E-01
 165  7.09721858   0.692  -0.68093   3.59501   6.75246   0.92973   0.00000   2.000E-03   0.000E+00   9.980E-01
 166  7.10029464   0.692  -0.68274   3.59501   6.75326   0.93381   0.00000   2.000E-03   0.000E+00   9.980E-01
 167  7.10334907   0.692  -0.68456   3.59500   6.75405   0.93788   0.00000   2.000E-03   0.000E+00   9.980E-01
 168  7.10638217   0.692  -0.68637   3.59500   6.75485   0.94196   0.00000   2.000E-03   0.000E+00   9.980E-01
 169  7.10939423   0.692  -0.68818   3.59500   6.75565   0.94604   0.00000   2.000E-03   0.000E+00   9.980E-01
 170  7.11238554   0.692  -0.68999   3.59499   6.75644   0.95011   0.00000   2.000E-03   0.000E+00   9.980E-01
 171  7.11535640   0.692  -0.69172   3.59499   6.75722   0.95411   0.00000   2.056E-03   0.000E+00   9.979E-01
 172  7.11830707   0.692  -0.69336   3.59500   6.75798   0.95801   0.00000   2.173E-03   0.000E+00   9.978E-01
 173  7.12123782   0.692  -0.69500   3.59501   6.75874   0.96191   0.00000   2.291E-03   0.000E+00   9.977E-01
 174  7.12414893   0.692  -0.69664   3.59502   6.75950   0.96581   0.00000   2.409E-03   0.000E+00   9.976E-01
 175  7.12704066   0.692  -0.69827   3.59503   6.76026   0.96971   0.00000   2.526E-03   0.000E+00   9.975E-01
 176  7.12991326   0.692  -0.69991   3.59504   6.76102   0.97361   0.00000   2.644E-03   0.000E+00   9.974E-01
 177  7.13276698   0.692  -0.70155   3.59504   6.76178   0.97752   0.00000   2.761E-03   0.000E+00   9.972E-01
 178  7.13560208   0.692  -0.70319   3.59505   6.76254   0.98142   0.00000   2.879E-03   0.000E+00   9.971E-01
 179  7.13841879   0.692  -0.70482   3.59506   6.76330   0.98532   0.00000   2.997E-03   0.000E+00   9.970E-01
 180  7.14121734   0.692  -0.70630   3.59508   6.76403   0.98907   0.00000   3.000E-03   0.000E+00   9.970E-01
 181  7.14399798   0.692  -0.70777   3.59509   6.76475   0.99281   0.00000   3.000E-03   0.000E+00   9.970E-01
 182  7.14676093   0.692  -0.70925   3.59511   6.76548   0.99655   0.00000   3.000E-03   0.000E+00   9.970E-01
 183  7.14950641   0.692  -0.71072   3.59513   6.76621   1.00029   0.00000   3.000E-03   0.000E+00   9.970E-01
 184  7.15223465   0.692  -0.71219   3.59514   6.76694   1.00403   0.00000   3.000E-03   0.000E+00   9.970E-01
 185  7.15494585   0.692  -0.71366   3.59516   6.76766   1.00777   0.00000   3.000E-03   0.000E+00   9.970E-01
 186  7.15764023   0.692  -0.71514   3.59518   6.76839   1.01151   0.00000   3.000E-03   0.000E+00   9.970E-01
 187  7.16031800   0.692  -0.71661   3.59519   6.76912   1.01525   0.00000   3.000E-03   0.000E+00   9.970E-01
 188  7.16297936   0.692  -0.71807   3.59521   6.76984   1.01898   0.00000   3.010E-03   0.000E+00   9.970E-01
 189  7.16562451   0.692  -0.71938   3.59524   6.77054   1.02257   0.00000   3.117E-03   0.000E+00   9.969E-01
 190  7.16825365   0.692  -0.72070   3.59527   6.77124   1.02616   0.00000   3.225E-03   0.000E+00   9.968E-01
 191  7.17086696   0.692  -0.72202   3.59530   6.77194   1.02975   0.00000   3.333E-03   0.000E+00   9.967E-01
 192  7.17346465   0.692  -0.72333   3.59532   6.77263   1.03334   0.00000   3.441E-03   0.000E+00   9.966E-01
 193  7.17604689   0.692  -0.72465   3.59535   6.77333   1.03693   0.00000   3.549E-03   0.000E+00   9.965E-01
 194  7.17861386   0.692  -0.72597   3.59538   6.77403   1.04053   0.00000   3.657E-03   0.000E+00   9.963E-01
 195  7.18116576   0.692  -0.72728   3.59541   6.77473   1.04412   0.00000   3.765E-03   0.000E+00   9.962E-01
 196  7.18370274   0.692  -0.72860   3.59544   6.77543   1.04771   0.00000   3.873E-03   0.000E+00   9.961E-01
 197  7.18622500   0.692  -0.72992   3.59547   6.77613   1.05130   0.00000   3.981E-03   0.000E+00   9.960E-01
 198  7.18873268   0.692  -0.73112   3.59550   6.77680   1.05478   0.00000   4.085E-03   0.000E+00   9.959E-01
 199  7.19122597   0.692  -0.73229   3.59554   6.77748   1.05823   0.00000   4.189E-03   0.000E+00   9.958E-01
 200  7.19370503   0.692  -0.73346   3.59557   6.77815   1.06168   0.00000   4.293E-03   0.000E+00   9.957E-01
 201  7.19617002   0.692  -0.73464   3.59561   6.77883   1.06514   0.00000   4.396E-03   0.000E+00   9.956E-01
 202  7.19862110   0.692  -0.73581   3.59564   6.77950   1.06859   0.00000   4.500E-03   0.000E+00   9.955E-01
 203  7.20105842   0.692  -0.73699   3.59568   6.78017   1.07204   0.00000   4.603E-03   0.000E+00   9.954E-01
 204  7.20348214   0.692  -0.73816   3.59572   6.78085   1.07549   0.00000   4.707E-03   0.000E+00   9.953E-01
 205  7.20589240   0.692  -0.73934   3.59575   6.78152   1.07895   0.00000   4.811E-03   0.000E+00   9.952E-01
 206  7.20828937   0.692  -0.74051   3.59579   6.78219   1.08240   0.00000   4.914E-03   0.000E+00   9.951E-01
 207  7.21067317   0.692  -0.74166   3.59583   6.78286   1.08583   0.00000   5.017E-03   0.000E+00   9.950E-01
 208  7.21304397   0.692  -0.74269   3.59588   6.78351   1.08915   0.00000   5.117E-03   0.000E+00   9.949E-01
 209  7.21540189   0.692  -0.74373   3.59592   6.78417   1.09248   0.00000   5.217E-03   0.000E+00   9.948E-01
 210  7.21774708   0.692  -0.74476   3.59597   6.78482   1.09580   0.00000   5.317E-03   0.000E+00   9.947E-01
 211  7.22007967   0.692  -0.74579   3.59602   6.78547   1.09913   0.00000   5.416E-03   0.000E+00   9.946E-01
 212  7.22239980   0.692  -0.74683   3.59606   6.78612   1.10245   0.00000   5.516E-03   0.000E+00   9.945E-01
 213  7.22470761   0.692  -0.74786   3.59611   6.78677   1.10578   0.00000   5.616E-03   0.000E+00   9.944E-01
 214  7.22700321   0.692  -0.74889   3.59616   6.78742   1.10910   0.00000   5.716E-03   0.000E+00   9.943E-01
 215  7.22928675   0.692  -0.74993   3.59620   6.78807   1.11243   0.00000   5.815E-03   0.000E+00   9.942E-01
 216  7.23155834   0.692  -0.75096   3.59625   6.78873   1.11575   0.00000   5.915E-03   0.000E+00   9.941E-01
 217  7.23381811   0.692  -0.75197   3.59630   6.78937   1.11906   0.00000   6.014E-03   0.000E+00   9.940E-01
 218  7.23606618   0.692  -0.75288   3.59635   6.79001   1.12226   0.00000   6.110E-03   0.000E+00   9.939E-01
 219  7.23830267   0.692  -0.75378   3.59641   6.79064   1.12547   0.00000   6.207E-03   0.000E+00   9.938E-01
 220  7.24052771   0.692  -0.75469   3.59647   6.79127   1.12867   0.00000   6.303E-03   0.000E+00   9.937E-01
 221  7.24274141   0.692  -0.75559   3.59652   6.79190   1.13187   0.00000   6.399E-03   0.000E+00   9.936E-01
 222  7.24494388   0.692  -0.75650   3.59658   6.79254   1.13508   0.00000   6.495E-03   0.000E+00   9.935E-01
 223  7.24713523   0.692  -0.75740   3.59663   6.79317   1.13828   0.00000   6.591E-03   0.000E+00   9.934E-01
 224  7.24931559   0.692  -0.75831   3.59669   6.79380   1.14149   0.00000   6.687E-03   0.000E+00   9.933E-01
 225  7.25148505   0.692  -0.75921   3.59674   6.79444   1.14469   0.00000   6.783E-03   0.000E+00   9.932E-01
 226  7.25364373   0.692  -0.76012   3.59680   6.79507   1.14790   0.00000   6.880E-03   0.000E+00   9.931E-01
 227  7.25579173   0.692  -0.76102   3.59686   6.79570   1.15110   0.00000   6.976E-03   0.000E+00   9.930E-01
 228  7.25792916   0.692  -0.76183   3.59692   6.79632   1.15423   0.00000   7.139E-03   0.000E+00   9.929E-01
 229  7.26005612   0.692  -0.76262   3.59698   6.79694   1.15732   0.00000   7.325E-03   0.000E+00   9.927E-01
 230  7.26217272   0.692  -0.76340   3.59705   6.79755   1.16041   0.00000   7.510E-03   0.000E+00   9.925E-01
 231  7.26427905   0.692  -0.76418   3.59711   6.79817   1.16351   0.00000   7.696E-03   0.000E+00   9.923E-01
 232  7.26637522   0.692  -0.76496   3.59718   6.79879   1.16660   0.00000   7.882E-03   0.000E+00   9.921E-01
 233  7.26846131   0.692  -0.76574   3.59724   6.79940   1.16970   0.00000   8.067E-03   0.000E+00   9.919E-01
 234  7.27053743   0.692  -0.76652   3.59731   6.80002   1.17279   0.00000   8.253E-03   0.000E+00   9.917E-01
 235  7.27260368   0.692  -0.76730   3.59737   6.80064   1.17589   0.00000   8.439E-03   0.000E+00   9.916E-01
 236  7.27466014   0.692  -0.76808   3.59744   6.80125   1.17898   0.00000   8.625E-03   0.000E+00   9.914E-01
 237  7.27670691   0.692  -0.76886   3.59750   6.80187   1.18208   0.00000   8.810E-03   0.000E+00   9.912E-01
 238  7.27874408   0.692  -0.76964   3.59757   6.80249   1.18517   0.00000   8.996E-03   0.000E+00   9.910E-01
 239  7.28077174   0.692  -0.77031   3.59764   6.80309   1.18817   0.00000   9.176E-03   0.000E+00   9.908E-01
 240  7.28278997   0.692  -0.77097   3.59772   6.80369   1.19116   0.00000   9.355E-03   0.000E+00   9.906E-01
 241  7.28479887   0.692  -0.77163   3.59779   6.80430   1.19415   0.00000   9.535E-03   0.000E+00   9.905E-01
 242  7.28679852   0.692  -0.77229   3.59787   6.80490   1.19714   0.00000   9.715E-03   0.000E+00   9.903E-01
 243  7.28878901   0.692  -0.77295   3.59795   6.80550   1.20014   0.00000   9.894E-03   0.000E+00   9.901E-01
 244  7.29077041   0.692  -0.77361   3.59802   6.80611   1.20313   0.00000   1.007E-02   0.000E+00   9.899E-01
 245  7.29274281   0.692  -0.77427   3.59810   6.80671   1.20612   0.00000   1.025E-02   0.000E+00   9.897E-01
 246  7.29470630   0.692  -0.77493   3.59817   6.80732   1.20911   0.00000   1.043E-02   0.000E+00   9.896E-01
 247  7.29666095   0.692  -0.77559   3.59825   6.80792   1.21211   0.00000   1.061E-02   0.000E+00   9.894E-01
 248  7.29860684   0.692  -0.77625   3.59832   6.80852   1.21510   0.00000   1.079E-02   0.000E+00   9.892E-01
 249  7.30054405   0.692  -0.77691   3.59840   6.80913   1.21809   0.00000   1.097E-02   0.000E+00   9.890E-01
 250  7.30247266   0.692  -0.77747   3.59848   6.80972   1.22100   0.00000   1.115E-02   0.000E+00   9.889E-01
 251  7.30439275   0.692  -0.77802   3.59856   6.81031   1.22390   0.00000   1.132E-02   0.000E+00   9.887E-01
 252  7.30630438   0.692  -0.77857   3.59865   6.81090   1.22680   0.00000   1.149E-02   0.000E+00   9.885E-01
 253  7.30820763   0.692  -0.77912   3.59873   6.81149   1.22970   0.00000   1.167E-02   0.000E+00   9.883E-01
 254  7.31010258   0.692  -0.77967   3.59881   6.81208   1.23259   0.00000   1.184E-02   0.000E+00   9.882E-01
 255  7.31198929   0.692  -0.78022   3.59889   6.81267   1.23549   0.00000   1.202E-02   0.000E+00   9.880E-01
 256  7.31386785   0.692  -0.78077   3.59898   6.81326   1.23839   0.00000   1.219E-02   0.000E+00   9.878E-01
 257  7.31573831   0.692  -0.78132   3.59906   6.81385   1.24128   0.00000   1.237E-02   0.000E+00   9.876E-01
 258  7.31760076   0.692  -0.78187   3.59914   6.81445   1.24418   0.00000   1.254E-02   0.000E+00   9.875E-01
 259  7.31945525   0.692  -0.78242   3.59922   6.81504   1.24708   0.00000   1.271E-02   0.000E+00   9.873E-01
 260  7.32130185   0.692  -0.78296   3.59931   6.81563   1.24998   0.00000   1.289E-02   0.000E+00   9.871E-01
 261  7.32314064   0.692  -0.78347   3.59939   6.81622   1.25284   0.00000   1.306E-02   0.000E+00   9.869E-01
 262  7.32497167   0.692  -0.78391   3.59949   6.81680   1.25565   0.00000   1.323E-02   0.000E+00   9.868E-01
 263  7.32679502   0.692  -0.78434   3.59958   6.81738   1.25846   0.00000   1.340E-02   0.000E+00   9.866E-01
 264  7.32861075   0.692  -0.78478   3.59968   6.81796   1.26127   0.00000   1.357E-02   0.000E+00   9.864E-01
 265  7.33041891   0.692  -0.78521   3.59977   6.81854   1.26408   0.00000   1.374E-02   0.000E+00   9.863E-01
 266  7.33221958   0.692  -0.78564   3.59987   6.81913   1.26689   0.00000   1.390E-02   0.000E+00   9.861E-01
 267  7.33401281   0.692  -0.78608   3.59996   6.81971   1.26970   0.00000   1.407E-02   0.000E+00   9.859E-01
 268  7.33579867   0.692  -0.78651   3.60006   6.82029   1.27251   0.00000   1.424E-02   0.000E+00   9.858E-01
 269  7.33757721   0.692  -0.78695   3.60015   6.82087   1.27532   0.00000   1.441E-02   0.000E+00   9.856E-01
 270  7.33934850   0.692  -0.78738   3.60024   6.82145   1.27813   0.00000   1.458E-02   0.000E+00   9.854E-01
 271  7.34111260   0.692  -0.78781   3.60034   6.82204   1.28093   0.00000   1.475E-02   0.000E+00   9.853E-01
 272  7.34286955   0.692  -0.78825   3.60043   6.82262   1.28374   0.00000   1.492E-02   0.000E+00   9.851E-01
 273  7.34461943   0.692  -0.78863   3.60053   6.82319   1.28651   0.00000   1.513E-02   0.000E+00   9.849E-01
 274  7.34636229   0.692  -0.78895   3.60064   6.82377   1.28924   0.00000   1.537E-02   0.000E+00   9.846E-01
 275  7.34809818   0.692  -0.78927   3.60074   6.82434   1.29197   0.00000   1.562E-02   0.000E+00   9.844E-01
 276  7.34982716   0.692  -0.78959   3.60085   6.82491   1.29469   0.00000   1.587E-02   0.000E+00   9.841E-01
 277  7.35154929   0.692  -0.78992   3.60095   6.82549   1.29742   0.00000   1.611E-02   0.000E+00   9.839E-01
 278  7.35326461   0.692  -0.79024   3.60106   6.82606   1.30015   0.00000   1.636E-02   0.000E+00   9.836E-01
 279  7.35497318   0.692  -0.79056   3.60116   6.82663   1.30288   0.00000   1.660E-02   0.000E+00   9.834E-01
 280  7.35667506   0.692  -0.79089   3.60127   6.82721   1.30560   0.00000   1.685E-02   0.000E+00   9.831E-01
 281  7.35837030   0.692  -0.79121   3.60138   6.82778   1.30833   0.00000   1.710E-02   0.000E+00   9.829E-01
 282  7.36005894   0.692  -0.79153   3.60148   6.82835   1.31106   0.00000   1.734E-02   0.000E+00   9.827E-01
 283  7.36174104   0.692  -0.79185   3.60159   6.82893   1.31379   0.00000   1.759E-02   0.000E+00   9.824E-01
 284  7.36341666   0.692  -0.79218   3.60169   6.82950   1.31651   0.00000   1.784E-02   0.000E+00   9.822E-01
 285  7.36508583   0.692  -0.79246   3.60180   6.83007   1.31922   0.00000   1.808E-02   0.000E+00   9.819E-01
 286  7.36674861   0.692  -0.79267   3.60192   6.83064   1.32187   0.00000   1.832E-02   0.000E+00   9.817E-01
 287  7.36840505   0.692  -0.79289   3.60203   6.83121   1.32452   0.00000   1.856E-02   0.000E+00   9.814E-01
 288  7.37005520   0.692  -0.79310   3.60215   6.83178   1.32717   0.00000   1.880E-02   0.000E+00   9.812E-01
 289  7.37169910   0.692  -0.79331   3.60227   6.83234   1.32983   0.00000   1.904E-02   0.000E+00   9.810E-01
 290  7.37333680   0.692  -0.79352   3.60238   6.83291   1.33248   0.00000   1.928E-02   0.000E+00   9.807E-01
 291  7.37496835   0.692  -0.79373   3.60250   6.83348   1.33513   0.00000   1.952E-02   0.000E+00   9.805E-01
 292  7.37659379   0.692  -0.79395   3.60262   6.83405   1.33778   0.00000   1.976E-02   0.000E+00   9.802E-01
 293  7.37821317   0.692  -0.79416   3.60273   6.83462   1.34044   0.00000   2.000E-02   0.000E+00   9.800E-01
 294  7.37982654   0.692  -0.79437   3.60285   6.83518   1.34309   0.00000   2.024E-02   0.000E+00   9.798E-01
 295  7.38143393   0.692  -0.79458   3.60297   6.83575   1.34574   0.00000   2.048E-02   0.000E+00   9.795E-01
 296  7.38303540   0.692  -0.79479   3.60308   6.83632   1.34839   0.00000   2.072E-02   0.000E+00   9.793E-01
 297  7.38463098   0.692  -0.79501   3.60320   6.83689   1.35104   0.00000   2.096E-02   0.000E+00   9.790E-01
 298  7.38622073   0.692  -0.79513   3.60333   6.83745   1.35364   0.00000   2.120E-02   0.000E+00   9.788E-01
 299  7.38780467   0.692  -0.79523   3.60346   6.83802   1.35622   0.00000   2.143E-02   0.000E+00   9.786E-01
 300  7.38938286   0.692  -0.79533   3.60359   6.83858   1.35881   0.00000   2.166E-02   0.000E+00   9.783E-01
 301  7.39095534   0.692  -0.79543   3.60372   6.83914   1.36139   0.00000   2.190E-02   0.000E+00   9.781E-01
 302  7.39252214   0.692  -0.79553   3.60385   6.83971   1.36397   0.00000   2.213E-02   0.000E+00   9.779E-01
 303  7.39408331   0.692  -0.79564   3.60398   6.84027   1.36655   0.00000   2.237E-02   0.000E+00   9.776E-01
 304  7.39563888   0.692  -0.79574   3.60411   6.84084   1.36914   0.00000   2.260E-02   0.000E+00   9.774E-01
 305  7.39718891   0.692  -0.79584   3.60424   6.84140   1.37172   0.00000   2.283E-02   0.000E+00   9.772E-01
 306  7.39873342   0.692  -0.79594   3.60437   6.84197   1.37430   0.00000   2.307E-02   0.000E+00   9.769E-01
 307  7.40027246   0.692  -0.79605   3.60450   6.84253   1.37689   0.00000   2.330E-02   0.000E+00   9.767E-01
 308  7.40180607   0.692  -0.79615   3.60463   6.84309   1.37947   0.00000   2.354E-02   0.000E+00   9.765E-01
 309  7.40333427   0.692  -0.79625   3.60476   6.84366   1.38205   0.00000   2.377E-02   0.000E+00   9.762E-01
 310  7.40485712   0.692  -0.79635   3.60489   6.84422   1.38463   0.00000   2.401E-02   0.000E+00   9.760E-01
 311  7.40637465   0.692  -0.79635   3.60504   6.84478   1.38715   0.00000   2.439E-02   0.000E+00   9.756E-01
 312  7.40788690   0.692  -0.79635   3.60518   6.84535   1.38966   0.00000   2.477E-02   0.000E+00   9.752E-01
 313  7.40939389   0.692  -0.79635   3.60532   6.84591   1.39217   0.00000   2.515E-02   0.000E+00   9.748E-01
 314  7.41089568   0.692  -0.79634   3.60546   6.84647   1.39468   0.00000   2.553E-02   0.000E+00   9.745E-01
 315  7.41239229   0.692  -0.79634   3.60561   6.84703   1.39719   0.00000   2.591E-02   0.000E+00   9.741E-01
 316  7.41388376   0.692  -0.79634   3.60575   6.84759   1.39970   0.00000   2.630E-02   0.000E+00   9.737E-01
 317  7.41537013   0.692  -0.79634   3.60589   6.84816   1.40222   0.00000   2.668E-02   0.000E+00   9.733E-01
 318  7.41685142   0.692  -0.79634   3.60603   6.84872   1.40473   0.00000   2.706E-02   0.000E+00   9.729E-01
 319  7.41832768   0.692  -0.79634   3.60618   6.84928   1.40724   0.00000   2.744E-02   0.000E+00   9.726E-01
 320  7.41979894   0.692  -0.79633   3.60632   6.84984   1.40975   0.00000   2.782E-02   0.000E+00   9.722E-01
 321  7.42126524   0.692  -0.79633   3.60646   6.85040   1.41226   0.00000   2.820E-02   0.000E+00   9.718E-01
 322  7.42272659   0.692  -0.79633   3.60660   6.85097   1.41477   0.00000   2.858E-02   0.000E+00   9.714E-01
 323  7.42418305   0.692  -0.79633   3.60675   6.85153   1.41729   0.00000   2.896E-02   0.000E+00   9.710E-01
 324  7.42563464   0.692  -0.79624   3.60690   6.85209   1.41974   0.00000   2.934E-02   0.000E+00   9.707E-01
 325  7.42708140   0.692  -0.79613   3.60706   6.85265   1.42219   0.00000   2.971E-02   0.000E+00   9.703E-01
 326  7.42852335   0.692  -0.79603   3.60721   6.85321   1.42464   0.00000   3.008E-02   0.000E+00   9.699E-01
 327  7.42996053   0.692  -0.79592   3.60737   6.85377   1.42709   0.00000   3.046E-02   0.000E+00   9.695E-01
 328  7.43139296   0.692  -0.79582   3.60752   6.85433   1.42954   0.00000   3.083E-02   0.000E+00   9.692E-01
 329  7.43282069   0.692  -0.79571   3.60768   6.85489   1.43199   0.00000   3.120E-02   0.000E+00   9.688E-01
 330  7.43424374   0.692  -0.79561   3.60783   6.85545   1.43444   0.00000   3.158E-02   0.000E+00   9.684E-01
 331  7.43566215   0.692  -0.79550   3.60799   6.85601   1.43689   0.00000   3.195E-02   0.000E+00   9.681E-01
 332  7.43707593   0.692  -0.79540   3.60814   6.85657   1.43934   0.00000   3.232E-02   0.000E+00   9.677E-01
 333  7.43848513   0.692  -0.79530   3.60830   6.85713   1.44179   0.00000   3.270E-02   0.000E+00   9.673E-01
 334  7.43988977   0.692  -0.79519   3.60845   6.85769   1.44424   0.00000   3.307E-02   0.000E+00   9.669E-01
 335  7.44128989   0.692  -0.79509   3.60861   6.85825   1.44669   0.00000   3.344E-02   0.000E+00   9.666E-01
 336  7.44268550   0.692  -0.79498   3.60876   6.85881   1.44914   0.00000   3.381E-02   0.000E+00   9.662E-01
 337  7.44407664   0.692  -0.79483   3.60893   6.85937   1.45156   0.00000   3.419E-02   0.000E+00   9.658E-01
 338  7.44546334   0.692  -0.79462   3.60909   6.85993   1.45395   0.00000   3.456E-02   0.000E+00   9.654E-01
 339  7.44684563   0.692  -0.79441   3.60926   6.86049   1.45634   0.00000   3.492E-02   0.000E+00   9.651E-01
 340  7.44822353   0.692  -0.79421   3.60943   6.86105   1.45873   0.00000   3.529E-02   0.000E+00   9.647E-01
 341  7.44959707   0.692  -0.79400   3.60960   6.86161   1.46112   0.00000   3.566E-02   0.000E+00   9.643E-01
 342  7.45096629   0.692  -0.79380   3.60977   6.86217   1.46350   0.00000   3.603E-02   0.000E+00   9.640E-01
 343  7.45233120   0.692  -0.79359   3.60994   6.86273   1.46589   0.00000   3.640E-02   0.000E+00   9.636E-01
 344  7.45369183   0.692  -0.79338   3.61011   6.86329   1.46828   0.00000   3.677E-02   0.000E+00   9.632E-01
 345  7.45504822   0.692  -0.79318   3.61028   6.86385   1.47067   0.00000   3.714E-02   0.000E+00   9.629E-01
 346  7.45640038   0.692  -0.79297   3.61045   6.86441   1.47306   0.00000   3.751E-02   0.000E+00   9.625E-01
 347  7.45774834   0.692  -0.79277   3.61062   6.86497   1.47545   0.00000   3.788E-02   0.000E+00   9.621E-01
 348  7.45909213   0.692  -0.79256   3.61079   6.86553   1.47783   0.00000   3.825E-02   0.000E+00   9.618E-01
 349  7.46043178   0.692  -0.79235   3.61095   6.86609   1.48022   0.00000   3.862E-02   0.000E+00   9.614E-01
 350  7.46176731   0.692  -0.79215   3.61112   6.86665   1.48261   0.00000   3.899E-02   0.000E+00   9.610E-01
 351  7.46309875   0.692  -0.79186   3.61130   6.86721   1.48494   0.00000   3.949E-02   0.000E+00   9.605E-01
 352  7.46442611   0.692  -0.79156   3.61148   6.86777   1.48727   0.00000   4.000E-02   0.000E+00   9.600E-01
 353  7.46574943   0.692  -0.79127   3.61166   6.86833   1.48960   0.00000   4.052E-02   0.000E+00   9.595E-01
 354  7.46706873   0.692  -0.79098   3.61185   6.86889   1.49193   0.00000   4.103E-02   0.000E+00   9.590E-01
 355  7.46838404   0.692  -0.79069   3.61203   6.86945   1.49426   0.00000   4.154E-02   0.000E+00   9.585E-01
 356  7.46969537   0.692  -0.79039   3.61221   6.87001   1.49660   0.00000   4.205E-02   0.000E+00   9.579E-01
 357  7.47100276   0.692  -0.79010   3.61239   6.87057   1.49893   0.00000   4.256E-02   0.000E+00   9.574E-01
 358  7.47230622   0.692  -0.78981   3.61257   6.87113   1.50126   0.00000   4.307E-02   0.000E+00   9.569E-01
 359  7.47360578   0.692  -0.78951   3.61275   6.87170   1.50359   0.00000   4.359E-02   0.000E+00   9.564E-01
 360  7.47490146   0.692  -0.78922   3.61293   6.87226   1.50592   0.00000   4.410E-02   0.000E+00   9.559E-01
 361  7.47619329   0.692  -0.78893   3.61311   6.87282   1.50825   0.00000   4.461E-02   0.000E+00   9.554E-01
 362  7.47748129   0.692  -0.78863   3.61329   6.87338   1.51058   0.00000   4.512E-02   0.000E+00   9.549E-01
 363  7.47876548   0.692  -0.78834   3.61347   6.87394   1.51291   0.00000   4.563E-02   0.000E+00   9.544E-01
 364  7.48004589   0.692  -0.78802   3.61365   6.87450   1.51522   0.00000   4.615E-02   0.000E+00   9.539E-01
 365  7.48132253   0.692  -0.78765   3.61384   6.87506   1.51750   0.00000   4.666E-02   0.000E+00   9.533E-01
 366  7.48259543   0.692  -0.78728   3.61403   6.87562   1.51977   0.00000   4.717E-02   0.000E+00   9.528E-01
 367  7.48386460   0.692  -0.78691   3.61422   6.87618   1.52204   0.00000   4.769E-02   0.000E+00   9.523E-01
 368  7.48513008   0.692  -0.78653   3.61441   6.87674   1.52432   0.00000   4.820E-02   0.000E+00   9.518E-01
 369  7.48639189   0.692  -0.78616   3.61460   6.87731   1.52659   0.00000   4.871E-02   0.000E+00   9.513E-01
 370  7.48765004   0.692  -0.78579   3.61479   6.87787   1.52887   0.00000   4.923E-02   0.000E+00   9.508E-01
 371  7.48890455   0.692  -0.78541   3.61498   6.87843   1.53114   0.00000   4.974E-02   0.000E+00   9.503E-01
 372  7.49015545   0.692  -0.78504   3.61517   6.87899   1.53341   0.00000   5.026E-02   0.000E+00   9.497E-01
 373  7.49140276   0.692  -0.78467   3.61536   6.87955   1.53569   0.00000   5.077E-02   0.000E+00   9.492E-01
 374  7.49264649   0.692  -0.78430   3.61555   6.88011   1.53796   0.00000   5.128E-02   0.000E+00   9.487E-01
 375  7.49388668   0.692  -0.78392   3.61574   6.88067   1.54023   0.00000   5.180E-02   0.000E+00   9.482E-01
 376  7.49512333   0.692  -0.78355   3.61593   6.88124   1.54251   0.00000   5.231E-02   0.000E+00   9.477E-01
 377  7.49635647   0.692  -0.78318   3.61612   6.88180   1.54478   0.00000   5.282E-02   0.000E+00   9.472E-01
 378  7.49758612   0.692  -0.78276   3.61631   6.88236   1.54702   0.00000   5.339E-02   0.000E+00   9.466E-01
 379  7.49881230   0.692  -0.78231   3.61651   6.88292   1.54924   0.00000   5.397E-02   0.000E+00   9.460E-01
 380  7.50003503   0.692  -0.78186   3.61671   6.88349   1.55145   0.00000   5.456E-02   0.000E+00   9.454E-01
 381  7.50125432   0.692  -0.78142   3.61691   6.88405   1.55367   0.00000   5.514E-02   0.000E+00   9.449E-01
 382  7.50247020   0.692  -0.78097   3.61711   6.88461   1.55589   0.00000   5.573E-02   0.000E+00   9.443E-01
 383  7.50368268   0.692  -0.78052   3.61731   6.88518   1.55811   0.00000   5.631E-02   0.000E+00   9.437E-01
 384  7.50489179   0.692  -0.78008   3.61751   6.88574   1.56033   0.00000   5.690E-02   0.000E+00   9.431E-01
 385  7.50609755   0.692  -0.77963   3.61771   6.88630   1.56254   0.00000   5.749E-02   0.000E+00   9.425E-01
 386  7.50729996   0.692  -0.77918   3.61790   6.88686   1.56476   0.00000   5.807E-02   0.000E+00   9.419E-01
 387  7.50849905   0.692  -0.77874   3.61810   6.88743   1.56698   0.00000   5.866E-02   0.000E+00   9.413E-01
 388  7.50969485   0.692  -0.77829   3.61830   6.88799   1.56920   0.00000   5.924E-02   0.000E+00   9.408E-01
 389  7.51088736   0.692  -0.77784   3.61850   6.88855   1.57141   0.00000   5.983E-02   0.000E+00   9.402E-01
 390  7.51207660   0.692  -0.77740   3.61870   6.88912   1.57363   0.00000   6.041E-02   0.000E+00   9.396E-01
 391  7.51326260   0.692  -0.77695   3.61890   6.88968   1.57585   0.00000   6.100E-02   0.000E+00   9.390E-01
 392  7.51821938   0.692  -0.77479   3.61977   6.89206   1.58496   0.00000   6.377E-02   0.000E+00   9.362E-01
 393  7.52312023   0.692  -0.77264   3.62065   6.89445   1.59408   0.00000   6.654E-02   0.000E+00   9.335E-01
 394  7.52796639   0.692  -0.77048   3.62152   6.89683   1.60319   0.00000   6.930E-02   0.000E+00   9.307E-01
 395  7.53275907   0.692  -0.76812   3.62242   6.89923   1.61213   0.00000   7.230E-02   0.000E+00   9.277E-01
 396  7.53749944   0.692  -0.76569   3.62334   6.90162   1.62102   0.00000   7.536E-02   0.000E+00   9.246E-01
 397  7.54218863   0.692  -0.76326   3.62425   6.90402   1.62990   0.00000   7.843E-02   0.000E+00   9.216E-01
 398  7.54682772   0.692  -0.76075   3.62515   6.90636   1.63850   0.00000   8.118E-02   0.000E+00   9.188E-01
 399  7.55141778   0.692  -0.75803   3.62607   6.90862   1.64675   0.00000   8.457E-02   0.000E+00   9.154E-01
 400  7.55595984   0.692  -0.75519   3.62700   6.91089   1.65494   0.00000   8.749E-02   0.000E+00   9.125E-01
 401  7.56045489   0.692  -0.75232   3.62794   6.91317   1.66305   0.00000   9.100E-02   0.000E+00   9.090E-01
 402  7.56490388   0.692  -0.74940   3.62889   6.91545   1.67110   0.00000   9.422E-02   0.000E+00   9.058E-01
 403  7.56930777   0.692  -0.74642   3.62985   6.91773   1.67907   0.00000   9.775E-02   0.000E+00   9.023E-01
 404  7.57366744   0.692  -0.74337   3.63083   6.92001   1.68700   0.00000   1.012E-01   0.000E+00   8.988E-01
 405  7.57798378   0.692  -0.74026   3.63181   6.92231   1.69484   0.00000   1.052E-01   0.000E+00   8.948E-01
 406  7.58225765   0.692  -0.73710   3.63280   6.92461   1.70262   0.00000   1.085E-01   0.000E+00   8.915E-01
 407  7.58648987   0.692  -0.73389   3.63381   6.92692   1.71033   0.00000   1.125E-01   0.000E+00   8.875E-01
 408  7.59068124   0.692  -0.73062   3.63483   6.92922   1.71796   0.00000   1.168E-01   0.000E+00   8.832E-01
 409  7.59483255   0.692  -0.72732   3.63585   6.93155   1.72554   0.00000   1.211E-01   0.000E+00   8.789E-01
 410  7.59894455   0.692  -0.72396   3.63690   6.93386   1.73303   0.00000   1.251E-01   0.000E+00   8.749E-01
 411  7.60301798   0.692  -0.72053   3.63796   6.93619   1.74046   0.00000   1.298E-01   0.000E+00   8.702E-01
 412  7.60705356   0.692  -0.71714   3.63901   6.93853   1.74780   0.00000   1.343E-01   0.000E+00   8.657E-01
 413  7.61105199   0.692  -0.71358   3.64010   6.94087   1.75508   0.00000   1.386E-01   0.000E+00   8.614E-01
 414  7.61501394   0.692  -0.71001   3.64120   6.94321   1.76227   0.00000   1.438E-01   0.000E+00   8.562E-01
 415  7.61894007   0.692  -0.70645   3.64230   6.94557   1.76938   0.00000   1.481E-01   0.000E+00   8.519E-01
 416  7.62283103   0.692  -0.70288   3.64340   6.94793   1.77643   0.00000   1.535E-01   0.000E+00   8.465E-01
 417  7.62668743   0.692  -0.69931   3.64450   6.95029   1.78339   0.00000   1.588E-01   0.000E+00   8.412E-01
 418  7.63050989   0.692  -0.69570   3.64563   6.95267   1.79024   0.00000   1.643E-01   0.000E+00   8.357E-01
 419  7.63429901   0.692  -0.69216   3.64674   6.95505   1.79702   0.00000   1.696E-01   0.000E+00   8.304E-01
 420  7.63805535   0.692  -0.68865   3.64784   6.95743   1.80369   0.00000   1.752E-01   0.000E+00   8.248E-01
 421  7.64177948   0.692  -0.68523   3.64893   6.95982   1.81027   0.00000   1.812E-01   0.000E+00   8.188E-01
 422  7.64547194   0.692  -0.68177   3.65003   6.96222   1.81673   0.00000   1.873E-01   0.000E+00   8.127E-01
 423  7.64913328   0.692  -0.67847   3.65109   6.96463   1.82309   0.00000   1.938E-01   0.000E+00   8.062E-01
 424  7.65276400   0.692  -0.67520   3.65215   6.96704   1.82935   0.00000   2.004E-01   0.000E+00   7.996E-01
 425  7.65636463   0.692  -0.67204   3.65318   6.96946   1.83549   0.00000   2.069E-01   0.000E+00   7.924E-01
 426  7.65993565   0.692  -0.66902   3.65418   6.97189   1.84151   0.00000   2.143E-01   0.000E+00   7.857E-01
 427  7.66347754   0.692  -0.66600   3.65518   6.97433   1.84742   0.00000   2.219E-01   0.000E+00   7.781E-01
 428  7.66699078   0.692  -0.66313   3.65614   6.97678   1.85318   0.00000   2.293E-01   0.000E+00   7.704E-01
 429  7.67047583   0.692  -0.66030   3.65709   6.97925   1.85880   0.00000   2.371E-01   0.000E+00   7.619E-01
 430  7.67393314   0.692  -0.65748   3.65804   6.98173   1.86428   0.00000   2.456E-01   0.000E+00   7.544E-01
 431  7.67736314   0.692  -0.65479   3.65896   6.98423   1.86958   0.00000   2.544E-01   0.000E+00   7.456E-01
 432  7.68076626   0.692  -0.65204   3.65990   6.98675   1.87474   0.00000   2.630E-01   0.000E+00   7.361E-01
 433  7.68414292   0.692  -0.64936   3.66082   6.98930   1.87970   0.00000   2.725E-01   2.140E-04   7.273E-01
 434  7.68749354   0.692  -0.64675   3.66173   6.99187   1.88447   0.00000   2.823E-01   1.000E-03   7.173E-01
 435  7.69081849   0.692  -0.64410   3.66265   6.99449   1.88903   0.00000   2.927E-01   1.000E-03   7.073E-01
 436  7.69411819   0.692  -0.64156   3.66355   6.99714   1.89336   0.00000   3.033E-01   1.000E-03   6.966E-01
 437  7.69739301   0.692  -0.63911   3.66443   6.99983   1.89745   0.00000   3.142E-01   1.000E-03   6.848E-01
 438  7.70064331   0.692  -0.63664   3.66532   7.00258   1.90127   0.00000   3.258E-01   1.000E-03   6.732E-01
 439  7.70386947   0.692  -0.63427   3.66619   7.00537   1.90481   0.00000   3.387E-01   1.000E-03   6.603E-01
 440  7.70707184   0.692  -0.63210   3.66704   7.00822   1.90806   0.00000   3.516E-01   1.000E-03   6.474E-01
 441  7.71025078   0.692  -0.62995   3.66787   7.01115   1.91097   0.00003   3.656E-01   1.000E-03   6.334E-01
 442  7.71340661   0.692  -0.62789   3.66869   7.01410   1.91357   0.00040   3.799E-01   1.000E-03   6.191E-01
 443  7.71653967   0.692  -0.62602   3.66946   7.01700   1.91594   0.00169   3.958E-01   1.226E-03   6.032E-01
 444  7.71965030   0.692  -0.62435   3.67020   7.01983   1.91807   0.00411   4.123E-01   2.000E-03   5.866E-01
 445  7.72273880   0.692  -0.62272   3.67094   7.02255   1.91995   0.00780   4.291E-01   2.000E-03   5.689E-01
 446  7.72580549   0.692  -0.62128   3.67163   7.02520   1.92160   0.01006   4.470E-01   2.000E-03   5.510E-01
 447  7.72885068   0.692  -0.62009   3.67228   7.02775   1.92300   0.01224   4.661E-01   2.559E-03   5.313E-01
 448  7.73187467   0.692  -0.61910   3.67288   7.03021   1.92419   0.01529   4.860E-01   3.000E-03   5.110E-01
 449  7.73487774   0.692  -0.61830   3.67344   7.03256   1.92513   0.01974   5.066E-01   3.000E-03   4.904E-01
 450  7.73786020   0.692  -0.61776   3.67395   7.03476   1.92573   0.02316   5.276E-01   3.238E-03   4.691E-01
 451  7.74082231   0.692  -0.61741   3.67442   7.03686   1.92610   0.02587   5.489E-01   3.639E-03   4.475E-01
 452  7.74376435   0.692  -0.61715   3.67488   7.03892   1.92640   0.02867   5.701E-01   4.026E-03   4.258E-01
 453  7.74668660   0.692  -0.61764   3.67518   7.04062   1.92605   0.03218   5.918E-01   4.293E-03   4.039E-01
 454  7.74958932   0.692  -0.61813   3.67548   7.04231   1.92570   0.03570   6.134E-01   4.560E-03   3.820E-01
 455  7.75247276   0.692  -0.61862   3.67578   7.04401   1.92535   0.03921   6.350E-01   4.828E-03   3.601E-01
 456  7.75533719   0.692  -0.61939   3.67602   7.04557   1.92483   0.04231   6.560E-01   5.174E-03   3.388E-01
 457  7.75818285   0.692  -0.62066   3.67615   7.04686   1.92398   0.04466   6.760E-01   5.666E-03   3.184E-01
 458  7.76100998   0.692  -0.62193   3.67628   7.04815   1.92313   0.04702   6.959E-01   6.157E-03   2.980E-01
 459  7.76381883   0.692  -0.62319   3.67641   7.04945   1.92228   0.04937   7.158E-01   6.648E-03   2.776E-01
 460  7.76660962   0.692  -0.62454   3.67651   7.05069   1.92138   0.05177   7.354E-01   7.180E-03   2.576E-01
 461  7.76938260   0.692  -0.62610   3.67657   7.05180   1.92038   0.05430   7.544E-01   7.814E-03   2.386E-01
 462  7.77213799   0.692  -0.62785   3.67658   7.05282   1.91933   0.05724   7.716E-01   8.000E-03   2.208E-01
 463  7.77487600   0.692  -0.62976   3.67656   7.05376   1.91823   0.06027   7.884E-01   8.389E-03   2.032E-01
 464  7.77759686   0.692  -0.63181   3.67651   7.05463   1.91707   0.06222   8.050E-01   9.000E-03   1.860E-01
 465  7.78030078   0.692  -0.63395   3.67643   7.05542   1.91588   0.06337   8.200E-01   9.000E-03   1.710E-01
 466  7.78298797   0.692  -0.63626   3.67632   7.05614   1.91465   0.06541   8.347E-01   9.435E-03   1.559E-01
 467  7.78565864   0.692  -0.63872   3.67617   7.05679   1.91341   0.06541   8.485E-01   1.000E-02   1.415E-01
 468  7.78831298   0.692  -0.64133   3.67598   7.05739   1.91218   0.06808   8.605E-01   1.000E-02   1.295E-01
 469  7.79095120   0.692  -0.64409   3.67576   7.05790   1.91090   0.06860   8.743E-01   1.016E-02   1.155E-01
 470  7.79357349   0.692  -0.64698   3.67551   7.05833   1.90960   0.06860   8.849E-01   1.100E-02   1.041E-01
 471  7.79618004   0.692  -0.64996   3.67524   7.05875   1.90838   0.06860   8.951E-01   1.100E-02   9.399E-02
 472  7.79877104   0.692  -0.65305   3.67493   7.05912   1.90720   0.06860   9.042E-01   1.100E-02   8.461E-02
 473  7.80134667   0.692  -0.65622   3.67460   7.05945   1.90605   0.06860   9.124E-01   1.200E-02   7.584E-02
 474  7.80390712   0.692  -0.65943   3.67425   7.05972   1.90494   0.06860   9.204E-01   1.200E-02   6.760E-02
 475  7.80645256   0.692  -0.66270   3.67388   7.05996   1.90389   0.06860   9.282E-01   1.200E-02   5.995E-02
 476  7.80898316   0.692  -0.66600   3.67349   7.06015   1.90288   0.06860   9.348E-01   1.200E-02   5.276E-02
 477  7.81149911   0.692  -0.66931   3.67310   7.06031   1.90189   0.06860   9.414E-01   1.200E-02   4.583E-02
 478  7.81400057   0.692  -0.67262   3.67269   7.06045   1.90098   0.06860   9.480E-01   1.300E-02   3.947E-02
 479  7.81648770   0.692  -0.67592   3.67227   7.06055   1.90011   0.06571   9.537E-01   1.300E-02   3.344E-02
 480  7.81896067   0.691  -0.67920   3.67186   7.06064   1.89930   0.06541   9.587E-01   1.300E-02   2.834E-02
 481  7.82141964   0.691  -0.68245   3.67143   7.06069   1.89855   0.06541   9.636E-01   1.300E-02   2.348E-02
 482  7.82386476   0.691  -0.68562   3.67100   7.06073   1.89784   0.06541   9.684E-01   1.300E-02   1.890E-02
 483  7.82629619   0.691  -0.68875   3.67058   7.06074   1.89719   0.06222   9.721E-01   1.300E-02   1.464E-02
 484  7.82871409   0.691  -0.69179   3.67015   7.06073   1.89659   0.06222   9.758E-01   1.300E-02   1.098E-02
 485  7.83111860   0.691  -0.69475   3.66974   7.06071   1.89605   0.06222   9.793E-01   1.300E-02   7.485E-03
 486  7.83350987   0.691  -0.69761   3.66933   7.06067   1.89555   0.05936   9.828E-01   1.300E-02   4.064E-03
 487  7.83588804   0.691  -0.70037   3.66893   7.06063   1.89511   0.05903   9.856E-01   1.300E-02   1.412E-03
 488  7.83825327   0.691  -0.70302   3.66855   7.06057   1.89471   0.05903   9.877E-01   1.300E-02  -1.161E-03
 489  7.84060568   0.691  -0.70557   3.66817   7.06050   1.89434   0.05627   9.900E-01   1.300E-02  -3.712E-03
 490  7.84294542   0.691  -0.70798   3.66781   7.06042   1.89403   0.05624   9.922E-01   1.300E-02  -5.661E-03
 491  7.84527262   0.691  -0.71028   3.66747   7.06033   1.89376   0.05518   9.939E-01   1.300E-02  -7.652E-03
 492  7.84758742   0.691  -0.71246   3.66713   7.06024   1.89352   0.05384   9.956E-01   1.300E-02  -9.347E-03
 493  7.84988994   0.691  -0.71451   3.66682   7.06015   1.89332   0.05384   9.973E-01   1.300E-02  -1.083E-02
 494  7.85218032   0.691  -0.71643   3.66652   7.06005   1.89314   0.05384   9.987E-01   1.300E-02  -1.226E-02
 495  7.85445869   0.691  -0.71823   3.66623   7.05994   1.89299   0.05202   1.000E+00   1.300E-02  -1.374E-02
 496  7.85672516   0.691  -0.71991   3.66597   7.05983   1.89287   0.05105   1.002E+00   1.300E-02  -1.480E-02
 497  7.85897987   0.691  -0.72146   3.66572   7.05973   1.89278   0.05105   1.002E+00   1.300E-02  -1.560E-02
 498  7.86122293   0.691  -0.72290   3.66548   7.05962   1.89271   0.05043   1.003E+00   1.300E-02  -1.643E-02
 499  7.86345447   0.691  -0.72424   3.66526   7.05951   1.89266   0.04806   1.004E+00   1.300E-02  -1.732E-02
 500  7.86567460   0.691  -0.72542   3.66506   7.05940   1.89263   0.04786   1.004E+00   1.300E-02  -1.758E-02
 501  7.86788344   0.691  -0.72652   3.66488   7.05929   1.89261   0.04786   1.004E+00   1.300E-02  -1.784E-02
 502  7.87008110   0.691  -0.72751   3.66470   7.05918   1.89261   0.04786   1.005E+00   1.300E-02  -1.819E-02
 503  7.87226770   0.691  -0.72837   3.66455   7.05908   1.89262   0.04675   1.005E+00   1.300E-02  -1.861E-02
 504  7.87444334   0.691  -0.72918   3.66441   7.05897   1.89263   0.04517   1.006E+00   1.300E-02  -1.906E-02
 505  7.87660814   0.691  -0.72983   3.66429   7.05887   1.89266   0.04401   1.006E+00   1.300E-02  -1.906E-02
 506  7.87876220   0.691  -0.73042   3.66418   7.05877   1.89270   0.04304   1.006E+00   1.300E-02  -1.886E-02
 507  7.88090562   0.691  -0.73096   3.66408   7.05867   1.89275   0.04218   1.006E+00   1.300E-02  -1.864E-02
 508  7.88303853   0.691  -0.73133   3.66401   7.05858   1.89281   0.04171   1.006E+00   1.300E-02  -1.838E-02
 509  7.88516100   0.691  -0.73170   3.66393   7.05848   1.89288   0.04124   1.005E+00   1.300E-02  -1.812E-02
 510  7.88727316   0.691  -0.73207   3.66386   7.05839   1.89294   0.04078   1.005E+00   1.300E-02  -1.785E-02
 511  7.88937509   0.691  -0.73228   3.66381   7.05830   1.89300   0.04018   1.005E+00   1.300E-02  -1.769E-02
 512  7.89146690   0.691  -0.73243   3.66376   7.05822   1.89306   0.03956   1.005E+00   1.300E-02  -1.755E-02
 513  7.89354868   0.691  -0.73259   3.66372   7.05814   1.89312   0.03894   1.005E+00   1.300E-02  -1.742E-02
 514  7.89562053   0.691  -0.73275   3.66368   7.05806   1.89318   0.03832   1.005E+00   1.300E-02  -1.728E-02
 515  7.89768255   0.691  -0.73291   3.66363   7.05798   1.89324   0.03769   1.005E+00   1.300E-02  -1.714E-02
 516  7.89973482   0.691  -0.73295   3.66361   7.05790   1.89330   0.03721   1.005E+00   1.291E-02  -1.698E-02
 517  7.90177743   0.691  -0.73295   3.66360   7.05783   1.89335   0.03680   1.005E+00   1.278E-02  -1.680E-02
 518  7.90381049   0.691  -0.73294   3.66359   7.05776   1.89340   0.03638   1.005E+00   1.265E-02  -1.661E-02
 519  7.90583407   0.691  -0.73293   3.66357   7.05769   1.89346   0.03597   1.005E+00   1.252E-02  -1.643E-02
 520  7.90784827   0.691  -0.73292   3.66356   7.05762   1.89351   0.03555   1.004E+00   1.239E-02  -1.625E-02
 521  7.90985316   0.691  -0.73292   3.66355   7.05755   1.89356   0.03514   1.004E+00   1.226E-02  -1.607E-02
 522  7.91184885   0.691  -0.73291   3.66353   7.05748   1.89362   0.03472   1.004E+00   1.213E-02  -1.589E-02
 523  7.91383541   0.691  -0.73290   3.66352   7.05741   1.89367   0.03431   1.004E+00   1.200E-02  -1.570E-02
 524  7.91581292   0.691  -0.73284   3.66351   7.05735   1.89365   0.03387   1.004E+00   1.200E-02  -1.592E-02
 525  7.91778146   0.691  -0.73279   3.66351   7.05729   1.89364   0.03344   1.004E+00   1.200E-02  -1.615E-02
 526  7.91974113   0.691  -0.73273   3.66350   7.05723   1.89362   0.03301   1.005E+00   1.200E-02  -1.637E-02
 527  7.92169199   0.691  -0.73267   3.66350   7.05717   1.89361   0.03258   1.005E+00   1.200E-02  -1.660E-02
 528  7.92363413   0.691  -0.73261   3.66349   7.05711   1.89359   0.03214   1.005E+00   1.200E-02  -1.682E-02
 529  7.92556762   0.691  -0.73256   3.66349   7.05705   1.89358   0.03171   1.005E+00   1.200E-02  -1.705E-02
 530  7.92749254   0.691  -0.73250   3.66348   7.05699   1.89356   0.03128   1.005E+00   1.200E-02  -1.727E-02
 531  7.92940897   0.691  -0.73244   3.66348   7.05693   1.89355   0.03085   1.005E+00   1.200E-02  -1.750E-02
 532  7.93131698   0.691  -0.73239   3.66347   7.05687   1.89353   0.03041   1.006E+00   1.200E-02  -1.773E-02
 533  7.93321664   0.691  -0.73233   3.66347   7.05681   1.89351   0.02998   1.006E+00   1.200E-02  -1.795E-02
 534  7.93510803   0.691  -0.73227   3.66346   7.05675   1.89350   0.02955   1.006E+00   1.200E-02  -1.818E-02
 535  7.93699121   0.691  -0.73223   3.66346   7.05669   1.89347   0.02917   1.006E+00   1.197E-02  -1.834E-02
 536  7.93886627   0.691  -0.73220   3.66345   7.05663   1.89342   0.02886   1.006E+00   1.192E-02  -1.843E-02
 537  7.94073326   0.691  -0.73218   3.66344   7.05657   1.89337   0.02855   1.006E+00   1.186E-02  -1.851E-02
 538  7.94259227   0.691  -0.73215   3.66343   7.05651   1.89332   0.02824   1.007E+00   1.180E-02  -1.860E-02
 539  7.94444335   0.691  -0.73212   3.66342   7.05644   1.89327   0.02792   1.007E+00   1.174E-02  -1.869E-02
 540  7.94628657   0.691  -0.73210   3.66341   7.05638   1.89322   0.02761   1.007E+00   1.168E-02  -1.877E-02
 541  7.94812201   0.691  -0.73207   3.66340   7.05632   1.89317   0.02730   1.007E+00   1.163E-02  -1.886E-02
 542  7.94994972   0.691  -0.73205   3.66340   7.05626   1.89312   0.02699   1.007E+00   1.157E-02  -1.895E-02
 543  7.95176977   0.691  -0.73202   3.66339   7.05620   1.89307   0.02668   1.007E+00   1.151E-02  -1.903E-02
 544  7.95358222   0.691  -0.73199   3.66338   7.05614   1.89302   0.02637   1.008E+00   1.145E-02  -1.912E-02
 545  7.95538714   0.691  -0.73197   3.66337   7.05607   1.89297   0.02606   1.008E+00   1.140E-02  -1.921E-02
 546  7.95718459   0.691  -0.73194   3.66336   7.05601   1.89292   0.02575   1.008E+00   1.134E-02  -1.929E-02
 547  7.95897464   0.691  -0.73192   3.66335   7.05595   1.89287   0.02544   1.008E+00   1.128E-02  -1.938E-02
 548  7.96075733   0.691  -0.73189   3.66334   7.05589   1.89282   0.02513   1.008E+00   1.122E-02  -1.947E-02
 549  7.96253274   0.691  -0.73186   3.66333   7.05583   1.89277   0.02481   1.009E+00   1.116E-02  -1.955E-02
 550  7.96430092   0.691  -0.73184   3.66333   7.05576   1.89272   0.02450   1.009E+00   1.111E-02  -1.964E-02
 551  7.96606193   0.691  -0.73181   3.66332   7.05570   1.89267   0.02419   1.009E+00   1.105E-02  -1.973E-02
 552  7.96781583   0.691  -0.73179   3.66331   7.05564   1.89262   0.02390   1.009E+00   1.099E-02  -1.980E-02
 553  7.96956267   0.691  -0.73180   3.66329   7.05558   1.89256   0.02367   1.009E+00   1.096E-02  -1.981E-02
 554  7.97130251   0.691  -0.73181   3.66328   7.05552   1.89249   0.02345   1.009E+00   1.092E-02  -1.982E-02
 555  7.97303542   0.691  -0.73182   3.66327   7.05546   1.89243   0.02323   1.009E+00   1.088E-02  -1.982E-02
 556  7.97476143   0.691  -0.73183   3.66325   7.05540   1.89236   0.02300   1.009E+00   1.084E-02  -1.983E-02
 557  7.97648062   0.691  -0.73183   3.66324   7.05535   1.89230   0.02278   1.009E+00   1.080E-02  -1.984E-02
 558  7.97819302   0.691  -0.73184   3.66322   7.05529   1.89223   0.02256   1.009E+00   1.076E-02  -1.985E-02
 559  7.97989870   0.691  -0.73185   3.66321   7.05523   1.89217   0.02234   1.009E+00   1.072E-02  -1.986E-02
 560  7.98159771   0.691  -0.73186   3.66320   7.05517   1.89210   0.02211   1.009E+00   1.069E-02  -1.986E-02
 561  7.98329009   0.691  -0.73187   3.66318   7.05511   1.89204   0.02189   1.009E+00   1.065E-02  -1.987E-02
 562  7.98497591   0.691  -0.73188   3.66317   7.05505   1.89198   0.02167   1.009E+00   1.061E-02  -1.988E-02
 563  7.98665520   0.691  -0.73188   3.66316   7.05499   1.89191   0.02144   1.009E+00   1.057E-02  -1.989E-02
 564  7.98832803   0.691  -0.73189   3.66314   7.05493   1.89185   0.02122   1.009E+00   1.053E-02  -1.989E-02
 565  7.98999444   0.691  -0.73190   3.66313   7.05487   1.89178   0.02100   1.010E+00   1.049E-02  -1.990E-02
 566  7.99165448   0.691  -0.73191   3.66311   7.05482   1.89172   0.02078   1.010E+00   1.045E-02  -1.991E-02
 567  7.99330820   0.691  -0.73192   3.66310   7.05476   1.89165   0.02055   1.010E+00   1.042E-02  -1.992E-02
 568  7.99495565   0.691  -0.73193   3.66309   7.05470   1.89159   0.02033   1.010E+00   1.038E-02  -1.992E-02
 569  7.99659687   0.691  -0.73194   3.66307   7.05464   1.89153   0.02011   1.010E+00   1.034E-02  -1.993E-02
 570  7.99823191   0.691  -0.73194   3.66306   7.05458   1.89146   0.01989   1.010E+00   1.030E-02  -1.994E-02
 571  7.99986082   0.691  -0.73195   3.66304   7.05452   1.89140   0.01966   1.010E+00   1.026E-02  -1.995E-02
 572  8.00148364   0.691  -0.73196   3.66303   7.05446   1.89133   0.01944   1.010E+00   1.022E-02  -1.996E-02
 573  8.00310042   0.691  -0.73197   3.66302   7.05440   1.89127   0.01922   1.010E+00   1.018E-02  -1.996E-02
 574  8.00471121   0.691  -0.73198   3.66300   7.05434   1.89120   0.01899   1.010E+00   1.015E-02  -1.997E-02
 575  8.00631604   0.691  -0.73199   3.66299   7.05428   1.89114   0.01877   1.010E+00   1.011E-02  -1.998E-02
 576  8.00791496   0.691  -0.73199   3.66297   7.05423   1.89108   0.01855   1.010E+00   1.007E-02  -1.999E-02
 577  8.00950802   0.691  -0.73200   3.66296   7.05417   1.89101   0.01833   1.010E+00   1.003E-02  -1.999E-02
 578  8.01109526   0.691  -0.73201   3.66295   7.05411   1.89095   0.01812   1.010E+00   9.995E-03  -1.997E-02
 579  8.01267671   0.691  -0.73201   3.66294   7.05406   1.89093   0.01797   1.010E+00   9.969E-03  -1.983E-02
 580  8.01425243   0.691  -0.73201   3.66293   7.05402   1.89090   0.01782   1.010E+00   9.943E-03  -1.968E-02
 581  8.01582245   0.691  -0.73201   3.66292   7.05397   1.89087   0.01767   1.010E+00   9.917E-03  -1.954E-02
 582  8.01738682   0.691  -0.73200   3.66291   7.05393   1.89084   0.01752   1.009E+00   9.892E-03  -1.939E-02
 583  8.01894557   0.691  -0.73200   3.66290   7.05388   1.89081   0.01737   1.009E+00   9.866E-03  -1.925E-02
 584  8.02049875   0.691  -0.73200   3.66289   7.05383   1.89078   0.01723   1.009E+00   9.840E-03  -1.911E-02
 585  8.02204639   0.691  -0.73200   3.66288   7.05379   1.89076   0.01708   1.009E+00   9.815E-03  -1.896E-02
 586  8.02358854   0.690  -0.73200   3.66287   7.05374   1.89073   0.01693   1.009E+00   9.789E-03  -1.882E-02
 587  8.02512523   0.690  -0.73200   3.66286   7.05370   1.89070   0.01678   1.009E+00   9.763E-03  -1.867E-02
 588  8.02665650   0.690  -0.73199   3.66285   7.05365   1.89067   0.01663   1.009E+00   9.738E-03  -1.853E-02
 589  8.02818239   0.690  -0.73199   3.66284   7.05360   1.89064   0.01648   1.009E+00   9.712E-03  -1.839E-02
 590  8.02970294   0.690  -0.73199   3.66283   7.05356   1.89061   0.01633   1.008E+00   9.686E-03  -1.824E-02
 591  8.03121818   0.690  -0.73199   3.66282   7.05351   1.89059   0.01618   1.008E+00   9.661E-03  -1.810E-02
 592  8.03272816   0.690  -0.73199   3.66281   7.05347   1.89056   0.01604   1.008E+00   9.635E-03  -1.795E-02
 593  8.03423290   0.690  -0.73199   3.66281   7.05342   1.89053   0.01589   1.008E+00   9.609E-03  -1.781E-02
 594  8.03573245   0.690  -0.73199   3.66280   7.05337   1.89050   0.01574   1.008E+00   9.583E-03  -1.767E-02
 595  8.03722684   0.690  -0.73198   3.66279   7.05333   1.89047   0.01559   1.008E+00   9.558E-03  -1.752E-02
 596  8.03871611   0.690  -0.73198   3.66278   7.05328   1.89045   0.01544   1.008E+00   9.532E-03  -1.738E-02
 597  8.04020028   0.690  -0.73198   3.66277   7.05324   1.89042   0.01529   1.008E+00   9.506E-03  -1.724E-02
 598  8.04167940   0.690  -0.73198   3.66276   7.05319   1.89039   0.01514   1.007E+00   9.481E-03  -1.709E-02
 599  8.04315350   0.690  -0.73198   3.66275   7.05314   1.89036   0.01499   1.007E+00   9.455E-03  -1.695E-02
 600  8.04462261   0.690  -0.73198   3.66274   7.05310   1.89033   0.01485   1.007E+00   9.429E-03  -1.680E-02
 601  8.04608677   0.690  -0.73197   3.66273   7.05305   1.89030   0.01470   1.007E+00   9.404E-03  -1.666E-02
 602  8.04754601   0.690  -0.73197   3.66272   7.05301   1.89028   0.01455   1.007E+00   9.378E-03  -1.652E-02
 603  8.04900037   0.690  -0.73197   3.66271   7.05296   1.89025   0.01440   1.007E+00   9.352E-03  -1.637E-02
 604  8.05044987   0.690  -0.73197   3.66270   7.05291   1.89022   0.01425   1.007E+00   9.326E-03  -1.623E-02
 605  8.05189454   0.690  -0.73197   3.66269   7.05287   1.89019   0.01410   1.007E+00   9.301E-03  -1.608E-02
 606  8.05333443   0.690  -0.73197   3.66268   7.05282   1.89016   0.01395   1.006E+00   9.275E-03  -1.594E-02
 607  8.05476956   0.690  -0.73196   3.66267   7.05278   1.89013   0.01380   1.006E+00   9.249E-03  -1.580E-02
 608  8.05619997   0.690  -0.73196   3.66266   7.05273   1.89011   0.01366   1.006E+00   9.224E-03  -1.565E-02
 609  8.05762567   0.690  -0.73196   3.66265   7.05268   1.89008   0.01351   1.006E+00   9.198E-03  -1.551E-02
 610  8.05904671   0.690  -0.73196   3.66264   7.05264   1.89005   0.01336   1.006E+00   9.172E-03  -1.536E-02
 611  8.06046312   0.690  -0.73196   3.66263   7.05259   1.89002   0.01321   1.006E+00   9.147E-03  -1.522E-02
 612  8.06187493   0.690  -0.73196   3.66262   7.05255   1.88999   0.01306   1.006E+00   9.121E-03  -1.508E-02
 613  8.06328215   0.690  -0.73196   3.66262   7.05250   1.88996   0.01291   1.005E+00   9.095E-03  -1.493E-02
 614  8.06468484   0.690  -0.73195   3.66261   7.05245   1.88994   0.01276   1.005E+00   9.069E-03  -1.479E-02
 615  8.06608301   0.690  -0.73195   3.66260   7.05241   1.88991   0.01261   1.005E+00   9.044E-03  -1.465E-02
 616  8.06747669   0.690  -0.73195   3.66259   7.05236   1.88988   0.01246   1.005E+00   9.018E-03  -1.450E-02
 617  8.06886591   0.690  -0.73195   3.66258   7.05232   1.88986   0.01234   1.005E+00   8.995E-03  -1.438E-02
 618  8.07025070   0.690  -0.73194   3.66257   7.05229   1.88984   0.01227   1.005E+00   8.978E-03  -1.429E-02
 619  8.07163109   0.690  -0.73193   3.66257   7.05226   1.88983   0.01219   1.005E+00   8.961E-03  -1.421E-02
 620  8.07300711   0.690  -0.73192   3.66256   7.05223   1.88982   0.01212   1.005E+00   8.944E-03  -1.412E-02
 621  8.07437878   0.690  -0.73191   3.66256   7.05219   1.88981   0.01205   1.005E+00   8.926E-03  -1.404E-02
 622  8.07574614   0.690  -0.73190   3.66255   7.05216   1.88979   0.01198   1.005E+00   8.909E-03  -1.395E-02
 623  8.07710920   0.690  -0.73189   3.66255   7.05213   1.88978   0.01190   1.005E+00   8.892E-03  -1.387E-02
 624  8.07846800   0.690  -0.73189   3.66254   7.05210   1.88977   0.01183   1.005E+00   8.875E-03  -1.379E-02
 625  8.07982256   0.690  -0.73188   3.66254   7.05207   1.88976   0.01176   1.004E+00   8.858E-03  -1.370E-02
 626  8.08117290   0.690  -0.73187   3.66253   7.05204   1.88975   0.01169   1.004E+00   8.841E-03  -1.362E-02
 627  8.08251907   0.690  -0.73186   3.66253   7.05200   1.88973   0.01161   1.004E+00   8.824E-03  -1.353E-02
 628  8.08386107   0.690  -0.73185   3.66252   7.05197   1.88972   0.01154   1.004E+00   8.806E-03  -1.345E-02
 629  8.08519894   0.690  -0.73184   3.66251   7.05194   1.88971   0.01147   1.004E+00   8.789E-03  -1.337E-02
 630  8.08653269   0.690  -0.73183   3.66251   7.05191   1.88970   0.01140   1.004E+00   8.772E-03  -1.328E-02
 631  8.08786237   0.690  -0.73182   3.66250   7.05188   1.88968   0.01132   1.004E+00   8.755E-03  -1.320E-02
 632  8.08918799   0.690  -0.73181   3.66250   7.05185   1.88967   0.01125   1.004E+00   8.738E-03  -1.311E-02
 633  8.09050957   0.690  -0.73180   3.66249   7.05181   1.88966   0.01118   1.004E+00   8.721E-03  -1.303E-02
 634  8.09182714   0.690  -0.73180   3.66249   7.05178   1.88965   0.01111   1.004E+00   8.704E-03  -1.295E-02
 635  8.09314073   0.690  -0.73179   3.66248   7.05175   1.88963   0.01103   1.004E+00   8.687E-03  -1.286E-02
 636  8.09445036   0.690  -0.73178   3.66248   7.05172   1.88962   0.01096   1.004E+00   8.669E-03  -1.278E-02
 637  8.09575605   0.690  -0.73177   3.66247   7.05169   1.88961   0.01089   1.004E+00   8.652E-03  -1.269E-02
 638  8.09705783   0.690  -0.73176   3.66247   7.05166   1.88960   0.01082   1.004E+00   8.635E-03  -1.261E-02
 639  8.09835571   0.690  -0.73175   3.66246   7.05162   1.88959   0.01074   1.003E+00   8.618E-03  -1.252E-02
 640  8.09964973   0.690  -0.73174   3.66246   7.05159   1.88957   0.01067   1.003E+00   8.601E-03  -1.244E-02
 641  8.10093990   0.690  -0.73173   3.66245   7.05156   1.88956   0.01060   1.003E+00   8.584E-03  -1.236E-02
 642  8.10222626   0.690  -0.73172   3.66245   7.05153   1.88955   0.01053   1.003E+00   8.567E-03  -1.227E-02
 643  8.10350881   0.690  -0.73172   3.66244   7.05150   1.88954   0.01045   1.003E+00   8.550E-03  -1.219E-02
 644  8.10478759   0.690  -0.73171   3.66244   7.05146   1.88952   0.01038   1.003E+00   8.532E-03  -1.210E-02
 645  8.10606261   0.690  -0.73170   3.66243   7.05143   1.88951   0.01031   1.003E+00   8.515E-03  -1.202E-02
 646  8.10733390   0.690  -0.73169   3.66242   7.05140   1.88950   0.01024   1.003E+00   8.498E-03  -1.194E-02
 647  8.10860148   0.690  -0.73168   3.66242   7.05137   1.88949   0.01016   1.003E+00   8.481E-03  -1.185E-02
 648  8.10986538   0.690  -0.73167   3.66241   7.05134   1.88947   0.01009   1.003E+00   8.464E-03  -1.177E-02
 649  8.11112560   0.690  -0.73166   3.66241   7.05131   1.88946   0.01002   1.003E+00   8.447E-03  -1.168E-02
 650  8.11238218   0.690  -0.73165   3.66240   7.05127   1.88945   0.00995   1.003E+00   8.430E-03  -1.160E-02
 651  8.11363513   0.690  -0.73164   3.66240   7.05124   1.88944   0.00987   1.003E+00   8.412E-03  -1.152E-02
 652  8.11488448   0.690  -0.73164   3.66239   7.05121   1.88942   0.00980   1.003E+00   8.395E-03  -1.143E-02
 653  8.11613024   0.690  -0.73163   3.66239   7.05118   1.88941   0.00973   1.003E+00   8.378E-03  -1.135E-02
 654  8.11737244   0.690  -0.73162   3.66238   7.05115   1.88940   0.00966   1.002E+00   8.361E-03  -1.126E-02
 655  8.11861110   0.690  -0.73161   3.66238   7.05112   1.88939   0.00958   1.002E+00   8.344E-03  -1.118E-02
 656  8.11984624   0.690  -0.73160   3.66237   7.05108   1.88938   0.00951   1.002E+00   8.327E-03  -1.109E-02
 657  8.12107787   0.690  -0.73159   3.66237   7.05105   1.88936   0.00944   1.002E+00   8.310E-03  -1.101E-02
 658  8.12230602   0.690  -0.73158   3.66236   7.05102   1.88935   0.00937   1.002E+00   8.293E-03  -1.093E-02
 659  8.12353071   0.690  -0.73157   3.66236   7.05099   1.88934   0.00930   1.002E+00   8.275E-03  -1.084E-02
 660  8.12475195   0.690  -0.73156   3.66235   7.05096   1.88933   0.00922   1.002E+00   8.258E-03  -1.076E-02
 661  8.12596977   0.690  -0.73156   3.66234   7.05093   1.88931   0.00915   1.002E+00   8.241E-03  -1.067E-02
 662  8.12718418   0.690  -0.73155   3.66234   7.05089   1.88930   0.00908   1.002E+00   8.224E-03  -1.059E-02
 663  8.12839521   0.690  -0.73154   3.66233   7.05086   1.88929   0.00901   1.002E+00   8.207E-03  -1.051E-02
 664  8.12960286   0.690  -0.73153   3.66233   7.05083   1.88928   0.00893   1.002E+00   8.190E-03  -1.042E-02
 665  8.13080717   0.690  -0.73152   3.66232   7.05080   1.88926   0.00886   1.002E+00   8.173E-03  -1.034E-02
 666  8.13200815   0.690  -0.73151   3.66232   7.05077   1.88925   0.00879   1.002E+00   8.156E-03  -1.025E-02
 667  8.13320582   0.690  -0.73150   3.66231   7.05074   1.88924   0.00872   1.002E+00   8.138E-03  -1.017E-02
 668  8.13440020   0.690  -0.73149   3.66231   7.05070   1.88923   0.00864   1.001E+00   8.121E-03  -1.009E-02
 669  8.13559129   0.690  -0.73148   3.66230   7.05067   1.88921   0.00857   1.001E+00   8.104E-03  -1.000E-02
 670  8.13677913   0.690  -0.73148   3.66230   7.05064   1.88920   0.00850   1.001E+00   8.087E-03  -9.917E-03
 671  8.13796373   0.690  -0.73147   3.66229   7.05061   1.88919   0.00843   1.001E+00   8.070E-03  -9.833E-03
 672  8.13914511   0.690  -0.73146   3.66229   7.05058   1.88918   0.00835   1.001E+00   8.053E-03  -9.749E-03
 673  8.14032329   0.690  -0.73145   3.66228   7.05055   1.88917   0.00828   1.001E+00   8.036E-03  -9.665E-03
 674  8.14149827   0.690  -0.73144   3.66228   7.05051   1.88915   0.00821   1.001E+00   8.018E-03  -9.581E-03
 675  8.14267009   0.690  -0.73143   3.66227   7.05048   1.88914   0.00814   1.001E+00   8.001E-03  -9.497E-03
 676  8.14383875   0.690  -0.73142   3.66227   7.05046   1.88913   0.00810   1.001E+00   8.000E-03  -9.455E-03
 677  8.14500427   0.690  -0.73142   3.66226   7.05044   1.88913   0.00806   1.001E+00   8.000E-03  -9.417E-03
 678  8.14616668   0.690  -0.73141   3.66226   7.05042   1.88912   0.00802   1.001E+00   8.000E-03  -9.379E-03
 679  8.14732598   0.690  -0.73140   3.66226   7.05040   1.88911   0.00798   1.001E+00   8.000E-03  -9.341E-03
 680  8.14848220   0.690  -0.73139   3.66225   7.05038   1.88911   0.00795   1.001E+00   8.000E-03  -9.303E-03
 681  8.14963534   0.689  -0.73139   3.66225   7.05036   1.88910   0.00791   1.001E+00   8.000E-03  -9.265E-03
 682  8.15078544   0.689  -0.73138   3.66225   7.05034   1.88909   0.00787   1.001E+00   8.000E-03  -9.227E-03
 683  8.15193249   0.689  -0.73137   3.66224   7.05032   1.88908   0.00784   1.001E+00   8.000E-03  -9.189E-03
 684  8.15307653   0.689  -0.73137   3.66224   7.05030   1.88908   0.00780   1.001E+00   8.000E-03  -9.151E-03
 685  8.15421755   0.689  -0.73136   3.66224   7.05028   1.88907   0.00776   1.001E+00   8.000E-03  -9.113E-03
 686  8.15535559   0.689  -0.73135   3.66224   7.05026   1.88906   0.00773   1.001E+00   8.000E-03  -9.075E-03
 687  8.15649066   0.689  -0.73134   3.66223   7.05024   1.88906   0.00769   1.001E+00   8.000E-03  -9.037E-03
 688  8.15762276   0.689  -0.73134   3.66223   7.05022   1.88905   0.00765   1.001E+00   8.000E-03  -8.999E-03
 689  8.15875192   0.689  -0.73133   3.66223   7.05020   1.88904   0.00761   1.001E+00   8.000E-03  -8.961E-03
 690  8.15987815   0.689  -0.73132   3.66222   7.05018   1.88903   0.00758   1.001E+00   8.000E-03  -8.923E-03
 691  8.16100147   0.689  -0.73132   3.66222   7.05016   1.88903   0.00754   1.001E+00   8.000E-03  -8.885E-03
 692  8.16212190   0.689  -0.73131   3.66222   7.05014   1.88902   0.00750   1.001E+00   8.000E-03  -8.847E-03
 693  8.16323944   0.689  -0.73130   3.66221   7.05012   1.88901   0.00747   1.001E+00   8.000E-03  -8.808E-03
 694  8.16435411   0.689  -0.73129   3.66221   7.05010   1.88901   0.00743   1.001E+00   8.000E-03  -8.770E-03
 695  8.16546592   0.689  -0.73129   3.66221   7.05008   1.88900   0.00739   1.001E+00   8.000E-03  -8.732E-03
 696  8.16657490   0.689  -0.73128   3.66220   7.05006   1.88899   0.00736   1.001E+00   8.000E-03  -8.694E-03
 697  8.16768105   0.689  -0.73127   3.66220   7.05004   1.88898   0.00732   1.000E+00   8.000E-03  -8.656E-03
 698  8.16878440   0.689  -0.73127   3.66220   7.05002   1.88898   0.00728   1.000E+00   8.000E-03  -8.618E-03
 699  8.16988494   0.689  -0.73126   3.66219   7.05000   1.88897   0.00724   1.000E+00   8.000E-03  -8.580E-03
 700  8.17098271   0.689  -0.73125   3.66219   7.04998   1.88896   0.00721   1.000E+00   8.000E-03  -8.542E-03
 701  8.17207771   0.689  -0.73124   3.66219   7.04996   1.88896   0.00717   1.000E+00   8.000E-03  -8.504E-03
 702  8.17316995   0.689  -0.73124   3.66218   7.04995   1.88895   0.00713   1.000E+00   8.000E-03  -8.466E-03
 703  8.17425945   0.689  -0.73123   3.66218   7.04993   1.88894   0.00710   1.000E+00   8.000E-03  -8.428E-03
 704  8.17534623   0.689  -0.73122   3.66218   7.04991   1.88894   0.00706   1.000E+00   8.000E-03  -8.390E-03
 705  8.17643029   0.689  -0.73121   3.66217   7.04989   1.88893   0.00702   1.000E+00   8.000E-03  -8.352E-03
 706  8.17751166   0.689  -0.73121   3.66217   7.04987   1.88892   0.00699   1.000E+00   8.000E-03  -8.314E-03
 707  8.17859034   0.689  -0.73120   3.66217   7.04985   1.88891   0.00695   1.000E+00   8.000E-03  -8.276E-03
 708  8.17966635   0.689  -0.73119   3.66216   7.04983   1.88891   0.00691   1.000E+00   8.000E-03  -8.238E-03
 709  8.18073969   0.689  -0.73119   3.66216   7.04981   1.88890   0.00687   1.000E+00   8.000E-03  -8.200E-03
 710  8.18181039   0.689  -0.73118   3.66216   7.04979   1.88889   0.00684   1.000E+00   8.000E-03  -8.162E-03
 711  8.18287846   0.689  -0.73117   3.66216   7.04977   1.88889   0.00680   1.000E+00   8.000E-03  -8.124E-03
 712  8.18394391   0.689  -0.73116   3.66215   7.04975   1.88888   0.00676   1.000E+00   8.000E-03  -8.086E-03
 713  8.18500675   0.689  -0.73116   3.66215   7.04973   1.88887   0.00673   1.000E+00   8.000E-03  -8.048E-03
 714  8.18606700   0.689  -0.73115   3.66215   7.04971   1.88886   0.00669   1.000E+00   8.000E-03  -8.010E-03
 715  8.18712466   0.689  -0.73114   3.66214   7.04969   1.88886   0.00665   1.000E+00   8.000E-03  -7.972E-03
 716  8.18817975   0.689  -0.73114   3.66214   7.04967   1.88885   0.00662   1.000E+00   8.000E-03  -7.934E-03
 717  8.18923229   0.689  -0.73113   3.66214   7.04965   1.88884   0.00658   1.000E+00   8.000E-03  -7.896E-03
 718  8.19028228   0.689  -0.73112   3.66213   7.04963   1.88884   0.00654   1.000E+00   8.000E-03  -7.858E-03
 719  8.19132974   0.689  -0.73111   3.66213   7.04961   1.88883   0.00650   1.000E+00   8.000E-03  -7.820E-03
 720  8.19237468   0.689  -0.73111   3.66213   7.04959   1.88882   0.00647   1.000E+00   8.000E-03  -7.782E-03
 721  8.19341711   0.689  -0.73110   3.66212   7.04957   1.88881   0.00643   1.000E+00   8.000E-03  -7.744E-03
 722  8.19445705   0.689  -0.73109   3.66212   7.04955   1.88881   0.00639   9.999E-01   8.000E-03  -7.706E-03
 723  8.19549450   0.689  -0.73109   3.66212   7.04953   1.88880   0.00636   9.999E-01   8.000E-03  -7.668E-03
 724  8.19652948   0.689  -0.73108   3.66211   7.04951   1.88879   0.00632   9.999E-01   8.000E-03  -7.630E-03
 725  8.19756199   0.689  -0.73107   3.66211   7.04949   1.88879   0.00628   9.999E-01   8.000E-03  -7.592E-03
 726  8.19859206   0.689  -0.73106   3.66211   7.04947   1.88878   0.00625   9.998E-01   8.000E-03  -7.553E-03
 727  8.19961969   0.689  -0.73106   3.66210   7.04945   1.88877   0.00621   9.998E-01   8.000E-03  -7.515E-03
 728  8.20064490   0.689  -0.73105   3.66210   7.04943   1.88877   0.00617   9.998E-01   8.000E-03  -7.477E-03
 729  8.20166769   0.689  -0.73104   3.66210   7.04941   1.88876   0.00613   9.998E-01   8.000E-03  -7.439E-03
 730  8.20268808   0.689  -0.73103   3.66209   7.04939   1.88875   0.00610   9.997E-01   8.000E-03  -7.401E-03
 731  8.20370608   0.689  -0.73103   3.66209   7.04937   1.88874   0.00606   9.997E-01   8.000E-03  -7.363E-03
 732  8.20472169   0.689  -0.73102   3.66209   7.04935   1.88874   0.00602   9.997E-01   8.000E-03  -7.325E-03
 733  8.20573494   0.689  -0.73101   3.66208   7.04933   1.88873   0.00599   9.997E-01   8.000E-03  -7.287E-03
 734  8.20674583   0.689  -0.73101   3.66208   7.04931   1.88872   0.00595   9.997E-01   8.000E-03  -7.249E-03
 735  8.20775437   0.689  -0.73100   3.66208   7.04929   1.88872   0.00591   9.996E-01   8.000E-03  -7.211E-03
 736  8.20876057   0.689  -0.73099   3.66208   7.04927   1.88871   0.00588   9.996E-01   8.000E-03  -7.173E-03
 737  8.20976445   0.689  -0.73098   3.66207   7.04925   1.88870   0.00584   9.996E-01   8.000E-03  -7.135E-03
 738  8.21076601   0.689  -0.73098   3.66207   7.04923   1.88869   0.00580   9.996E-01   8.000E-03  -7.097E-03
 739  8.21176527   0.689  -0.73097   3.66207   7.04921   1.88869   0.00576   9.995E-01   8.000E-03  -7.059E-03
 740  8.21276223   0.689  -0.73096   3.66206   7.04919   1.88868   0.00573   9.995E-01   8.000E-03  -7.021E-03
 741  8.21375691   0.689  -0.73096   3.66206   7.04917   1.88867   0.00569   9.995E-01   8.000E-03  -6.983E-03
 742  8.21474932   0.689  -0.73095   3.66206   7.04915   1.88867   0.00565   9.995E-01   8.000E-03  -6.945E-03
 743  8.21573947   0.689  -0.73094   3.66205   7.04913   1.88866   0.00562   9.994E-01   8.000E-03  -6.907E-03
 744  8.21672736   0.689  -0.73093   3.66205   7.04911   1.88865   0.00558   9.994E-01   8.000E-03  -6.869E-03
 745  8.21771301   0.689  -0.73093   3.66205   7.04909   1.88864   0.00554   9.994E-01   8.000E-03  -6.831E-03
 746  8.21869643   0.689  -0.73092   3.66204   7.04907   1.88864   0.00551   9.994E-01   8.000E-03  -6.793E-03
 747  8.21967763   0.689  -0.73091   3.66204   7.04905   1.88863   0.00547   9.994E-01   8.000E-03  -6.755E-03
 748  8.22065661   0.689  -0.73091   3.66204   7.04903   1.88862   0.00543   9.993E-01   8.000E-03  -6.717E-03
 749  8.22163340   0.689  -0.73090   3.66203   7.04901   1.88862   0.00539   9.993E-01   8.000E-03  -6.679E-03
 750  8.22260799   0.689  -0.73089   3.66203   7.04899   1.88861   0.00536   9.993E-01   8.000E-03  -6.641E-03
 751  8.22358040   0.689  -0.73088   3.66203   7.04897   1.88860   0.00532   9.993E-01   8.000E-03  -6.603E-03
 752  8.22455063   0.689  -0.73088   3.66202   7.04895   1.88860   0.00528   9.992E-01   8.000E-03  -6.565E-03
 753  8.22551871   0.689  -0.73087   3.66202   7.04893   1.88859   0.00525   9.992E-01   8.000E-03  -6.527E-03
 754  8.22648463   0.689  -0.73086   3.66202   7.04891   1.88858   0.00521   9.992E-01   8.000E-03  -6.489E-03
 755  8.22744841   0.689  -0.73085   3.66201   7.04889   1.88857   0.00517   9.992E-01   8.000E-03  -6.451E-03
 756  8.22841005   0.689  -0.73085   3.66201   7.04887   1.88857   0.00514   9.992E-01   8.000E-03  -6.413E-03
 757  8.22936957   0.689  -0.73084   3.66201   7.04885   1.88856   0.00510   9.991E-01   8.000E-03  -6.375E-03
 758  8.23032697   0.689  -0.73083   3.66200   7.04883   1.88855   0.00506   9.991E-01   8.000E-03  -6.337E-03
 759  8.23128227   0.689  -0.73083   3.66200   7.04881   1.88855   0.00502   9.991E-01   8.000E-03  -6.298E-03
 760  8.23223547   0.689  -0.73082   3.66200   7.04879   1.88854   0.00499   9.991E-01   8.000E-03  -6.260E-03
 761  8.23318658   0.689  -0.73081   3.66200   7.04877   1.88853   0.00495   9.990E-01   8.000E-03  -6.222E-03
 762  8.23413562   0.689  -0.73080   3.66199   7.04875   1.88852   0.00491   9.990E-01   8.000E-03  -6.184E-03
 763  8.23508258   0.689  -0.73080   3.66199   7.04874   1.88852   0.00488   9.990E-01   7.997E-03  -6.154E-03
 764  8.23602749   0.689  -0.73079   3.66199   7.04872   1.88852   0.00486   9.990E-01   7.990E-03  -6.136E-03
 765  8.23697034   0.689  -0.73079   3.66199   7.04871   1.88851   0.00485   9.990E-01   7.982E-03  -6.119E-03
 766  8.23791115   0.689  -0.73078   3.66198   7.04870   1.88851   0.00483   9.989E-01   7.974E-03  -6.101E-03
 767  8.23884993   0.689  -0.73078   3.66198   7.04869   1.88851   0.00481   9.989E-01   7.967E-03  -6.084E-03
 768  8.23978669   0.689  -0.73077   3.66198   7.04868   1.88851   0.00479   9.989E-01   7.959E-03  -6.067E-03
 769  8.24072142   0.689  -0.73076   3.66198   7.04866   1.88851   0.00477   9.989E-01   7.952E-03  -6.049E-03
 770  8.24165415   0.689  -0.73076   3.66198   7.04865   1.88850   0.00475   9.989E-01   7.944E-03  -6.032E-03
 771  8.24258488   0.689  -0.73075   3.66197   7.04864   1.88850   0.00473   9.989E-01   7.936E-03  -6.014E-03
 772  8.24351362   0.689  -0.73075   3.66197   7.04863   1.88850   0.00472   9.989E-01   7.929E-03  -5.997E-03
 773  8.24444038   0.688  -0.73074   3.66197   7.04862   1.88850   0.00470   9.988E-01   7.921E-03  -5.979E-03
 774  8.24536516   0.688  -0.73074   3.66197   7.04860   1.88849   0.00468   9.988E-01   7.914E-03  -5.962E-03
 775  8.24628798   0.688  -0.73073   3.66197   7.04859   1.88849   0.00466   9.988E-01   7.906E-03  -5.945E-03
 776  8.24720885   0.688  -0.73072   3.66196   7.04858   1.88849   0.00464   9.988E-01   7.898E-03  -5.927E-03
 777  8.24812776   0.688  -0.73072   3.66196   7.04857   1.88849   0.00462   9.988E-01   7.891E-03  -5.910E-03
 778  8.24904473   0.688  -0.73071   3.66196   7.04856   1.88848   0.00460   9.988E-01   7.883E-03  -5.892E-03
 779  8.24995978   0.688  -0.73071   3.66196   7.04854   1.88848   0.00458   9.988E-01   7.875E-03  -5.875E-03
 780  8.25087289   0.688  -0.73070   3.66196   7.04853   1.88848   0.00457   9.987E-01   7.868E-03  -5.857E-03
 781  8.25178410   0.688  -0.73070   3.66195   7.04852   1.88848   0.00455   9.987E-01   7.860E-03  -5.840E-03
 782  8.25269339   0.688  -0.73069   3.66195   7.04851   1.88848   0.00453   9.987E-01   7.853E-03  -5.822E-03
 783  8.25360079   0.688  -0.73069   3.66195   7.04850   1.88847   0.00451   9.987E-01   7.845E-03  -5.805E-03
 784  8.25450629   0.688  -0.73068   3.66195   7.04848   1.88847   0.00449   9.987E-01   7.837E-03  -5.788E-03
 785  8.25540991   0.688  -0.73067   3.66195   7.04847   1.88847   0.00447   9.987E-01   7.830E-03  -5.770E-03
 786  8.25631165   0.688  -0.73067   3.66194   7.04846   1.88847   0.00445   9.986E-01   7.822E-03  -5.753E-03
 787  8.25721152   0.688  -0.73066   3.66194   7.04845   1.88846   0.00444   9.986E-01   7.815E-03  -5.735E-03
 788  8.25810954   0.688  -0.73066   3.66194   7.04843   1.88846   0.00442   9.986E-01   7.807E-03  -5.718E-03
 789  8.25900570   0.688  -0.73065   3.66194   7.04842   1.88846   0.00440   9.986E-01   7.799E-03  -5.700E-03
 790  8.25990001   0.688  -0.73065   3.66194   7.04841   1.88846   0.00438   9.986E-01   7.792E-03  -5.683E-03
 791  8.26079249   0.688  -0.73064   3.66193   7.04840   1.88846   0.00436   9.986E-01   7.784E-03  -5.666E-03
 792  8.26168314   0.688  -0.73063   3.66193   7.04839   1.88845   0.00434   9.986E-01   7.776E-03  -5.648E-03
 793  8.26257196   0.688  -0.73063   3.66193   7.04837   1.88845   0.00432   9.985E-01   7.769E-03  -5.631E-03
 794  8.26345897   0.688  -0.73062   3.66193   7.04836   1.88845   0.00431   9.985E-01   7.761E-03  -5.613E-03
 795  8.26434417   0.688  -0.73062   3.66193   7.04835   1.88845   0.00429   9.985E-01   7.754E-03  -5.596E-03
 796  8.26522757   0.688  -0.73061   3.66192   7.04834   1.88844   0.00427   9.985E-01   7.746E-03  -5.578E-03
 797  8.26610918   0.688  -0.73061   3.66192   7.04833   1.88844   0.00425   9.985E-01   7.738E-03  -5.561E-03
 798  8.26698900   0.688  -0.73060   3.66192   7.04831   1.88844   0.00423   9.985E-01   7.731E-03  -5.544E-03
 799  8.26786704   0.688  -0.73060   3.66192   7.04830   1.88844   0.00421   9.984E-01   7.723E-03  -5.526E-03
 800  8.26874331   0.688  -0.73059   3.66192   7.04829   1.88843   0.00419   9.984E-01   7.716E-03  -5.509E-03
 801  8.26961782   0.688  -0.73058   3.66191   7.04828   1.88843   0.00417   9.984E-01   7.708E-03  -5.491E-03
 802  8.27049057   0.688  -0.73058   3.66191   7.04827   1.88843   0.00416   9.984E-01   7.700E-03  -5.474E-03
 803  8.27136156   0.688  -0.73057   3.66191   7.04825   1.88843   0.00414   9.984E-01   7.693E-03  -5.456E-03
 804  8.27223082   0.688  -0.73057   3.66191   7.04824   1.88843   0.00412   9.984E-01   7.685E-03  -5.439E-03
 805  8.27309834   0.688  -0.73056   3.66191   7.04823   1.88842   0.00410   9.984E-01   7.677E-03  -5.421E-03
 806  8.27396413   0.688  -0.73056   3.66190   7.04822   1.88842   0.00408   9.983E-01   7.670E-03  -5.404E-03
 807  8.27482819   0.688  -0.73055   3.66190   7.04821   1.88842   0.00406   9.983E-01   7.662E-03  -5.387E-03
 808  8.27569054   0.688  -0.73054   3.66190   7.04819   1.88842   0.00404   9.983E-01   7.655E-03  -5.369E-03
 809  8.27655119   0.688  -0.73054   3.66190   7.04818   1.88841   0.00403   9.983E-01   7.647E-03  -5.352E-03
 810  8.27741012   0.688  -0.73053   3.66190   7.04817   1.88841   0.00401   9.983E-01   7.639E-03  -5.334E-03
 811  8.27826737   0.688  -0.73053   3.66189   7.04816   1.88841   0.00399   9.983E-01   7.632E-03  -5.317E-03
 812  8.27912292   0.688  -0.73052   3.66189   7.04815   1.88841   0.00397   9.982E-01   7.624E-03  -5.299E-03
 813  8.27997680   0.688  -0.73052   3.66189   7.04813   1.88840   0.00395   9.982E-01   7.617E-03  -5.282E-03
 814  8.28082900   0.688  -0.73051   3.66189   7.04812   1.88840   0.00393   9.982E-01   7.609E-03  -5.265E-03
 815  8.28167952   0.688  -0.73051   3.66189   7.04811   1.88840   0.00391   9.982E-01   7.601E-03  -5.247E-03
 816  8.28252839   0.688  -0.73050   3.66188   7.04810   1.88840   0.00389   9.982E-01   7.594E-03  -5.230E-03
 817  8.28337560   0.688  -0.73049   3.66188   7.04809   1.88840   0.00388   9.982E-01   7.586E-03  -5.212E-03
 818  8.28422116   0.688  -0.73049   3.66188   7.04807   1.88839   0.00386   9.982E-01   7.579E-03  -5.195E-03
 819  8.28506508   0.688  -0.73048   3.66188   7.04806   1.88839   0.00384   9.981E-01   7.571E-03  -5.177E-03
 820  8.28590736   0.688  -0.73048   3.66188   7.04805   1.88839   0.00382   9.981E-01   7.563E-03  -5.160E-03
 821  8.28674801   0.688  -0.73047   3.66187   7.04804   1.88839   0.00380   9.981E-01   7.556E-03  -5.143E-03
 822  8.28758704   0.688  -0.73047   3.66187   7.04803   1.88838   0.00378   9.981E-01   7.548E-03  -5.125E-03
 823  8.28842445   0.688  -0.73046   3.66187   7.04801   1.88838   0.00376   9.981E-01   7.540E-03  -5.108E-03
 824  8.28926025   0.688  -0.73045   3.66187   7.04800   1.88838   0.00375   9.981E-01   7.533E-03  -5.090E-03
 825  8.29009444   0.688  -0.73045   3.66187   7.04799   1.88838   0.00373   9.981E-01   7.525E-03  -5.073E-03
 826  8.29092703   0.688  -0.73044   3.66186   7.04798   1.88838   0.00371   9.980E-01   7.518E-03  -5.055E-03
 827  8.29175803   0.688  -0.73044   3.66186   7.04797   1.88837   0.00369   9.980E-01   7.510E-03  -5.038E-03
 828  8.29258744   0.688  -0.73043   3.66186   7.04795   1.88837   0.00367   9.980E-01   7.502E-03  -5.020E-03
 829  8.29341527   0.688  -0.73043   3.66186   7.04794   1.88837   0.00365   9.980E-01   7.495E-03  -5.003E-03
 830  8.29424153   0.688  -0.73042   3.66186   7.04793   1.88837   0.00363   9.980E-01   7.487E-03  -4.986E-03
 831  8.29506622   0.688  -0.73041   3.66185   7.04792   1.88836   0.00361   9.980E-01   7.480E-03  -4.968E-03
 832  8.29588934   0.688  -0.73041   3.66185   7.04791   1.88836   0.00360   9.979E-01   7.472E-03  -4.951E-03
 833  8.29671091   0.688  -0.73040   3.66185   7.04789   1.88836   0.00358   9.979E-01   7.464E-03  -4.933E-03
 834  8.29753093   0.688  -0.73040   3.66185   7.04788   1.88836   0.00356   9.979E-01   7.457E-03  -4.916E-03
 835  8.29834940   0.688  -0.73039   3.66185   7.04787   1.88835   0.00354   9.979E-01   7.449E-03  -4.898E-03
 836  8.29916633   0.688  -0.73039   3.66184   7.04786   1.88835   0.00352   9.979E-01   7.441E-03  -4.881E-03
 837  8.29998173   0.688  -0.73038   3.66184   7.04785   1.88835   0.00350   9.979E-01   7.434E-03  -4.864E-03
 838  8.30079560   0.688  -0.73038   3.66184   7.04783   1.88835   0.00348   9.979E-01   7.426E-03  -4.846E-03
 839  8.30160794   0.688  -0.73037   3.66184   7.04782   1.88835   0.00347   9.978E-01   7.419E-03  -4.829E-03
 840  8.30241877   0.688  -0.73036   3.66184   7.04781   1.88834   0.00345   9.978E-01   7.411E-03  -4.811E-03
 841  8.30322809   0.688  -0.73036   3.66183   7.04780   1.88834   0.00343   9.978E-01   7.403E-03  -4.794E-03
 842  8.30403591   0.688  -0.73035   3.66183   7.04779   1.88834   0.00341   9.978E-01   7.396E-03  -4.776E-03
 843  8.30484222   0.688  -0.73035   3.66183   7.04777   1.88834   0.00339   9.978E-01   7.388E-03  -4.759E-03
 844  8.30564704   0.688  -0.73034   3.66183   7.04776   1.88833   0.00337   9.978E-01   7.381E-03  -4.741E-03
 845  8.30645037   0.688  -0.73034   3.66183   7.04775   1.88833   0.00335   9.977E-01   7.373E-03  -4.724E-03
 846  8.30725222   0.688  -0.73033   3.66182   7.04774   1.88833   0.00334   9.977E-01   7.365E-03  -4.707E-03
 847  8.30805259   0.688  -0.73032   3.66182   7.04773   1.88833   0.00332   9.977E-01   7.358E-03  -4.689E-03
 848  8.30885149   0.688  -0.73032   3.66182   7.04771   1.88833   0.00330   9.977E-01   7.350E-03  -4.672E-03
 849  8.30964892   0.688  -0.73031   3.66182   7.04770   1.88832   0.00328   9.977E-01   7.342E-03  -4.654E-03
 850  8.31044489   0.688  -0.73031   3.66182   7.04769   1.88832   0.00326   9.977E-01   7.335E-03  -4.637E-03
 851  8.31123940   0.688  -0.73030   3.66182   7.04768   1.88832   0.00324   9.977E-01   7.327E-03  -4.619E-03
 852  8.31203246   0.688  -0.73030   3.66181   7.04767   1.88832   0.00322   9.976E-01   7.320E-03  -4.602E-03
 853  8.31282408   0.688  -0.73029   3.66181   7.04765   1.88831   0.00320   9.976E-01   7.312E-03  -4.585E-03
 854  8.31361426   0.688  -0.73029   3.66181   7.04764   1.88831   0.00319   9.976E-01   7.304E-03  -4.567E-03
 855  8.31440300   0.688  -0.73028   3.66181   7.04763   1.88831   0.00317   9.976E-01   7.297E-03  -4.550E-03
 856  8.31519031   0.688  -0.73027   3.66181   7.04762   1.88831   0.00315   9.976E-01   7.289E-03  -4.532E-03
 857  8.31597620   0.688  -0.73027   3.66180   7.04760   1.88830   0.00313   9.976E-01   7.282E-03  -4.515E-03
 858  8.31676067   0.688  -0.73026   3.66180   7.04759   1.88830   0.00311   9.975E-01   7.274E-03  -4.497E-03
 859  8.31754372   0.688  -0.73026   3.66180   7.04758   1.88830   0.00309   9.975E-01   7.266E-03  -4.480E-03
 860  8.31832536   0.688  -0.73025   3.66180   7.04757   1.88830   0.00307   9.975E-01   7.259E-03  -4.463E-03
 861  8.31910560   0.688  -0.73025   3.66180   7.04756   1.88830   0.00306   9.975E-01   7.251E-03  -4.445E-03
 862  8.31988444   0.688  -0.73024   3.66179   7.04754   1.88829   0.00304   9.975E-01   7.244E-03  -4.428E-03
 863  8.32066189   0.688  -0.73023   3.66179   7.04753   1.88829   0.00302   9.975E-01   7.236E-03  -4.410E-03
 864  8.32143794   0.687  -0.73023   3.66179   7.04752   1.88829   0.00300   9.975E-01   7.228E-03  -4.393E-03
 865  8.32221262   0.687  -0.73022   3.66179   7.04751   1.88829   0.00298   9.974E-01   7.221E-03  -4.375E-03
 866  8.32298591   0.687  -0.73022   3.66179   7.04750   1.88828   0.00296   9.974E-01   7.213E-03  -4.358E-03
 867  8.32375783   0.687  -0.73021   3.66178   7.04748   1.88828   0.00294   9.974E-01   7.205E-03  -4.340E-03
 868  8.32452838   0.687  -0.73021   3.66178   7.04747   1.88828   0.00292   9.974E-01   7.198E-03  -4.323E-03
 869  8.32529756   0.687  -0.73020   3.66178   7.04746   1.88828   0.00291   9.974E-01   7.190E-03  -4.306E-03
 870  8.32606539   0.687  -0.73020   3.66178   7.04745   1.88827   0.00289   9.974E-01   7.183E-03  -4.288E-03
 871  8.32683185   0.687  -0.73019   3.66178   7.04744   1.88827   0.00287   9.973E-01   7.175E-03  -4.271E-03
 872  8.32759697   0.687  -0.73018   3.66177   7.04742   1.88827   0.00285   9.973E-01   7.167E-03  -4.253E-03
 873  8.32836075   0.687  -0.73018   3.66177   7.04741   1.88827   0.00283   9.973E-01   7.160E-03  -4.236E-03
 874  8.32912318   0.687  -0.73017   3.66177   7.04740   1.88827   0.00281   9.973E-01   7.152E-03  -4.218E-03
 875  8.32988428   0.687  -0.73017   3.66177   7.04739   1.88826   0.00279   9.973E-01   7.145E-03  -4.201E-03
 876  8.33064404   0.687  -0.73016   3.66177   7.04738   1.88826   0.00278   9.973E-01   7.137E-03  -4.184E-03
 877  8.33140248   0.687  -0.73016   3.66176   7.04736   1.88826   0.00276   9.973E-01   7.129E-03  -4.166E-03
 878  8.33215959   0.687  -0.73015   3.66176   7.04735   1.88826   0.00274   9.972E-01   7.122E-03  -4.149E-03
 879  8.33291539   0.687  -0.73014   3.66176   7.04734   1.88825   0.00272   9.972E-01   7.114E-03  -4.131E-03
 880  8.33366988   0.687  -0.73014   3.66176   7.04733   1.88825   0.00270   9.972E-01   7.106E-03  -4.114E-03
 881  8.33442305   0.687  -0.73013   3.66176   7.04732   1.88825   0.00268   9.972E-01   7.099E-03  -4.096E-03
 882  8.33517493   0.687  -0.73013   3.66175   7.04730   1.88825   0.00266   9.972E-01   7.091E-03  -4.079E-03
 883  8.33592550   0.687  -0.73012   3.66175   7.04729   1.88825   0.00264   9.972E-01   7.084E-03  -4.062E-03
 884  8.33667478   0.687  -0.73012   3.66175   7.04728   1.88824   0.00263   9.972E-01   7.076E-03  -4.044E-03
 885  8.33742277   0.687  -0.73011   3.66175   7.04727   1.88824   0.00261   9.971E-01   7.068E-03  -4.027E-03
 886  8.33816947   0.687  -0.73010   3.66175   7.04726   1.88824   0.00259   9.971E-01   7.061E-03  -4.009E-03
 887  8.33891489   0.687  -0.73010   3.66174   7.04724   1.88824   0.00257   9.971E-01   7.053E-03  -3.992E-03
 888  8.33965903   0.687  -0.73009   3.66174   7.04723   1.88823   0.00255   9.971E-01   7.046E-03  -3.974E-03
 889  8.34040190   0.687  -0.73009   3.66174   7.04722   1.88823   0.00253   9.971E-01   7.038E-03  -3.957E-03
 890  8.34114350   0.687  -0.73008   3.66174   7.04721   1.88823   0.00251   9.971E-01   7.030E-03  -3.939E-03
 891  8.34188384   0.687  -0.73008   3.66174   7.04720   1.88823   0.00250   9.970E-01   7.023E-03  -3.922E-03
 892  8.34262292   0.687  -0.73007   3.66173   7.04718   1.88822   0.00248   9.970E-01   7.015E-03  -3.905E-03
 893  8.34336074   0.687  -0.73007   3.66173   7.04717   1.88822   0.00246   9.970E-01   7.007E-03  -3.887E-03
 894  8.34409731   0.687  -0.73006   3.66173   7.04716   1.88822   0.00244   9.970E-01   7.000E-03  -3.870E-03
 895  8.34483263   0.687  -0.73005   3.66173   7.04715   1.88822   0.00243   9.970E-01   6.995E-03  -3.862E-03
 896  8.34556672   0.687  -0.73005   3.66173   7.04715   1.88822   0.00242   9.970E-01   6.990E-03  -3.854E-03
 897  8.34629956   0.687  -0.73004   3.66173   7.04714   1.88822   0.00241   9.970E-01   6.985E-03  -3.847E-03
 898  8.34703116   0.687  -0.73004   3.66173   7.04713   1.88822   0.00240   9.970E-01   6.980E-03  -3.839E-03
 899  8.34776154   0.687  -0.73003   3.66172   7.04713   1.88822   0.00239   9.970E-01   6.975E-03  -3.831E-03
 900  8.34849069   0.687  -0.73003   3.66172   7.04712   1.88822   0.00238   9.970E-01   6.969E-03  -3.824E-03
 901  8.34921862   0.687  -0.73002   3.66172   7.04711   1.88823   0.00237   9.970E-01   6.964E-03  -3.816E-03
 902  8.34994533   0.687  -0.73002   3.66172   7.04711   1.88823   0.00237   9.970E-01   6.959E-03  -3.808E-03
 903  8.35067083   0.687  -0.73001   3.66172   7.04710   1.88823   0.00236   9.970E-01   6.954E-03  -3.800E-03
 904  8.35139511   0.687  -0.73001   3.66172   7.04709   1.88823   0.00235   9.969E-01   6.949E-03  -3.793E-03
 905  8.35211819   0.687  -0.73000   3.66172   7.04709   1.88823   0.00234   9.969E-01   6.944E-03  -3.785E-03
 906  8.35284007   0.687  -0.73000   3.66172   7.04708   1.88823   0.00233   9.969E-01   6.939E-03  -3.777E-03
 907  8.35356075   0.687  -0.72999   3.66172   7.04707   1.88823   0.00232   9.969E-01   6.934E-03  -3.770E-03
 908  8.35428024   0.687  -0.72999   3.66172   7.04707   1.88823   0.00231   9.969E-01   6.929E-03  -3.762E-03
 909  8.35499854   0.687  -0.72998   3.66171   7.04706   1.88823   0.00230   9.969E-01   6.924E-03  -3.754E-03
 910  8.35571565   0.687  -0.72998   3.66171   7.04705   1.88823   0.00229   9.969E-01   6.919E-03  -3.746E-03
 911  8.35643158   0.687  -0.72997   3.66171   7.04705   1.88823   0.00228   9.969E-01   6.914E-03  -3.739E-03
 912  8.35714633   0.687  -0.72997   3.66171   7.04704   1.88823   0.00227   9.969E-01   6.909E-03  -3.731E-03
 913  8.35785990   0.687  -0.72996   3.66171   7.04703   1.88824   0.00226   9.969E-01   6.903E-03  -3.723E-03
 914  8.35857231   0.687  -0.72996   3.66171   7.04703   1.88824   0.00225   9.969E-01   6.898E-03  -3.716E-03
 915  8.35928355   0.687  -0.72995   3.66171   7.04702   1.88824   0.00224   9.969E-01   6.893E-03  -3.708E-03
 916  8.35999362   0.687  -0.72994   3.66171   7.04701   1.88824   0.00223   9.969E-01   6.888E-03  -3.700E-03
 917  8.36070254   0.687  -0.72994   3.66171   7.04701   1.88824   0.00223   9.969E-01   6.883E-03  -3.692E-03
 918  8.36141030   0.687  -0.72993   3.66171   7.04700   1.88824   0.00222   9.969E-01   6.878E-03  -3.685E-03
 919  8.36211691   0.687  -0.72993   3.66170   7.04699   1.88824   0.00221   9.969E-01   6.873E-03  -3.677E-03
 920  8.36282237   0.687  -0.72992   3.66170   7.04699   1.88824   0.00220   9.969E-01   6.868E-03  -3.669E-03
 921  8.36352669   0.687  -0.72992   3.66170   7.04698   1.88824   0.00219   9.969E-01   6.863E-03  -3.662E-03
 922  8.36422987   0.687  -0.72991   3.66170   7.04697   1.88824   0.00218   9.969E-01   6.858E-03  -3.654E-03
 923  8.36493191   0.687  -0.72991   3.66170   7.04697   1.88824   0.00217   9.969E-01   6.853E-03  -3.646E-03
 924  8.36563282   0.687  -0.72990   3.66170   7.04696   1.88824   0.00216   9.968E-01   6.848E-03  -3.638E-03
 925  8.36633260   0.687  -0.72990   3.66170   7.04695   1.88825   0.00215   9.968E-01   6.843E-03  -3.631E-03
 926  8.36703125   0.687  -0.72989   3.66170   7.04695   1.88825   0.00214   9.968E-01   6.837E-03  -3.623E-03
 927  8.36772878   0.687  -0.72989   3.66170   7.04694   1.88825   0.00213   9.968E-01   6.832E-03  -3.615E-03
 928  8.36842519   0.687  -0.72988   3.66170   7.04693   1.88825   0.00212   9.968E-01   6.827E-03  -3.608E-03
 929  8.36912049   0.687  -0.72988   3.66169   7.04693   1.88825   0.00211   9.968E-01   6.822E-03  -3.600E-03
 930  8.36981468   0.687  -0.72987   3.66169   7.04692   1.88825   0.00210   9.968E-01   6.817E-03  -3.592E-03
 931  8.37050775   0.687  -0.72987   3.66169   7.04691   1.88825   0.00209   9.968E-01   6.812E-03  -3.584E-03
 932  8.37119973   0.687  -0.72986   3.66169   7.04691   1.88825   0.00208   9.968E-01   6.807E-03  -3.577E-03
 933  8.37189060   0.687  -0.72986   3.66169   7.04690   1.88825   0.00208   9.968E-01   6.802E-03  -3.569E-03
 934  8.37258038   0.687  -0.72985   3.66169   7.04689   1.88825   0.00207   9.968E-01   6.797E-03  -3.561E-03
 935  8.37326906   0.687  -0.72985   3.66169   7.04689   1.88825   0.00206   9.968E-01   6.792E-03  -3.554E-03
 936  8.37395665   0.687  -0.72984   3.66169   7.04688   1.88825   0.00205   9.968E-01   6.787E-03  -3.546E-03
 937  8.37464315   0.687  -0.72984   3.66169   7.04687   1.88825   0.00204   9.968E-01   6.782E-03  -3.538E-03
 938  8.37532858   0.687  -0.72983   3.66169   7.04687   1.88826   0.00203   9.968E-01   6.777E-03  -3.530E-03
 939  8.37601292   0.687  -0.72982   3.66168   7.04686   1.88826   0.00202   9.968E-01   6.772E-03  -3.523E-03
 940  8.37669618   0.687  -0.72982   3.66168   7.04685   1.88826   0.00201   9.968E-01   6.766E-03  -3.515E-03
 941  8.37737837   0.687  -0.72981   3.66168   7.04684   1.88826   0.00200   9.968E-01   6.761E-03  -3.507E-03
 942  8.37805949   0.687  -0.72981   3.66168   7.04684   1.88826   0.00199   9.968E-01   6.756E-03  -3.500E-03
 943  8.37873955   0.687  -0.72980   3.66168   7.04683   1.88826   0.00198   9.968E-01   6.751E-03  -3.492E-03
 944  8.37941854   0.687  -0.72980   3.66168   7.04682   1.88826   0.00197   9.967E-01   6.746E-03  -3.484E-03
 945  8.38009647   0.687  -0.72979   3.66168   7.04682   1.88826   0.00196   9.967E-01   6.741E-03  -3.476E-03
 946  8.38077335   0.687  -0.72979   3.66168   7.04681   1.88826   0.00195   9.967E-01   6.736E-03  -3.469E-03
 947  8.38144917   0.687  -0.72978   3.66168   7.04680   1.88826   0.00194   9.967E-01   6.731E-03  -3.461E-03
 948  8.38212394   0.687  -0.72978   3.66168   7.04680   1.88826   0.00194   9.967E-01   6.726E-03  -3.453E-03
 949  8.38279766   0.687  -0.72977   3.66167   7.04679   1.88826   0.00193   9.967E-01   6.721E-03  -3.446E-03
 950  8.38347035   0.687  -0.72977   3.66167   7.04678   1.88827   0.00192   9.967E-01   6.716E-03  -3.438E-03
 951  8.38414199   0.687  -0.72976   3.66167   7.04678   1.88827   0.00191   9.967E-01   6.711E-03  -3.430E-03
 952  8.38481259   0.686  -0.72976   3.66167   7.04677   1.88827   0.00190   9.967E-01   6.706E-03  -3.422E-03
 953  8.38548216   0.686  -0.72975   3.66167   7.04676   1.88827   0.00189   9.967E-01   6.700E-03  -3.415E-03
 954  8.38615070   0.686  -0.72975   3.66167   7.04676   1.88827   0.00188   9.967E-01   6.695E-03  -3.407E-03
 955  8.38681821   0.686  -0.72974   3.66167   7.04675   1.88827   0.00187   9.967E-01   6.690E-03  -3.399E-03
 956  8.38748470   0.686  -0.72974   3.66167   7.04674   1.88827   0.00186   9.967E-01   6.685E-03  -3.392E-03
 957  8.38815017   0.686  -0.72973   3.66167   7.04674   1.88827   0.00185   9.967E-01   6.680E-03  -3.384E-03
 958  8.38881461   0.686  -0.72973   3.66167   7.04673   1.88827   0.00184   9.967E-01   6.675E-03  -3.376E-03
 959  8.38947805   0.686  -0.72972   3.66166   7.04672   1.88827   0.00183   9.967E-01   6.670E-03  -3.368E-03
 960  8.39014047   0.686  -0.72971   3.66166   7.04672   1.88827   0.00182   9.967E-01   6.665E-03  -3.361E-03
 961  8.39080188   0.686  -0.72971   3.66166   7.04671   1.88827   0.00181   9.967E-01   6.660E-03  -3.353E-03
 962  8.39146229   0.686  -0.72970   3.66166   7.04670   1.88828   0.00180   9.967E-01   6.655E-03  -3.345E-03
 963  8.39212169   0.686  -0.72970   3.66166   7.04670   1.88828   0.00180   9.966E-01   6.650E-03  -3.338E-03
 964  8.39278009   0.686  -0.72969   3.66166   7.04669   1.88828   0.00179   9.966E-01   6.645E-03  -3.330E-03
 965  8.39343750   0.686  -0.72969   3.66166   7.04668   1.88828   0.00178   9.966E-01   6.640E-03  -3.322E-03
 966  8.39409391   0.686  -0.72968   3.66166   7.04668   1.88828   0.00177   9.966E-01   6.634E-03  -3.314E-03
 967  8.39474934   0.686  -0.72968   3.66166   7.04667   1.88828   0.00176   9.966E-01   6.629E-03  -3.307E-03
 968  8.39540377   0.686  -0.72967   3.66165   7.04666   1.88828   0.00175   9.966E-01   6.624E-03  -3.299E-03
 969  8.39605722   0.686  -0.72967   3.66165   7.04666   1.88828   0.00174   9.966E-01   6.619E-03  -3.291E-03
 970  8.39670969   0.686  -0.72966   3.66165   7.04665   1.88828   0.00173   9.966E-01   6.614E-03  -3.284E-03
 971  8.39736118   0.686  -0.72966   3.66165   7.04664   1.88828   0.00172   9.966E-01   6.609E-03  -3.276E-03
 972  8.39801170   0.686  -0.72965   3.66165   7.04664   1.88828   0.00171   9.966E-01   6.604E-03  -3.268E-03
 973  8.39866124   0.686  -0.72965   3.66165   7.04663   1.88828   0.00170   9.966E-01   6.599E-03  -3.260E-03
 974  8.39930981   0.686  -0.72964   3.66165   7.04662   1.88828   0.00169   9.966E-01   6.594E-03  -3.253E-03
 975  8.39995741   0.686  -0.72964   3.66165   7.04662   1.88829   0.00168   9.966E-01   6.589E-03  -3.245E-03
 976  8.40060405   0.686  -0.72963   3.66165   7.04661   1.88829   0.00167   9.966E-01   6.584E-03  -3.237E-03
 977  8.40124973   0.686  -0.72963   3.66165   7.04660   1.88829   0.00166   9.966E-01   6.579E-03  -3.230E-03
 978  8.40189445   0.686  -0.72962   3.66164   7.04660   1.88829   0.00166   9.966E-01   6.574E-03  -3.222E-03
 979  8.40253822   0.686  -0.72962   3.66164   7.04659   1.88829   0.00165   9.966E-01   6.568E-03  -3.214E-03
 980  8.40318103   0.686  -0.72961   3.66164   7.04658   1.88829   0.00164   9.966E-01   6.563E-03  -3.206E-03
 981  8.40382289   0.686  -0.72961   3.66164   7.04658   1.88829   0.00163   9.966E-01   6.558E-03  -3.199E-03
 982  8.40446381   0.686  -0.72960   3.66164   7.04657   1.88829   0.00162   9.966E-01   6.553E-03  -3.191E-03
 983  8.40510378   0.686  -0.72959   3.66164   7.04656   1.88829   0.00161   9.965E-01   6.548E-03  -3.183E-03
 984  8.40574280   0.686  -0.72959   3.66164   7.04656   1.88829   0.00160   9.965E-01   6.543E-03  -3.176E-03
 985  8.40638089   0.686  -0.72958   3.66164   7.04655   1.88829   0.00159   9.965E-01   6.538E-03  -3.168E-03
 986  8.40701805   0.686  -0.72958   3.66164   7.04654   1.88829   0.00158   9.965E-01   6.533E-03  -3.160E-03
 987  8.40765427   0.686  -0.72957   3.66164   7.04654   1.88830   0.00157   9.965E-01   6.528E-03  -3.152E-03
 988  8.40828956   0.686  -0.72957   3.66163   7.04653   1.88830   0.00156   9.965E-01   6.523E-03  -3.145E-03
 989  8.40892392   0.686  -0.72956   3.66163   7.04652   1.88830   0.00155   9.965E-01   6.518E-03  -3.137E-03
 990  8.40955735   0.686  -0.72956   3.66163   7.04652   1.88830   0.00154   9.965E-01   6.513E-03  -3.129E-03
 991  8.41018987   0.686  -0.72955   3.66163   7.04651   1.88830   0.00153   9.965E-01   6.508E-03  -3.122E-03
 992  8.41082146   0.686  -0.72955   3.66163   7.04650   1.88830   0.00152   9.965E-01   6.502E-03  -3.114E-03
 993  8.41145214   0.686  -0.72954   3.66163   7.04650   1.88830   0.00152   9.965E-01   6.497E-03  -3.106E-03
 994  8.41208190   0.686  -0.72954   3.66163   7.04649   1.88830   0.00151   9.965E-01   6.492E-03  -3.098E-03
 995  8.41271075   0.686  -0.72953   3.66163   7.04648   1.88830   0.00150   9.965E-01   6.487E-03  -3.091E-03
 996  8.41333869   0.686  -0.72953   3.66163   7.04648   1.88830   0.00149   9.965E-01   6.482E-03  -3.083E-03
 997  8.41396572   0.686  -0.72952   3.66163   7.04647   1.88830   0.00148   9.965E-01   6.477E-03  -3.075E-03
 998  8.41459185   0.686  -0.72952   3.66162   7.04646   1.88830   0.00147   9.965E-01   6.472E-03  -3.068E-03
 999  8.41521708   0.686  -0.72951   3.66162   7.04646   1.88831   0.00146   9.965E-01   6.467E-03  -3.060E-03
1000  8.41584141   0.686  -0.72951   3.66162   7.04645   1.88831   0.00145   9.965E-01   6.462E-03  -3.052E-03
1001  8.41646485   0.686  -0.72950   3.66162   7.04644   1.88831   0.00144   9.965E-01   6.457E-03  -3.044E-03
1002  8.41708739   0.686  -0.72950   3.66162   7.04644   1.88831   0.00143   9.965E-01   6.452E-03  -3.037E-03
1003  8.41770903   0.686  -0.72949   3.66162   7.04643   1.88831   0.00142   9.964E-01   6.447E-03  -3.029E-03
1004  8.41832979   0.686  -0.72948   3.66162   7.04642   1.88831   0.00141   9.964E-01   6.442E-03  -3.021E-03
1005  8.41894967   0.686  -0.72948   3.66162   7.04642   1.88831   0.00140   9.964E-01   6.437E-03  -3.014E-03
1006  8.41956866   0.686  -0.72947   3.66162   7.04641   1.88831   0.00139   9.964E-01   6.431E-03  -3.006E-03
1007  8.42018677   0.686  -0.72947   3.66162   7.04640   1.88831   0.00138   9.964E-01   6.426E-03  -2.998E-03
1008  8.42080400   0.686  -0.72946   3.66161   7.04640   1.88831   0.00138   9.964E-01   6.421E-03  -2.990E-03
1009  8.42142036   0.686  -0.72946   3.66161   7.04639   1.88831   0.00137   9.964E-01   6.416E-03  -2.983E-03
1010  8.42203584   0.686  -0.72945   3.66161   7.04638   1.88831   0.00136   9.964E-01   6.411E-03  -2.975E-03
1011  8.42265045   0.686  -0.72945   3.66161   7.04638   1.88832   0.00135   9.964E-01   6.406E-03  -2.967E-03
1012  8.42326419   0.686  -0.72944   3.66161   7.04637   1.88832   0.00134   9.964E-01   6.401E-03  -2.959E-03
1013  8.42387707   0.686  -0.72944   3.66161   7.04636   1.88832   0.00133   9.964E-01   6.396E-03  -2.952E-03
1014  8.42448908   0.686  -0.72943   3.66161   7.04636   1.88832   0.00132   9.964E-01   6.391E-03  -2.944E-03
1015  8.42510023   0.686  -0.72943   3.66161   7.04635   1.88832   0.00131   9.964E-01   6.386E-03  -2.936E-03
1016  8.42571052   0.686  -0.72942   3.66161   7.04634   1.88832   0.00130   9.964E-01   6.381E-03  -2.929E-03
1017  8.42631996   0.686  -0.72942   3.66161   7.04634   1.88832   0.00129   9.964E-01   6.376E-03  -2.921E-03
1018  8.42692854   0.686  -0.72941   3.66160   7.04633   1.88832   0.00128   9.964E-01   6.371E-03  -2.913E-03
1019  8.42753627   0.686  -0.72941   3.66160   7.04632   1.88832   0.00127   9.964E-01   6.365E-03  -2.905E-03
1020  8.42814315   0.686  -0.72940   3.66160   7.04632   1.88832   0.00126   9.964E-01   6.360E-03  -2.898E-03
1021  8.42874919   0.686  -0.72940   3.66160   7.04631   1.88832   0.00125   9.964E-01   6.355E-03  -2.890E-03
1022  8.42935438   0.686  -0.72939   3.66160   7.04630   1.88832   0.00124   9.964E-01   6.350E-03  -2.882E-03
1023  8.42995873   0.686  -0.72939   3.66160   7.04630   1.88832   0.00124   9.963E-01   6.345E-03  -2.875E-03
1024  8.43056223   0.686  -0.72938   3.66160   7.04629   1.88833   0.00123   9.963E-01   6.340E-03  -2.867E-03
1025  8.43116490   0.686  -0.72938   3.66160   7.04628   1.88833   0.00122   9.963E-01   6.335E-03  -2.859E-03
1026  8.43176674   0.686  -0.72937   3.66160   7.04628   1.88833   0.00121   9.963E-01   6.330E-03  -2.851E-03
1027  8.43236774   0.686  -0.72936   3.66159   7.04627   1.88833   0.00120   9.963E-01   6.325E-03  -2.844E-03
1028  8.43296791   0.686  -0.72936   3.66159   7.04626   1.88833   0.00119   9.963E-01   6.320E-03  -2.836E-03
1029  8.43356726   0.686  -0.72935   3.66159   7.04626   1.88833   0.00118   9.963E-01   6.315E-03  -2.828E-03
1030  8.43416577   0.686  -0.72935   3.66159   7.04625   1.88833   0.00117   9.963E-01   6.310E-03  -2.821E-03
1031  8.43476347   0.686  -0.72934   3.66159   7.04624   1.88833   0.00116   9.963E-01   6.305E-03  -2.813E-03
1032  8.43536034   0.686  -0.72934   3.66159   7.04624   1.88833   0.00115   9.963E-01   6.299E-03  -2.805E-03
1033  8.43595639   0.686  -0.72933   3.66159   7.04623   1.88833   0.00114   9.963E-01   6.294E-03  -2.797E-03
1034  8.43655163   0.686  -0.72933   3.66159   7.04622   1.88833   0.00113   9.963E-01   6.289E-03  -2.790E-03
1035  8.43714605   0.686  -0.72932   3.66159   7.04622   1.88833   0.00112   9.963E-01   6.284E-03  -2.782E-03
1036  8.43773966   0.686  -0.72932   3.66159   7.04621   1.88834   0.00111   9.963E-01   6.279E-03  -2.774E-03
1037  8.43833246   0.686  -0.72931   3.66158   7.04620   1.88834   0.00110   9.963E-01   6.274E-03  -2.767E-03
1038  8.43892445   0.686  -0.72931   3.66158   7.04620   1.88834   0.00109   9.963E-01   6.269E-03  -2.759E-03
1039  8.43951563   0.686  -0.72930   3.66158   7.04619   1.88834   0.00109   9.963E-01   6.264E-03  -2.751E-03
1040  8.44010602   0.685  -0.72930   3.66158   7.04618   1.88834   0.00108   9.963E-01   6.259E-03  -2.743E-03
1041  8.44069560   0.685  -0.72929   3.66158   7.04617   1.88834   0.00107   9.963E-01   6.254E-03  -2.736E-03
1042  8.44128438   0.685  -0.72929   3.66158   7.04617   1.88834   0.00106   9.962E-01   6.249E-03  -2.728E-03
1043  8.44187236   0.685  -0.72928   3.66158   7.04616   1.88834   0.00105   9.962E-01   6.244E-03  -2.720E-03
1044  8.44245955   0.685  -0.72928   3.66158   7.04615   1.88834   0.00104   9.962E-01   6.239E-03  -2.713E-03
1045  8.44304594   0.685  -0.72927   3.66158   7.04615   1.88834   0.00103   9.962E-01   6.233E-03  -2.705E-03
1046  8.44363155   0.685  -0.72927   3.66158   7.04614   1.88834   0.00102   9.962E-01   6.228E-03  -2.697E-03
1047  8.44421636   0.685  -0.72926   3.66157   7.04613   1.88834   0.00101   9.962E-01   6.223E-03  -2.689E-03
1048  8.44480039   0.685  -0.72925   3.66157   7.04613   1.88835   0.00100   9.962E-01   6.218E-03  -2.682E-03
1049  8.44538364   0.685  -0.72925   3.66157   7.04612   1.88835   0.00099   9.962E-01   6.213E-03  -2.674E-03
1050  8.44596610   0.685  -0.72924   3.66157   7.04611   1.88835   0.00098   9.962E-01   6.208E-03  -2.666E-03
1051  8.44654779   0.685  -0.72924   3.66157   7.04611   1.88835   0.00097   9.962E-01   6.203E-03  -2.659E-03
1052  8.44712869   0.685  -0.72923   3.66157   7.04610   1.88835   0.00096   9.962E-01   6.198E-03  -2.651E-03
1053  8.44770882   0.685  -0.72923   3.66157   7.04609   1.88835   0.00095   9.962E-01   6.193E-03  -2.643E-03
1054  8.44828817   0.685  -0.72922   3.66157   7.04609   1.88835   0.00095   9.962E-01   6.188E-03  -2.635E-03
1055  8.44886676   0.685  -0.72922   3.66157   7.04608   1.88835   0.00094   9.962E-01   6.183E-03  -2.628E-03
1056  8.44944457   0.685  -0.72921   3.66157   7.04607   1.88835   0.00093   9.962E-01   6.178E-03  -2.620E-03
1057  8.45002162   0.685  -0.72921   3.66156   7.04607   1.88835   0.00092   9.962E-01   6.173E-03  -2.612E-03
1058  8.45059790   0.685  -0.72920   3.66156   7.04606   1.88835   0.00091   9.962E-01   6.167E-03  -2.605E-03
1059  8.45117341   0.685  -0.72920   3.66156   7.04605   1.88835   0.00090   9.962E-01   6.162E-03  -2.597E-03
1060  8.45174817   0.685  -0.72919   3.66156   7.04605   1.88835   0.00089   9.962E-01   6.157E-03  -2.589E-03
1061  8.45232216   0.685  -0.72919   3.66156   7.04604   1.88836   0.00088   9.962E-01   6.152E-03  -2.581E-03
1062  8.45289540   0.685  -0.72918   3.66156   7.04603   1.88836   0.00087   9.961E-01   6.147E-03  -2.574E-03
1063  8.45346788   0.685  -0.72918   3.66156   7.04603   1.88836   0.00086   9.961E-01   6.142E-03  -2.566E-03
1064  8.45403961   0.685  -0.72917   3.66156   7.04602   1.88836   0.00085   9.961E-01   6.137E-03  -2.558E-03
1065  8.45461059   0.685  -0.72917   3.66156   7.04601   1.88836   0.00084   9.961E-01   6.132E-03  -2.551E-03
1066  8.45518081   0.685  -0.72916   3.66156   7.04601   1.88836   0.00083   9.961E-01   6.127E-03  -2.543E-03
1067  8.45575029   0.685  -0.72916   3.66155   7.04600   1.88836   0.00082   9.961E-01   6.122E-03  -2.535E-03
1068  8.45631903   0.685  -0.72915   3.66155   7.04599   1.88836   0.00081   9.961E-01   6.117E-03  -2.527E-03
1069  8.45688702   0.685  -0.72915   3.66155   7.04599   1.88836   0.00081   9.961E-01   6.112E-03  -2.520E-03
1070  8.45745426   0.685  -0.72914   3.66155   7.04598   1.88836   0.00080   9.961E-01   6.107E-03  -2.512E-03
1071  8.45802077   0.685  -0.72913   3.66155   7.04597   1.88836   0.00079   9.961E-01   6.102E-03  -2.504E-03
1072  8.45858654   0.685  -0.72913   3.66155   7.04597   1.88836   0.00078   9.961E-01   6.096E-03  -2.497E-03
1073  8.45915158   0.685  -0.72912   3.66155   7.04596   1.88837   0.00077   9.961E-01   6.091E-03  -2.489E-03
1074  8.45971588   0.685  -0.72912   3.66155   7.04595   1.88837   0.00076   9.961E-01   6.086E-03  -2.481E-03
1075  8.46027944   0.685  -0.72911   3.66155   7.04595   1.88837   0.00075   9.961E-01   6.081E-03  -2.473E-03
1076  8.46084228   0.685  -0.72911   3.66155   7.04594   1.88837   0.00074   9.961E-01   6.076E-03  -2.466E-03
1077  8.46140439   0.685  -0.72910   3.66154   7.04593   1.88837   0.00073   9.961E-01   6.071E-03  -2.458E-03
1078  8.46196577   0.685  -0.72910   3.66154   7.04593   1.88837   0.00072   9.961E-01   6.066E-03  -2.450E-03
1079  8.46252643   0.685  -0.72909   3.66154   7.04592   1.88837   0.00071   9.961E-01   6.061E-03  -2.443E-03
1080  8.46308636   0.685  -0.72909   3.66154   7.04591   1.88837   0.00070   9.961E-01   6.056E-03  -2.435E-03
1081  8.46364557   0.685  -0.72908   3.66154   7.04591   1.88837   0.00069   9.961E-01   6.051E-03  -2.427E-03
1082  8.46420407   0.685  -0.72908   3.66154   7.04590   1.88837   0.00068   9.960E-01   6.046E-03  -2.419E-03
1083  8.46476184   0.685  -0.72907   3.66154   7.04589   1.88837   0.00067   9.960E-01   6.041E-03  -2.412E-03
1084  8.46531891   0.685  -0.72907   3.66154   7.04589   1.88837   0.00067   9.960E-01   6.036E-03  -2.404E-03
1085  8.46587525   0.685  -0.72906   3.66154   7.04588   1.88838   0.00066   9.960E-01   6.030E-03  -2.396E-03
1086  8.46643089   0.685  -0.72906   3.66154   7.04587   1.88838   0.00065   9.960E-01   6.025E-03  -2.389E-03
1087  8.46698582   0.685  -0.72905   3.66153   7.04587   1.88838   0.00064   9.960E-01   6.020E-03  -2.381E-03
1088  8.46754003   0.685  -0.72905   3.66153   7.04586   1.88838   0.00063   9.960E-01   6.015E-03  -2.373E-03
1089  8.46809354   0.685  -0.72904   3.66153   7.04585   1.88838   0.00062   9.960E-01   6.010E-03  -2.365E-03
1090  8.46864635   0.685  -0.72904   3.66153   7.04585   1.88838   0.00061   9.960E-01   6.005E-03  -2.358E-03
1091  8.46919846   0.685  -0.72903   3.66153   7.04584   1.88838   0.00060   9.960E-01   6.000E-03  -2.350E-03
1092  8.71281972   0.678  -0.72628   3.66138   7.04454   1.89035   0.00000   9.960E-01   5.000E-03  -9.657E-04
1093  8.86795475   0.672  -0.72374   3.66141   7.04432   1.89287   0.00000   9.960E-01   4.000E-03  -4.902E-04
1094  8.98202355   0.666  -0.72120   3.66155   7.04458   1.89599   0.00000   9.960E-01   4.000E-03  -2.341E-04
1095  9.07227857   0.659  -0.71863   3.66176   7.04507   1.89947   0.00000   9.966E-01   3.411E-03  -7.059E-05
1096  9.14696581   0.653  -0.71603   3.66201   7.04572   1.90323   0.00000   9.970E-01   3.000E-03   3.914E-05
1097  9.21067388   0.646  -0.71344   3.66228   7.04646   1.90710   0.00000   9.970E-01   3.000E-03   1.005E-04
1098  9.26622084   0.640  -0.71086   3.66256   7.04725   1.91105   0.00000   9.970E-01   3.000E-03   1.408E-04
1099  9.31546215   0.634  -0.70827   3.66286   7.04810   1.91508   0.00000   9.970E-01   3.000E-03   1.764E-04
1100  9.35968459   0.627  -0.70569   3.66316   7.04897   1.91913   0.00000   9.970E-01   2.940E-03   2.018E-04
1101  9.39981727   0.621  -0.70312   3.66347   7.04987   1.92321   0.00000   9.970E-01   2.000E-03   2.199E-04
1102  9.43655303   0.615  -0.70056   3.66378   7.05078   1.92731   0.00000   9.970E-01   2.000E-03   2.378E-04
1103  9.47042231   0.608  -0.69800   3.66410   7.05172   1.93143   0.00000   9.970E-01   2.000E-03   2.549E-04
1104  9.50184025   0.602  -0.69542   3.66442   7.05267   1.93562   0.00000   9.980E-01   2.000E-03   2.701E-04
1105  9.53113786   0.595  -0.69286   3.66474   7.05365   1.94028   0.00000   9.980E-01   2.000E-03   2.814E-04
1106  9.55858334   0.589  -0.69030   3.66505   7.05470   1.94520   0.00000   9.980E-01   2.000E-03   2.863E-04
1107  9.58439700   0.583  -0.68772   3.66537   7.05580   1.95014   0.00000   9.980E-01   2.000E-03   2.932E-04
1108  9.60876204   0.576  -0.68513   3.66569   7.05692   1.95507   0.00000   9.980E-01   2.000E-03   2.993E-04
1109  9.63183245   0.570  -0.68253   3.66602   7.05806   1.96002   0.00000   9.980E-01   2.000E-03   3.078E-04
1110  9.65373890   0.564  -0.67991   3.66633   7.05923   1.96497   0.00000   9.980E-01   2.000E-03   3.156E-04
1111  9.67459321   0.557  -0.67726   3.66666   7.06041   1.96994   0.00000   9.980E-01   2.000E-03   3.235E-04
1112  9.69449184   0.551  -0.67459   3.66698   7.06161   1.97492   0.00000   9.980E-01   2.000E-03   3.320E-04
1113  9.71351855   0.545  -0.67191   3.66731   7.06282   1.97992   0.00000   9.980E-01   2.000E-03   3.423E-04
1114  9.73174656   0.538  -0.66919   3.66764   7.06404   1.98494   0.00000   9.980E-01   2.000E-03   3.528E-04
1115  9.74924023   0.532  -0.66645   3.66797   7.06527   1.98999   0.00000   9.980E-01   2.000E-03   3.653E-04
1116  9.76605644   0.526  -0.66368   3.66831   7.06651   1.99506   0.00000   9.980E-01   2.000E-03   3.749E-04
1117  9.78224572   0.519  -0.66089   3.66864   7.06777   2.00015   0.00000   9.980E-01   2.000E-03   3.860E-04
1118  9.79785313   0.513  -0.65809   3.66899   7.06903   2.00526   0.00000   9.980E-01   2.000E-03   3.972E-04
1119  9.81291905   0.506  -0.65525   3.66933   7.07029   2.01041   0.00000   9.980E-01   2.000E-03   4.085E-04
1120  9.82747981   0.500  -0.65239   3.66967   7.07157   2.01558   0.00000   9.980E-01   2.000E-03   4.204E-04
1121  9.84156817   0.494  -0.64951   3.67002   7.07286   2.02079   0.00000   9.980E-01   2.000E-03   4.333E-04
1122  9.85521384   0.487  -0.64660   3.67038   7.07415   2.02603   0.00000   9.980E-01   2.000E-03   4.458E-04
1123  9.86844379   0.481  -0.64366   3.67073   7.07545   2.03130   0.00000   9.980E-01   2.000E-03   4.585E-04
1124  9.88128259   0.474  -0.64070   3.67108   7.07675   2.03660   0.00000   9.980E-01   2.000E-03   4.725E-04
1125  9.89375272   0.468  -0.63772   3.67144   7.07806   2.04194   0.00000   9.980E-01   2.000E-03   4.861E-04
1126  9.90587477   0.461  -0.63472   3.67180   7.07938   2.04731   0.00000   9.980E-01   2.000E-03   4.999E-04
1127  9.91766763   0.455  -0.63169   3.67217   7.08071   2.05271   0.00000   9.980E-01   2.000E-03   5.132E-04
1128  9.92914871   0.448  -0.62863   3.67254   7.08204   2.05815   0.00000   9.980E-01   2.000E-03   5.276E-04
1129  9.94033408   0.441  -0.62554   3.67291   7.08338   2.06363   0.00000   9.980E-01   2.000E-03   5.406E-04
1130  9.95123858   0.435  -0.62243   3.67328   7.08472   2.06914   0.00000   9.980E-01   2.000E-03   5.555E-04
1131  9.96187598   0.428  -0.61930   3.67366   7.08608   2.07469   0.00000   9.980E-01   2.000E-03   5.686E-04
1132  9.97225905   0.422  -0.61614   3.67404   7.08744   2.08029   0.00000   9.980E-01   2.000E-03   5.834E-04
1133  9.98239967   0.415  -0.61296   3.67442   7.08881   2.08592   0.00000   9.980E-01   2.000E-03   5.977E-04
1134  9.99230890   0.409  -0.60975   3.67480   7.09018   2.09159   0.00000   9.980E-01   2.000E-03   6.121E-04
1135 10.00199707   0.402  -0.60652   3.67520   7.09158   2.09734   0.00000   9.980E-01   2.000E-03   6.253E-04
1136 10.01147382   0.395  -0.60326   3.67559   7.09298   2.10389   0.00000   9.980E-01   2.000E-03   6.392E-04
1137 10.02074819   0.389  -0.59998   3.67598   7.09444   2.11086   0.00000   9.980E-01   2.000E-03   6.500E-04
1138 10.02982864   0.382  -0.59667   3.67637   7.09595   2.11787   0.00000   9.980E-01   2.000E-03   6.605E-04
1139 10.03872311   0.375  -0.59334   3.67676   7.09750   2.12492   0.00000   9.980E-01   2.000E-03   6.728E-04
1140 10.04743907   0.369  -0.58998   3.67716   7.09906   2.13200   0.00000   9.980E-01   2.000E-03   6.856E-04
1141 10.05598355   0.362  -0.58660   3.67756   7.10067   2.13913   0.00000   9.980E-01   2.000E-03   6.966E-04
1142 10.06436315   0.355  -0.58318   3.67795   7.10231   2.14626   0.00000   9.980E-01   2.000E-03   7.083E-04
1143 10.07258413   0.349  -0.57974   3.67834   7.10397   2.15346   0.00000   9.980E-01   2.000E-03   7.210E-04
1144 10.08065238   0.342  -0.57627   3.67874   7.10566   2.16065   0.00000   9.980E-01   2.000E-03   7.328E-04
1145 10.08857347   0.335  -0.57277   3.67914   7.10737   2.16786   0.00000   9.980E-01   2.000E-03   7.493E-04
1146 10.09635266   0.329  -0.56923   3.67954   7.10910   2.17511   0.00000   9.980E-01   2.000E-03   7.598E-04
1147 10.10399497   0.322  -0.56566   3.67994   7.11086   2.18238   0.00000   9.980E-01   2.000E-03   7.742E-04
1148 10.11150511   0.315  -0.56207   3.68034   7.11263   2.18966   0.00000   9.975E-01   2.000E-03   7.853E-04
1149 10.11888758   0.309  -0.55844   3.68074   7.11442   2.19699   0.00000   9.970E-01   2.000E-03   8.007E-04
1150 10.12614666   0.302  -0.55477   3.68115   7.11623   2.20434   0.00000   9.970E-01   2.000E-03   8.145E-04
1151 10.13328640   0.296  -0.55107   3.68155   7.11806   2.21172   0.00000   9.970E-01   2.000E-03   8.260E-04
1152 10.14031066   0.290  -0.54733   3.68195   7.11991   2.21901   0.00000   9.970E-01   2.000E-03   8.426E-04
1153 10.14722311   0.284  -0.54356   3.68235   7.12178   2.22625   0.00000   9.970E-01   2.000E-03   8.560E-04
1154 10.15402726   0.278  -0.53975   3.68277   7.12366   2.23360   0.00000   9.970E-01   2.000E-03   8.714E-04
1155 10.16072646   0.271  -0.53590   3.68318   7.12556   2.24106   0.00000   9.970E-01   2.000E-03   8.863E-04
1156 10.16732388   0.265  -0.53201   3.68359   7.12748   2.24859   0.00000   9.970E-01   2.000E-03   9.028E-04
1157 10.17382258   0.259  -0.52809   3.68400   7.12941   2.25621   0.00000   9.970E-01   2.000E-03   9.183E-04
1158 10.18022546   0.253  -0.52412   3.68442   7.13135   2.26389   0.00000   9.970E-01   2.000E-03   9.349E-04
1159 10.18653532   0.246  -0.52012   3.68483   7.13331   2.27159   0.00000   9.970E-01   2.000E-03   9.496E-04
1160 10.19275481   0.240  -0.51607   3.68525   7.13529   2.27933   0.00000   9.970E-01   2.000E-03   9.657E-04
1161 10.19888649   0.234  -0.51198   3.68567   7.13727   2.28710   0.00000   9.970E-01   2.000E-03   9.831E-04
1162 10.20493280   0.228  -0.50784   3.68610   7.13927   2.29492   0.00000   9.965E-01   2.507E-03   9.970E-04
1163 10.21089609   0.222  -0.50365   3.68652   7.14129   2.30281   0.00000   9.960E-01   3.000E-03   1.016E-03
1164 10.21677860   0.216  -0.49942   3.68695   7.14332   2.31075   0.00000   9.960E-01   3.000E-03   1.037E-03
1165 10.22258250   0.210  -0.49514   3.68738   7.14536   2.31877   0.00000   9.960E-01   3.000E-03   1.056E-03
1166 10.22830986   0.204  -0.49081   3.68781   7.14741   2.32686   0.00000   9.960E-01   3.000E-03   1.070E-03
1167 10.23396267   0.198  -0.48644   3.68825   7.14948   2.33555   0.00000   9.960E-01   3.000E-03   1.090E-03
1168 10.23954284   0.192  -0.48202   3.68868   7.15159   2.34540   0.00000   9.960E-01   3.000E-03   1.100E-03
1169 10.24505223   0.187  -0.47755   3.68912   7.15379   2.35536   0.00000   9.950E-01   3.573E-03   1.116E-03
1170 10.25049260   0.181  -0.47304   3.68956   7.15606   2.36540   0.00000   9.950E-01   4.000E-03   1.130E-03
1171 10.25586566   0.175  -0.46847   3.68999   7.15839   2.37556   0.00000   9.950E-01   4.000E-03   1.151E-03
1172 10.26117306   0.169  -0.46384   3.69042   7.16074   2.38587   0.00000   9.950E-01   4.000E-03   1.170E-03
1173 10.26641638   0.164  -0.45917   3.69086   7.16316   2.39628   0.00000   9.940E-01   4.718E-03   1.184E-03
1174 10.27159715   0.158  -0.45443   3.69129   7.16563   2.40683   0.00000   9.940E-01   5.000E-03   1.201E-03
1175 10.27671684   0.152  -0.44964   3.69173   7.16813   2.41752   0.00000   9.935E-01   5.000E-03   1.229E-03
1176 10.28177689   0.147  -0.44478   3.69217   7.17067   2.42833   0.00000   9.930E-01   5.875E-03   1.240E-03
1177 10.28677865   0.141  -0.43983   3.69262   7.17325   2.43934   0.00000   9.930E-01   6.000E-03   1.277E-03
1178 10.29172347   0.136  -0.43483   3.69306   7.17583   2.45051   0.00000   9.920E-01   6.818E-03   1.298E-03
1179 10.29661262   0.130  -0.42977   3.69349   7.17846   2.46182   0.00000   9.917E-01   7.000E-03   1.313E-03
1180 10.30144734   0.125  -0.42462   3.69393   7.18110   2.47331   0.00000   9.910E-01   8.000E-03   1.349E-03
1181 10.30622883   0.120  -0.41940   3.69436   7.18377   2.48498   0.00000   9.900E-01   8.488E-03   1.360E-03
1182 10.31095825   0.114  -0.41409   3.69480   7.18647   2.49687   0.00000   9.890E-01   9.130E-03   1.400E-03
1183 10.31563673   0.109  -0.40869   3.69524   7.18920   2.50894   0.00000   9.880E-01   1.000E-02   1.426E-03
1184 10.32026534   0.104  -0.40320   3.69569   7.19195   2.52125   0.00000   9.870E-01   1.154E-02   1.450E-03
1185 10.32484514   0.099  -0.39762   3.69612   7.19474   2.53378   0.00000   9.860E-01   1.300E-02   1.476E-03
1186 10.32937714   0.094  -0.39194   3.69656   7.19757   2.54654   0.00000   9.840E-01   1.413E-02   1.503E-03
1187 10.33386234   0.089  -0.38617   3.69700   7.20045   2.55950   0.00000   9.830E-01   1.600E-02   1.540E-03
1188 10.33830170   0.084  -0.38028   3.69744   7.20339   2.57268   0.00000   9.811E-01   1.700E-02   1.569E-03
1189 10.34269613   0.079  -0.37430   3.69788   7.20640   2.58611   0.00000   9.791E-01   1.990E-02   1.599E-03
1190 10.34704654   0.075  -0.36822   3.69831   7.20950   2.59974   0.00000   9.761E-01   2.193E-02   1.629E-03
1191 10.35135382   0.070  -0.36204   3.69874   7.21272   2.61354   0.00000   9.740E-01   2.500E-02   1.650E-03
1192 10.35239144   0.069  -0.36052   3.69885   7.21351   2.61692   0.00000   9.732E-01   2.575E-02   1.658E-03
1193 10.35342658   0.068  -0.35900   3.69895   7.21432   2.62031   0.00000   9.725E-01   2.651E-02   1.665E-03
1194 10.35445926   0.066  -0.35748   3.69905   7.21513   2.62372   0.00000   9.717E-01   2.727E-02   1.670E-03
1195 10.35548949   0.065  -0.35596   3.69915   7.21595   2.62712   0.00000   9.710E-01   2.803E-02   1.670E-03
1196 10.35651728   0.064  -0.35442   3.69925   7.21678   2.63053   0.00000   9.702E-01   2.879E-02   1.670E-03
1197 10.35754265   0.063  -0.35288   3.69935   7.21763   2.63397   0.00000   9.694E-01   2.956E-02   1.676E-03
1198 10.35856560   0.062  -0.35133   3.69945   7.21848   2.63740   0.00000   9.683E-01   3.033E-02   1.683E-03
1199 10.35958615   0.061  -0.34978   3.69955   7.21933   2.64084   0.00000   9.669E-01   3.110E-02   1.691E-03
1200 10.36060431   0.059  -0.34822   3.69965   7.22020   2.64430   0.00000   9.661E-01   3.188E-02   1.699E-03
1201 10.36162008   0.058  -0.34666   3.69976   7.22109   2.64773   0.00000   9.653E-01   3.265E-02   1.700E-03
1202 10.36263348   0.057  -0.34510   3.69985   7.22198   2.65118   0.00000   9.646E-01   3.387E-02   1.700E-03
1203 10.36364453   0.056  -0.34353   3.69995   7.22288   2.65464   0.00000   9.636E-01   3.522E-02   1.702E-03
1204 10.36465322   0.055  -0.34195   3.70005   7.22380   2.65811   0.00000   9.620E-01   3.600E-02   1.710E-03
1205 10.36565958   0.054  -0.34037   3.70014   7.22473   2.66157   0.00000   9.612E-01   3.757E-02   1.718E-03
1206 10.36666361   0.052  -0.33879   3.70024   7.22568   2.66504   0.00000   9.598E-01   3.858E-02   1.726E-03
1207 10.36766533   0.051  -0.33720   3.70033   7.22664   2.66851   0.00000   9.586E-01   3.974E-02   1.730E-03
1208 10.36866474   0.050  -0.33561   3.70043   7.22760   2.67198   0.00000   9.577E-01   4.116E-02   1.730E-03
1209 10.36966186   0.049  -0.33402   3.70052   7.22860   2.67546   0.00000   9.561E-01   4.196E-02   1.730E-03
1210 10.37065669   0.048  -0.33242   3.70062   7.22959   2.67894   0.00000   9.545E-01   4.350E-02   1.722E-03
1211 10.37164925   0.046  -0.33081   3.70071   7.23061   2.68241   0.00000   9.529E-01   4.510E-02   1.726E-03
1212 10.37263955   0.045  -0.32921   3.70080   7.23164   2.68588   0.00000   9.513E-01   4.670E-02   1.734E-03
1213 10.37362759   0.044  -0.32760   3.70089   7.23268   2.68935   0.00000   9.497E-01   4.831E-02   1.740E-03
1214 10.37461339   0.043  -0.32599   3.70099   7.23375   2.69280   0.00000   9.481E-01   4.992E-02   1.740E-03
1215 10.37559696   0.042  -0.32437   3.70107   7.23482   2.69626   0.00000   9.465E-01   5.153E-02   1.740E-03
1216 10.37657830   0.040  -0.32276   3.70115   7.23591   2.69972   0.00000   9.449E-01   5.314E-02   1.734E-03
1217 10.37755743   0.039  -0.32114   3.70124   7.23701   2.70317   0.00000   9.432E-01   5.476E-02   1.730E-03
1218 10.37853436   0.038  -0.31951   3.70133   7.23812   2.70662   0.00000   9.416E-01   5.656E-02   1.732E-03
1219 10.37950910   0.037  -0.31789   3.70141   7.23926   2.71008   0.00000   9.400E-01   5.900E-02   1.740E-03
1220 10.38048165   0.035  -0.31627   3.70149   7.24040   2.71355   0.00000   9.376E-01   6.062E-02   1.740E-03
1221 10.38145203   0.034  -0.31464   3.70157   7.24155   2.71701   0.00000   9.358E-01   6.287E-02   1.734E-03
1222 10.38242025   0.033  -0.31301   3.70165   7.24270   2.72047   0.00000   9.337E-01   6.487E-02   1.730E-03
1223 10.38338632   0.031  -0.31138   3.70174   7.24386   2.72394   0.00000   9.312E-01   6.675E-02   1.727E-03
1224 10.38435024   0.030  -0.30973   3.70182   7.24501   2.72740   0.00000   9.288E-01   6.920E-02   1.722E-03
1225 10.38531202   0.029  -0.30805   3.70193   7.24618   2.73088   0.00000   9.263E-01   7.166E-02   1.747E-03
1226 10.38627168   0.027  -0.30639   3.70201   7.24738   2.73437   0.00000   9.238E-01   7.424E-02   1.817E-03
1227 10.38722923   0.026  -0.30470   3.70210   7.24858   2.73791   0.00000   9.217E-01   7.630E-02   1.918E-03
1228 10.38818466   0.025  -0.30301   3.70218   7.24978   2.74148   0.00000   9.192E-01   7.882E-02   2.033E-03
1229 10.38913800   0.023  -0.30132   3.70226   7.25096   2.74510   0.00000   9.161E-01   8.185E-02   2.148E-03
1230 10.39008926   0.022  -0.29962   3.70235   7.25212   2.74879   0.00000   9.129E-01   8.438E-02   2.266E-03
1231 10.39103843   0.021  -0.29790   3.70243   7.25324   2.75255   0.00000   9.104E-01   8.747E-02   2.391E-03
1232 10.39198553   0.020  -0.29619   3.70250   7.25432   2.75640   0.00000   9.070E-01   9.005E-02   2.523E-03
1233 10.39293057   0.018  -0.29445   3.70258   7.25534   2.76035   0.00000   9.044E-01   9.290E-02   2.666E-03
1234 10.39387356   0.017  -0.29271   3.70265   7.25632   2.76442   0.00000   9.017E-01   9.628E-02   2.814E-03
1235 10.39481451   0.016  -0.29096   3.70272   7.25723   2.76860   0.00000   8.979E-01   9.905E-02   2.955E-03
1236 10.39575342   0.015  -0.28919   3.70280   7.25808   2.77291   0.00000   8.955E-01   1.011E-01   3.089E-03
1237 10.39669031   0.014  -0.28741   3.70287   7.25886   2.77734   0.00000   8.928E-01   1.042E-01   3.228E-03
1238 10.39762518   0.012  -0.28561   3.70294   7.25958   2.78189   0.00000   8.896E-01   1.074E-01   3.375E-03
1239 10.39855804   0.011  -0.28379   3.70301   7.26024   2.78657   0.00000   8.866E-01   1.098E-01   3.513E-03
1240 10.39948891   0.010  -0.28195   3.70308   7.26084   2.79137   0.00000   8.837E-01   1.123E-01   3.644E-03
1241 10.40041778   0.010  -0.28009   3.70315   7.26140   2.79630   0.00000   8.810E-01   1.150E-01   3.780E-03
1242 10.40076982   0.009  -0.27938   3.70318   7.26159   2.79820   0.00000   8.796E-01   1.164E-01   3.830E-03
1243 10.40112157   0.009  -0.27866   3.70321   7.26178   2.80012   0.00000   8.786E-01   1.174E-01   3.880E-03
1244 10.40147303   0.009  -0.27795   3.70323   7.26196   2.80206   0.00000   8.777E-01   1.183E-01   3.931E-03
1245 10.40182422   0.008  -0.27722   3.70326   7.26213   2.80401   0.00000   8.762E-01   1.198E-01   3.983E-03
1246 10.40217511   0.008  -0.27651   3.70329   7.26229   2.80599   0.00000   8.754E-01   1.206E-01   4.028E-03
1247 10.40252573   0.008  -0.27578   3.70331   7.26245   2.80798   0.00000   8.746E-01   1.214E-01   4.074E-03
1248 10.40287606   0.007  -0.27505   3.70334   7.26261   2.80998   0.00000   8.737E-01   1.223E-01   4.118E-03
1249 10.40322611   0.007  -0.27432   3.70337   7.26276   2.81199   0.00000   8.721E-01   1.239E-01   4.156E-03
1250 10.40357588   0.007  -0.27358   3.70339   7.26290   2.81403   0.00000   8.713E-01   1.247E-01   4.203E-03
1251 10.40392537   0.007  -0.27285   3.70341   7.26304   2.81608   0.00000   8.705E-01   1.255E-01   4.245E-03
1252 10.40427457   0.006  -0.27211   3.70344   7.26317   2.81815   0.00000   8.694E-01   1.263E-01   4.285E-03
1253 10.40462350   0.006  -0.27138   3.70346   7.26330   2.82022   0.00000   8.679E-01   1.272E-01   4.326E-03
1254 10.40497214   0.006  -0.27063   3.70350   7.26343   2.82231   0.00000   8.671E-01   1.288E-01   4.375E-03
1255 10.40532051   0.006  -0.26989   3.70352   7.26354   2.82442   0.00000   8.663E-01   1.297E-01   4.417E-03
1256 10.40566859   0.005  -0.26914   3.70355   7.26365   2.82653   0.00000   8.649E-01   1.306E-01   4.464E-03
1257 10.40601640   0.005  -0.26839   3.70357   7.26376   2.82866   0.00000   8.636E-01   1.314E-01   4.510E-03
1258 10.40636393   0.005  -0.26764   3.70359   7.26387   2.83079   0.00000   8.628E-01   1.325E-01   4.552E-03
1259 10.40671118   0.005  -0.26688   3.70361   7.26397   2.83294   0.00000   8.619E-01   1.341E-01   4.595E-03
1260 10.40705816   0.005  -0.26613   3.70364   7.26408   2.83511   0.00000   8.610E-01   1.350E-01   4.638E-03
1261 10.40740485   0.004  -0.26537   3.70367   7.26417   2.83728   0.00000   8.593E-01   1.358E-01   4.682E-03
1262 10.40775127   0.004  -0.26461   3.70369   7.26426   2.83948   0.00000   8.583E-01   1.367E-01   4.718E-03
1263 10.40809742   0.004  -0.26385   3.70372   7.26435   2.84168   0.00000   8.574E-01   1.376E-01   4.754E-03
1264 10.40844329   0.004  -0.26308   3.70374   7.26444   2.84390   0.00000   8.565E-01   1.385E-01   4.790E-03
1265 10.40878888   0.004  -0.26231   3.70376   7.26453   2.84613   0.00000   8.556E-01   1.398E-01   4.826E-03
1266 10.40913420   0.003  -0.26153   3.70379   7.26461   2.84837   0.00000   8.544E-01   1.413E-01   4.862E-03
1267 10.40947924   0.003  -0.26076   3.70381   7.26469   2.85062   0.00000   8.528E-01   1.422E-01   4.901E-03
1268 10.40982401   0.003  -0.25999   3.70383   7.26476   2.85288   0.00000   8.519E-01   1.431E-01   4.947E-03
1269 10.41016851   0.003  -0.25920   3.70385   7.26485   2.85516   0.00000   8.509E-01   1.441E-01   4.994E-03
1270 10.41051273   0.003  -0.25842   3.70387   7.26492   2.85744   0.00000   8.500E-01   1.450E-01   5.041E-03
1271 10.41085668   0.003  -0.25764   3.70390   7.26499   2.85974   0.00000   8.490E-01   1.460E-01   5.089E-03
1272 10.41120036   0.003  -0.25685   3.70392   7.26506   2.86206   0.00000   8.481E-01   1.469E-01   5.137E-03
1273 10.41154377   0.002  -0.25607   3.70394   7.26513   2.86439   0.00000   8.471E-01   1.479E-01   5.185E-03
1274 10.41188690   0.002  -0.25527   3.70396   7.26520   2.86673   0.00000   8.452E-01   1.489E-01   5.234E-03
1275 10.41222977   0.002  -0.25443   3.70402   7.26527   2.86906   0.00000   8.441E-01   1.499E-01   5.292E-03
1276 10.41257236   0.002  -0.25363   3.70405   7.26534   2.87141   0.00000   8.431E-01   1.509E-01   5.317E-03
1277 10.41291469   0.002  -0.25284   3.70407   7.26541   2.87377   0.00000   8.421E-01   1.527E-01   5.355E-03
1278 10.41325674   0.002  -0.25204   3.70410   7.26548   2.87614   0.00000   8.411E-01   1.539E-01   5.395E-03
1279 10.41359853   0.002  -0.25123   3.70412   7.26554   2.87853   0.00000   8.401E-01   1.549E-01   5.436E-03
1280 10.41394004   0.002  -0.25044   3.70413   7.26561   2.88092   0.00000   8.391E-01   1.559E-01   5.468E-03
1281 10.41428129   0.002  -0.24962   3.70415   7.26567   2.88333   0.00000   8.380E-01   1.570E-01   5.518E-03
1282 10.41462227   0.002  -0.24883   3.70416   7.26573   2.88574   0.00000   8.370E-01   1.580E-01   5.562E-03
1283 10.41496299   0.002  -0.24801   3.70418   7.26581   2.88818   0.00000   8.358E-01   1.591E-01   5.664E-03
1284 10.41530343   0.001  -0.24720   3.70420   7.26587   2.89062   0.00000   8.338E-01   1.602E-01   5.718E-03
1285 10.41564361   0.001  -0.24638   3.70422   7.26593   2.89308   0.00000   8.327E-01   1.613E-01   5.773E-03
1286 10.41598352   0.001  -0.24556   3.70423   7.26599   2.89555   0.00000   8.316E-01   1.624E-01   5.828E-03
1287 10.41632317   0.001  -0.24474   3.70425   7.26606   2.89803   0.00000   8.305E-01   1.635E-01   5.883E-03
1288 10.41666255   0.001  -0.24392   3.70427   7.26612   2.90053   0.00000   8.294E-01   1.646E-01   5.933E-03
1289 10.41700167   0.001  -0.24309   3.70429   7.26618   2.90305   0.00000   8.283E-01   1.657E-01   5.985E-03
1290 10.41734052   0.001  -0.24226   3.70430   7.26625   2.90557   0.00000   8.272E-01   1.668E-01   6.042E-03
1291 10.41767911   0.001  -0.24143   3.70432   7.26631   2.90811   0.00000   8.260E-01   1.680E-01   6.090E-03
1292 10.41867581   0.001  -0.23901   3.70436   7.26644   2.91575   0.00000   8.238E-01   1.712E-01   5.344E-03
1293 10.41967023   0.001  -0.23658   3.70440   7.26658   2.92346   0.00000   8.211E-01   1.739E-01   4.616E-03
1294 10.42066238   0.001  -0.23414   3.70442   7.26670   2.93130   0.00000   8.187E-01   1.773E-01   3.987E-03
1295 10.42165227   0.000  -0.23165   3.70445   7.26683   2.93926   0.00000   8.162E-01   1.804E-01   3.439E-03
1296 10.42263990   0.000  -0.22914   3.70448   7.26694   2.94738   0.00000   8.136E-01   1.834E-01   2.933E-03
1297 10.42362530   0.000  -0.22663   3.70450   7.26703   2.95564   0.00000   8.112E-01   1.865E-01   2.508E-03
1298 10.42460846   0.000  -0.22410   3.70450   7.26711   2.96411   0.00000   8.088E-01   1.892E-01   2.149E-03
1299 10.42558941   0.000  -0.22150   3.70454   7.26729   2.97258   0.00000   8.059E-01   1.921E-01   2.076E-03
1300 10.42656814   0.000  -0.21885   3.70458   7.26760   2.98104   0.00000   8.019E-01   1.961E-01   2.168E-03
1301 10.42754467   0.000  -0.21624   3.70459   7.26783   2.98964   0.00000   7.980E-01   2.000E-01   2.110E-03
1302 10.42851901   0.000  -0.21359   3.70459   7.26812   2.99841   0.00000   7.941E-01   2.039E-01   2.079E-03
1303 10.42949118   0.000  -0.21092   3.70459   7.26842   3.00756   0.00000   7.901E-01   2.079E-01   2.100E-03
1304 10.43046116   0.000  -0.20823   3.70459   7.26869   3.01665   0.00000   7.861E-01   2.119E-01   2.100E-03
1305 10.43142899   0.000  -0.20552   3.70458   7.26911   3.02655   0.00000   7.820E-01   2.157E-01   2.087E-03
1306 10.43239467   0.000  -0.20277   3.70456   7.26936   3.03614   0.00000   7.780E-01   2.197E-01   2.067E-03
1307 10.43335820   0.000  -0.19996   3.70455   7.26968   3.04589   0.00000   7.738E-01   2.242E-01   2.113E-03
1308 10.43431960   0.000  -0.19705   3.70455   7.26999   3.05581   0.00000   7.695E-01   2.285E-01   2.200E-03
1309 10.43527888   0.000  -0.19420   3.70452   7.27030   3.06597   0.00000   7.652E-01   2.328E-01   2.119E-03
1310 10.43623604   0.000  -0.19134   3.70448   7.27075   3.07662   0.00000   7.609E-01   2.371E-01   2.076E-03
1311 10.43719110   0.000  -0.18843   3.70443   7.27107   3.08743   0.00000   7.566E-01   2.414E-01   2.094E-03
1312 10.43814406   0.000  -0.18546   3.70437   7.27141   3.09844   0.00000   7.512E-01   2.468E-01   2.110E-03
1313 10.43909493   0.000  -0.18246   3.70432   7.27178   3.10959   0.00000   7.467E-01   2.513E-01   2.140E-03
1314 10.44004373   0.000  -0.17945   3.70425   7.27226   3.12109   0.00000   7.412E-01   2.560E-01   2.077E-03
1315 10.44099046   0.000  -0.17637   3.70418   7.27267   3.13278   0.00000   7.367E-01   2.613E-01   2.108E-03
1316 10.44193513   0.000  -0.17328   3.70407   7.27314   3.14479   0.00000   7.311E-01   2.669E-01   2.114E-03
1317 10.44287775   0.000  -0.17016   3.70397   7.27360   3.15714   0.00000   7.256E-01   2.716E-01   2.071E-03
1318 10.44381833   0.000  -0.16696   3.70387   7.27409   3.16967   0.00000   7.203E-01   2.777E-01   2.103E-03
1319 10.44475688   0.000  -0.16374   3.70375   7.27461   3.18258   0.00000   7.148E-01   2.832E-01   2.089E-03
1320 10.44569340   0.000  -0.16049   3.70362   7.27519   3.19587   0.00000   7.084E-01   2.890E-01   2.067E-03
1321 10.44662790   0.000  -0.15720   3.70347   7.27580   3.20950   0.00000   7.028E-01   2.952E-01   2.073E-03
1322 10.44756040   0.000  -0.15393   3.70326   7.27643   3.22379   0.00000   6.973E-01   3.016E-01   1.885E-03
1323 10.44849091   0.000  -0.15048   3.70309   7.27708   3.23842   0.00000   6.896E-01   3.084E-01   2.060E-03
1324 10.44941942   0.000  -0.14701   3.70289   7.27774   3.25357   0.00000   6.837E-01   3.143E-01   2.037E-03
1325 10.45034595   0.000  -0.14351   3.70267   7.27846   3.26929   0.00000   6.768E-01   3.212E-01   1.950E-03
1326 10.45127051   0.000  -0.14003   3.70238   7.27918   3.28560   0.00000   6.698E-01   3.282E-01   1.871E-03
1327 10.45219311   0.000  -0.13639   3.70213   7.27995   3.30232   0.00000   6.617E-01   3.363E-01   1.994E-03
1328 10.45311375   0.000  -0.13274   3.70185   7.28076   3.31973   0.00000   6.540E-01   3.440E-01   1.916E-03
1329 10.45403244   0.000  -0.12911   3.70150   7.28162   3.33764   0.00000   6.458E-01   3.522E-01   1.849E-03
1330 10.45494919   0.000  -0.12534   3.70115   7.28249   3.35632   0.00000   6.368E-01   3.613E-01   1.859E-03
1331 10.45586401   0.000  -0.12148   3.70078   7.28349   3.37549   0.00000   6.282E-01   3.699E-01   1.831E-03
1332 10.45677691   0.000  -0.11772   3.70033   7.28453   3.39567   0.00000   6.187E-01   3.793E-01   1.639E-03
1333 10.45768789   0.000  -0.11373   3.69988   7.28564   3.41652   0.00000   6.080E-01   3.900E-01   1.758E-03
1334 10.45859697   0.000  -0.10982   3.69936   7.28685   3.43846   0.00000   5.981E-01   4.007E-01   1.570E-03
1335 10.45950415   0.000  -0.10567   3.69882   7.28811   3.46128   0.00000   5.863E-01   4.119E-01   1.638E-03
1336 10.46040944   0.000  -0.10164   3.69819   7.28950   3.48540   0.00000   5.748E-01   4.240E-01   1.342E-03
1337 10.46131284   0.000  -0.09741   3.69752   7.29092   3.51056   0.00000   5.614E-01   4.366E-01   1.487E-03
1338 10.46221437   0.000  -0.09306   3.69677   7.29254   3.53704   0.00000   5.489E-01   4.501E-01   1.281E-03
1339 10.46311403   0.000  -0.08876   3.69593   7.29427   3.56480   0.00000   5.345E-01   4.645E-01   1.035E-03
1340 10.46401183   0.000  -0.08391   3.69485   7.29714   3.59984   0.00000   5.224E-01   4.766E-01   8.351E-04
1341 10.46490778   0.975  -0.07867   3.69355   7.29966   3.64166   0.00000   5.070E-01   4.920E-01   4.470E-04
