 # M = 0.40 Mo, Y = 0.2880, Z = 2.00000E-02, alpha = 1.68, X_D = 4.0E-05
 # Solar Mixture: Asplund et al. (2005)         
 # ------------------------------------------------------------------------------------------------------------
 # NMD   LOG AGE    Xc      LOG L     LOG TE    LOG Tc   LOG RHOc    M-CC       L-PP       L-CNO       L-GRA
 #        (yr)              (Lo)        (K)       (K)   (gr/cm^3)    (Mo)        (L)         (L)         (L)
 # ------------------------------------------------------------------------------------------------------------
   1  5.03353981   0.692   0.20196   3.56977   6.03205  -0.87294   0.00000   9.720E-01   0.000E+00   2.770E-02
   2  5.25127894   0.692   0.19335   3.56963   6.03589  -0.86140   0.00000   9.411E-01   0.000E+00   5.904E-02
   3  5.39563373   0.692   0.18444   3.56946   6.03983  -0.84958   0.00000   9.385E-01   0.000E+00   6.183E-02
   4  5.50378993   0.692   0.17652   3.56931   6.04333  -0.83907   0.00000   9.420E-01   0.000E+00   5.815E-02
   5  5.59031003   0.692   0.16923   3.56917   6.04655  -0.82940   0.00000   9.454E-01   0.000E+00   5.466E-02
   6  5.66242396   0.692   0.16274   3.56905   6.04942  -0.82076   0.00000   9.486E-01   0.000E+00   5.141E-02
   7  5.72425131   0.692   0.15625   3.56893   6.05229  -0.81213   0.00000   9.517E-01   0.000E+00   4.816E-02
   8  5.77836368   0.692   0.15023   3.56881   6.05495  -0.80416   0.00000   9.526E-01   0.000E+00   4.742E-02
   9  5.82647461   0.692   0.14425   3.56869   6.05758  -0.79624   0.00000   9.532E-01   0.000E+00   4.690E-02
  10  5.86978340   0.692   0.13827   3.56857   6.06022  -0.78832   0.00000   9.539E-01   0.000E+00   4.638E-02
  11  5.90916227   0.692   0.13223   3.56844   6.06287  -0.78035   0.00000   9.532E-01   0.000E+00   4.710E-02
  12  5.94526550   0.692   0.12617   3.56831   6.06552  -0.77238   0.00000   9.524E-01   0.000E+00   4.806E-02
  13  5.97859643   0.692   0.12011   3.56818   6.06818  -0.76440   0.00000   9.515E-01   0.000E+00   4.902E-02
  14  6.00955062   0.692   0.11380   3.56805   6.07095  -0.75609   0.00000   9.498E-01   0.000E+00   5.067E-02
  15  6.03844460   0.692   0.10723   3.56791   6.07383  -0.74743   0.00000   9.474E-01   0.000E+00   5.303E-02
  16  6.06553556   0.692   0.10067   3.56777   6.07671  -0.73877   0.00000   9.450E-01   0.000E+00   5.539E-02
  17  6.09103538   0.692   0.09391   3.56763   6.07967  -0.72987   0.00000   9.422E-01   0.000E+00   5.813E-02
  18  6.11512064   0.692   0.08633   3.56745   6.08296  -0.71996   0.00000   9.379E-01   0.000E+00   6.243E-02
  19  6.13794006   0.692   0.07875   3.56727   6.08626  -0.71004   0.00000   9.336E-01   0.000E+00   6.673E-02
  20  6.15962008   0.692   0.07095   3.56709   6.08965  -0.69984   0.00000   9.288E-01   0.000E+00   7.154E-02
  21  6.18026910   0.692   0.06189   3.56688   6.09360  -0.68796   0.00000   9.209E-01   0.000E+00   7.931E-02
  22  6.19998074   0.692   0.05282   3.56667   6.09756  -0.67608   0.00000   9.129E-01   0.000E+00   8.708E-02
  23  6.21883643   0.692   0.04267   3.56643   6.10196  -0.66283   0.00000   9.023E-01   0.000E+00   9.784E-02
  24  6.23690741   0.692   0.03149   3.56616   6.10680  -0.64826   0.00000   8.892E-01   0.000E+00   1.115E-01
  25  6.25425640   0.692   0.01947   3.56586   6.11200  -0.63262   0.00000   8.727E-01   0.000E+00   1.281E-01
  26  6.27093888   0.692   0.00552   3.56550   6.11803  -0.61453   0.00000   8.487E-01   0.000E+00   1.516E-01
  27  6.28700417   0.692  -0.01017   3.56510   6.12480  -0.59421   0.00000   8.169E-01   0.000E+00   1.831E-01
  28  6.30249632   0.692  -0.02782   3.56463   6.13239  -0.57137   0.00000   7.761E-01   0.000E+00   2.239E-01
  29  6.31745482   0.692  -0.04905   3.56405   6.14151  -0.54393   0.00000   7.145E-01   0.000E+00   2.855E-01
  30  6.33191520   0.692  -0.07405   3.56336   6.15222  -0.51174   0.00000   6.264E-01   0.000E+00   3.736E-01
  31  6.34590958   0.692  -0.10386   3.56249   6.16493  -0.47352   0.00000   5.064E-01   0.000E+00   4.936E-01
  32  6.35946707   0.692  -0.13784   3.56147   6.17934  -0.43018   0.00000   3.633E-01   0.000E+00   6.367E-01
  33  6.37261410   0.692  -0.17508   3.56027   6.19509  -0.38285   0.00000   2.226E-01   0.000E+00   7.774E-01
  34  6.38537481   0.692  -0.21286   3.55902   6.21096  -0.33514   0.00000   1.259E-01   0.000E+00   8.741E-01
  35  6.39777126   0.692  -0.24848   3.55777   6.22593  -0.29030   0.00000   8.395E-02   0.000E+00   9.161E-01
  36  6.40982366   0.692  -0.28171   3.55658   6.23973  -0.24883   0.00000   5.185E-02   0.000E+00   9.481E-01
  37  6.42155059   0.692  -0.31228   3.55548   6.25241  -0.21065   0.00000   3.144E-02   0.000E+00   9.686E-01
  38  6.43296919   0.692  -0.34045   3.55449   6.26413  -0.17533   0.00000   1.792E-02   0.000E+00   9.821E-01
  39  6.44409523   0.692  -0.36631   3.55358   6.27493  -0.14283   0.00000   1.025E-02   0.000E+00   9.897E-01
  40  6.45494335   0.692  -0.39017   3.55279   6.28497  -0.11260   0.00000   5.537E-03   0.000E+00   9.945E-01
  41  6.46552708   0.692  -0.41223   3.55210   6.29433  -0.08442   0.00000   3.000E-03   0.000E+00   9.970E-01
  42  6.48578628   0.692  -0.45123   3.55098   6.31106  -0.03397   0.00000   1.000E-03   0.000E+00   9.990E-01
  43  6.50514239   0.692  -0.48538   3.55009   6.32594   0.01088   0.00000   8.546E-05   0.000E+00   9.999E-01
  44  6.52367250   0.692  -0.51566   3.54939   6.33929   0.05107   0.00000   0.000E+00   0.000E+00   1.000E+00
  45  6.54144424   0.692  -0.54314   3.54881   6.35151   0.08792   0.00000   0.000E+00   0.000E+00   1.000E+00
  46  6.55851723   0.692  -0.56786   3.54834   6.36261   0.12140   0.00000   0.000E+00   0.000E+00   1.000E+00
  47  6.57494436   0.692  -0.59065   3.54793   6.37291   0.15247   0.00000   0.000E+00   0.000E+00   1.000E+00
  48  6.59077272   0.692  -0.61174   3.54759   6.38250   0.18139   0.00000   0.000E+00   0.000E+00   1.000E+00
  49  6.60604442   0.692  -0.63134   3.54729   6.39145   0.20839   0.00000   0.000E+00   0.000E+00   1.000E+00
  50  6.62079729   0.692  -0.64963   3.54703   6.39984   0.23371   0.00000   0.000E+00   0.000E+00   1.000E+00
  51  6.63506544   0.692  -0.66678   3.54680   6.40774   0.25757   0.00000   0.000E+00   0.000E+00   1.000E+00
  52  6.64887970   0.692  -0.68295   3.54659   6.41522   0.28014   0.00000   0.000E+00   0.000E+00   1.000E+00
  53  6.66226805   0.692  -0.69827   3.54641   6.42232   0.30157   0.00000   0.000E+00   0.000E+00   1.000E+00
  54  6.67525599   0.692  -0.71285   3.54624   6.42910   0.32204   0.00000   0.000E+00   0.000E+00   1.000E+00
  55  6.68786677   0.692  -0.72661   3.54610   6.43551   0.34140   0.00000   0.000E+00   0.000E+00   1.000E+00
  56  6.70012167   0.692  -0.73970   3.54596   6.44163   0.35987   0.00000   0.000E+00   0.000E+00   1.000E+00
  57  6.71204023   0.692  -0.75231   3.54584   6.44754   0.37772   0.00000   0.000E+00   0.000E+00   1.000E+00
  58  6.72364042   0.692  -0.76435   3.54573   6.45318   0.39479   0.00000   0.000E+00   0.000E+00   1.000E+00
  59  6.73493881   0.692  -0.77581   3.54563   6.45857   0.41108   0.00000   0.000E+00   0.000E+00   1.000E+00
  60  6.74595070   0.692  -0.78702   3.54553   6.46385   0.42703   0.00000   0.000E+00   0.000E+00   1.000E+00
  61  6.75669027   0.692  -0.79757   3.54545   6.46882   0.44206   0.00000   0.000E+00   0.000E+00   1.000E+00
  62  6.76717066   0.692  -0.80792   3.54537   6.47370   0.45682   0.00000   0.000E+00   0.000E+00   1.000E+00
  63  6.77740408   0.692  -0.81781   3.54529   6.47837   0.47094   0.00000   0.000E+00   0.000E+00   1.000E+00
  64  6.78740191   0.692  -0.82744   3.54521   6.48292   0.48470   0.00000   0.000E+00   0.000E+00   1.000E+00
  65  6.79717476   0.692  -0.83669   3.54515   6.48730   0.49794   0.00000   0.000E+00   0.000E+00   1.000E+00
  66  6.80673251   0.692  -0.84571   3.54509   6.49157   0.51087   0.00000   0.000E+00   0.000E+00   1.000E+00
  67  6.81608445   0.692  -0.85437   3.54503   6.49568   0.52330   0.00000   0.000E+00   0.000E+00   1.000E+00
  68  6.82523924   0.692  -0.86291   3.54497   6.49973   0.53555   0.00000   0.000E+00   0.000E+00   1.000E+00
  69  6.83420503   0.692  -0.87103   3.54492   6.50359   0.54721   0.00000   0.000E+00   0.000E+00   1.000E+00
  70  6.84298947   0.692  -0.87915   3.54486   6.50744   0.55887   0.00000   0.000E+00   0.000E+00   1.000E+00
  71  6.85159973   0.692  -0.88679   3.54482   6.51107   0.56986   0.00000   0.000E+00   0.000E+00   1.000E+00
  72  6.86004261   0.692  -0.89438   3.54477   6.51469   0.58079   0.00000   0.000E+00   0.000E+00   1.000E+00
  73  6.86832448   0.692  -0.90177   3.54472   6.51820   0.59142   0.00000   0.000E+00   0.000E+00   1.000E+00
  74  6.87645136   0.692  -0.90890   3.54468   6.52159   0.60167   0.00000   0.000E+00   0.000E+00   1.000E+00
  75  6.88442896   0.692  -0.91603   3.54464   6.52497   0.61193   0.00000   0.000E+00   0.000E+00   1.000E+00
  76  6.89226266   0.692  -0.92278   3.54460   6.52819   0.62166   0.00000   0.000E+00   0.000E+00   1.000E+00
  77  6.89995755   0.692  -0.92946   3.54456   6.53136   0.63128   0.00000   0.000E+00   0.000E+00   1.000E+00
  78  6.90751847   0.692  -0.93612   3.54452   6.53454   0.64089   0.00000   0.000E+00   0.000E+00   1.000E+00
  79  6.91495002   0.692  -0.94238   3.54448   6.53752   0.64992   0.00000   0.000E+00   0.000E+00   1.000E+00
  80  6.92225653   0.692  -0.94863   3.54445   6.54050   0.65894   0.00000   0.000E+00   0.000E+00   1.000E+00
  81  6.92944214   0.692  -0.95488   3.54441   6.54348   0.66796   0.00000   0.000E+00   0.000E+00   1.000E+00
  82  6.93651080   0.692  -0.96075   3.54438   6.54628   0.67643   0.00000   0.000E+00   0.000E+00   1.000E+00
  83  6.94346625   0.692  -0.96663   3.54434   6.54907   0.68491   0.00000   0.000E+00   0.000E+00   1.000E+00
  84  6.95031206   0.692  -0.97250   3.54431   6.55186   0.69338   0.00000   0.000E+00   0.000E+00   1.000E+00
  85  6.95705163   0.692  -0.97806   3.54428   6.55452   0.70142   0.00000   0.000E+00   0.000E+00   1.000E+00
  86  6.96368821   0.692  -0.98356   3.54425   6.55714   0.70937   0.00000   0.000E+00   0.000E+00   1.000E+00
  87  6.97022490   0.692  -0.98905   3.54422   6.55976   0.71731   0.00000   0.000E+00   0.000E+00   1.000E+00
  88  6.97666466   0.692  -0.99441   3.54419   6.56231   0.72505   0.00000   0.000E+00   0.000E+00   1.000E+00
  89  6.98301032   0.692  -0.99957   3.54416   6.56477   0.73251   0.00000   0.000E+00   0.000E+00   1.000E+00
  90  6.98926460   0.692  -1.00473   3.54413   6.56723   0.73996   0.00000   0.000E+00   0.000E+00   1.000E+00
  91  6.99543009   0.692  -1.00989   3.54410   6.56968   0.74741   0.00000   0.000E+00   0.000E+00   1.000E+00
  92  7.00150927   0.692  -1.01480   3.54407   6.57202   0.75450   0.00000   0.000E+00   0.000E+00   1.000E+00
  93  7.00750453   0.692  -1.01963   3.54404   6.57433   0.76149   0.00000   0.000E+00   0.000E+00   1.000E+00
  94  7.01341815   0.692  -1.02447   3.54402   6.57663   0.76848   0.00000   0.000E+00   0.000E+00   1.000E+00
  95  7.01925233   0.692  -1.02930   3.54399   6.57893   0.77547   0.00000   0.000E+00   0.000E+00   1.000E+00
  96  7.02500918   0.692  -1.03387   3.54397   6.58111   0.78207   0.00000   0.000E+00   0.000E+00   1.000E+00
  97  7.03069071   0.692  -1.03841   3.54394   6.58327   0.78862   0.00000   0.000E+00   0.000E+00   1.000E+00
  98  7.03629887   0.692  -1.04294   3.54391   6.58543   0.79518   0.00000   0.000E+00   0.000E+00   1.000E+00
  99  7.04183554   0.692  -1.04748   3.54389   6.58759   0.80173   0.00000   0.000E+00   0.000E+00   1.000E+00
 100  7.04730250   0.692  -1.05180   3.54386   6.58965   0.80798   0.00000   0.000E+00   0.000E+00   1.000E+00
 101  7.05270151   0.692  -1.05605   3.54384   6.59167   0.81413   0.00000   0.000E+00   0.000E+00   1.000E+00
 102  7.05803422   0.692  -1.06030   3.54382   6.59370   0.82028   0.00000   0.000E+00   0.000E+00   1.000E+00
 103  7.06330224   0.692  -1.06455   3.54379   6.59572   0.82643   0.00000   0.000E+00   0.000E+00   1.000E+00
 104  7.06850712   0.692  -1.06871   3.54377   6.59771   0.83244   0.00000   0.000E+00   0.000E+00   1.000E+00
 105  7.07365037   0.692  -1.07270   3.54375   6.59960   0.83821   0.00000   0.000E+00   0.000E+00   1.000E+00
 106  7.07873341   0.692  -1.07668   3.54373   6.60150   0.84398   0.00000   0.000E+00   0.000E+00   1.000E+00
 107  7.08375765   0.692  -1.08067   3.54370   6.60340   0.84975   0.00000   0.000E+00   0.000E+00   1.000E+00
 108  7.08872443   0.692  -1.08466   3.54368   6.60530   0.85552   0.00000   0.000E+00   0.000E+00   1.000E+00
 109  7.09363505   0.692  -1.08848   3.54366   6.60712   0.86105   0.00000   0.000E+00   0.000E+00   1.000E+00
 110  7.09849077   0.692  -1.09222   3.54364   6.60890   0.86646   0.00000   0.000E+00   0.000E+00   1.000E+00
 111  7.10329279   0.692  -1.09596   3.54362   6.61068   0.87186   0.00000   0.000E+00   0.000E+00   1.000E+00
 112  7.10804230   0.692  -1.09970   3.54360   6.61246   0.87727   0.00000   0.000E+00   0.000E+00   1.000E+00
 113  7.11274043   0.692  -1.10343   3.54358   6.61424   0.88268   0.00000   0.000E+00   0.000E+00   1.000E+00
 114  7.11738828   0.692  -1.10703   3.54356   6.61595   0.88787   0.00000   0.000E+00   0.000E+00   1.000E+00
 115  7.12198691   0.692  -1.11053   3.54354   6.61762   0.89294   0.00000   0.000E+00   0.000E+00   1.000E+00
 116  7.12653736   0.692  -1.11403   3.54352   6.61929   0.89801   0.00000   0.000E+00   0.000E+00   1.000E+00
 117  7.13104063   0.692  -1.11754   3.54350   6.62096   0.90308   0.00000   0.000E+00   0.000E+00   1.000E+00
 118  7.13549768   0.692  -1.12104   3.54347   6.62263   0.90815   0.00000   0.000E+00   0.000E+00   1.000E+00
 119  7.13990945   0.692  -1.12449   3.54345   6.62427   0.91313   0.00000   0.000E+00   0.000E+00   1.000E+00
 120  7.14427685   0.692  -1.12777   3.54344   6.62583   0.91788   0.00000   0.000E+00   0.000E+00   1.000E+00
 121  7.14860077   0.692  -1.13106   3.54342   6.62739   0.92263   0.00000   0.000E+00   0.000E+00   1.000E+00
 122  7.15288207   0.692  -1.13434   3.54340   6.62895   0.92738   0.00000   0.000E+00   0.000E+00   1.000E+00
 123  7.15712157   0.692  -1.13763   3.54338   6.63051   0.93213   0.00000   0.000E+00   0.000E+00   1.000E+00
 124  7.16132009   0.692  -1.14092   3.54336   6.63207   0.93688   0.00000   0.000E+00   0.000E+00   1.000E+00
 125  7.16547840   0.692  -1.14409   3.54334   6.63358   0.94146   0.00000   9.412E-05   0.000E+00   9.999E-01
 126  7.16959728   0.692  -1.14717   3.54332   6.63504   0.94591   0.00000   2.584E-04   0.000E+00   9.997E-01
 127  7.17367746   0.692  -1.15025   3.54330   6.63651   0.95037   0.00000   4.226E-04   0.000E+00   9.996E-01
 128  7.17771967   0.692  -1.15333   3.54329   6.63798   0.95482   0.00000   5.869E-04   0.000E+00   9.994E-01
 129  7.18172459   0.692  -1.15641   3.54327   6.63944   0.95927   0.00000   7.511E-04   0.000E+00   9.992E-01
 130  7.18569293   0.692  -1.15949   3.54325   6.64091   0.96373   0.00000   9.154E-04   0.000E+00   9.991E-01
 131  7.18962533   0.692  -1.16248   3.54323   6.64233   0.96805   0.00000   1.000E-03   0.000E+00   9.990E-01
 132  7.19352244   0.692  -1.16537   3.54321   6.64370   0.97222   0.00000   1.000E-03   0.000E+00   9.990E-01
 133  7.19738490   0.692  -1.16826   3.54319   6.64507   0.97640   0.00000   1.000E-03   0.000E+00   9.990E-01
 134  7.20121330   0.692  -1.17114   3.54318   6.64644   0.98057   0.00000   1.000E-03   0.000E+00   9.990E-01
 135  7.20500825   0.692  -1.17403   3.54316   6.64781   0.98475   0.00000   1.000E-03   0.000E+00   9.990E-01
 136  7.20877033   0.692  -1.17692   3.54314   6.64918   0.98892   0.00000   1.000E-03   0.000E+00   9.990E-01
 137  7.21250010   0.692  -1.17981   3.54312   6.65055   0.99310   0.00000   1.000E-03   0.000E+00   9.990E-01
 138  7.21619811   0.692  -1.18252   3.54310   6.65183   0.99702   0.00000   1.000E-03   0.000E+00   9.990E-01
 139  7.21986489   0.692  -1.18522   3.54309   6.65311   1.00094   0.00000   1.000E-03   0.000E+00   9.990E-01
 140  7.22350098   0.692  -1.18793   3.54307   6.65439   1.00486   0.00000   1.000E-03   0.000E+00   9.990E-01
 141  7.22710688   0.692  -1.19064   3.54305   6.65567   1.00878   0.00000   1.000E-03   0.000E+00   9.990E-01
 142  7.23068308   0.692  -1.19335   3.54303   6.65695   1.01270   0.00000   1.000E-03   0.000E+00   9.990E-01
 143  7.23423007   0.692  -1.19606   3.54302   6.65823   1.01662   0.00000   1.000E-03   0.000E+00   9.990E-01
 144  7.23774834   0.692  -1.19876   3.54300   6.65950   1.02053   0.00000   1.000E-03   0.000E+00   9.990E-01
 145  7.24123832   0.692  -1.20130   3.54298   6.66066   1.02424   0.00000   1.000E-03   0.000E+00   9.990E-01
 146  7.24470049   0.692  -1.20384   3.54297   6.66183   1.02795   0.00000   1.000E-03   0.000E+00   9.990E-01
 147  7.24813527   0.692  -1.20638   3.54295   6.66299   1.03166   0.00000   1.000E-03   0.000E+00   9.990E-01
 148  7.25154310   0.692  -1.20892   3.54293   6.66416   1.03538   0.00000   1.000E-03   0.000E+00   9.990E-01
 149  7.25492440   0.692  -1.21146   3.54292   6.66532   1.03909   0.00000   1.000E-03   0.000E+00   9.990E-01
 150  7.25827958   0.692  -1.21400   3.54290   6.66648   1.04280   0.00000   1.000E-03   0.000E+00   9.990E-01
 151  7.26160903   0.692  -1.21654   3.54289   6.66765   1.04651   0.00000   1.000E-03   0.000E+00   9.990E-01
 152  7.26491316   0.692  -1.21897   3.54287   6.66874   1.05009   0.00000   1.087E-03   0.000E+00   9.989E-01
 153  7.26819233   0.692  -1.22135   3.54285   6.66981   1.05361   0.00000   1.214E-03   0.000E+00   9.988E-01
 154  7.27144693   0.692  -1.22373   3.54284   6.67087   1.05712   0.00000   1.341E-03   0.000E+00   9.987E-01
 155  7.27467732   0.692  -1.22611   3.54282   6.67193   1.06064   0.00000   1.468E-03   0.000E+00   9.985E-01
 156  7.27788387   0.692  -1.22849   3.54281   6.67300   1.06415   0.00000   1.595E-03   0.000E+00   9.984E-01
 157  7.28106691   0.692  -1.23087   3.54279   6.67406   1.06767   0.00000   1.722E-03   0.000E+00   9.983E-01
 158  7.28422679   0.692  -1.23324   3.54278   6.67513   1.07119   0.00000   1.849E-03   0.000E+00   9.982E-01
 159  7.28736384   0.692  -1.23562   3.54276   6.67619   1.07470   0.00000   1.976E-03   0.000E+00   9.980E-01
 160  7.29047840   0.692  -1.23788   3.54275   6.67718   1.07807   0.00000   2.000E-03   0.000E+00   9.980E-01
 161  7.29357078   0.692  -1.24011   3.54273   6.67815   1.08140   0.00000   2.000E-03   0.000E+00   9.980E-01
 162  7.29664129   0.692  -1.24234   3.54272   6.67912   1.08473   0.00000   2.000E-03   0.000E+00   9.980E-01
 163  7.29969025   0.692  -1.24458   3.54271   6.68010   1.08806   0.00000   2.000E-03   0.000E+00   9.980E-01
 164  7.30271796   0.692  -1.24681   3.54269   6.68107   1.09139   0.00000   2.000E-03   0.000E+00   9.980E-01
 165  7.30572470   0.692  -1.24904   3.54268   6.68204   1.09472   0.00000   2.000E-03   0.000E+00   9.980E-01
 166  7.30871077   0.692  -1.25127   3.54266   6.68301   1.09806   0.00000   2.000E-03   0.000E+00   9.980E-01
 167  7.31167645   0.692  -1.25350   3.54265   6.68398   1.10139   0.00000   2.000E-03   0.000E+00   9.980E-01
 168  7.31462201   0.692  -1.25567   3.54263   6.68492   1.10465   0.00000   2.045E-03   0.000E+00   9.980E-01
 169  7.31754773   0.692  -1.25776   3.54262   6.68581   1.10780   0.00000   2.157E-03   0.000E+00   9.978E-01
 170  7.32045387   0.692  -1.25985   3.54261   6.68671   1.11096   0.00000   2.269E-03   0.000E+00   9.977E-01
 171  7.32334070   0.692  -1.26194   3.54259   6.68760   1.11412   0.00000   2.380E-03   0.000E+00   9.976E-01
 172  7.32620846   0.692  -1.26402   3.54258   6.68849   1.11727   0.00000   2.492E-03   0.000E+00   9.975E-01
 173  7.32905741   0.692  -1.26611   3.54257   6.68938   1.12043   0.00000   2.603E-03   0.000E+00   9.974E-01
 174  7.33188779   0.692  -1.26820   3.54255   6.69027   1.12359   0.00000   2.715E-03   0.000E+00   9.973E-01
 175  7.33469984   0.692  -1.27029   3.54254   6.69116   1.12674   0.00000   2.826E-03   0.000E+00   9.972E-01
 176  7.33749381   0.692  -1.27238   3.54253   6.69205   1.12990   0.00000   2.938E-03   0.000E+00   9.971E-01
 177  7.34026991   0.692  -1.27441   3.54251   6.69291   1.13298   0.00000   3.000E-03   0.000E+00   9.970E-01
 178  7.34302838   0.692  -1.27636   3.54250   6.69373   1.13598   0.00000   3.000E-03   0.000E+00   9.970E-01
 179  7.34576945   0.692  -1.27832   3.54249   6.69455   1.13897   0.00000   3.000E-03   0.000E+00   9.970E-01
 180  7.34849331   0.692  -1.28027   3.54247   6.69537   1.14196   0.00000   3.000E-03   0.000E+00   9.970E-01
 181  7.35120021   0.692  -1.28223   3.54246   6.69619   1.14495   0.00000   3.000E-03   0.000E+00   9.970E-01
 182  7.35389033   0.692  -1.28418   3.54245   6.69701   1.14794   0.00000   3.000E-03   0.000E+00   9.970E-01
 183  7.35656390   0.692  -1.28614   3.54243   6.69782   1.15093   0.00000   3.000E-03   0.000E+00   9.970E-01
 184  7.35922110   0.692  -1.28809   3.54242   6.69864   1.15392   0.00000   3.000E-03   0.000E+00   9.970E-01
 185  7.36186215   0.692  -1.29005   3.54241   6.69946   1.15691   0.00000   3.000E-03   0.000E+00   9.970E-01
 186  7.36448723   0.692  -1.29201   3.54239   6.70028   1.15991   0.00000   3.000E-03   0.000E+00   9.970E-01
 187  7.36709654   0.692  -1.29385   3.54238   6.70104   1.16276   0.00000   3.085E-03   0.000E+00   9.969E-01
 188  7.36969027   0.692  -1.29568   3.54237   6.70179   1.16559   0.00000   3.182E-03   0.000E+00   9.968E-01
 189  7.37226860   0.692  -1.29750   3.54236   6.70255   1.16843   0.00000   3.280E-03   0.000E+00   9.967E-01
 190  7.37483171   0.692  -1.29933   3.54234   6.70330   1.17126   0.00000   3.378E-03   0.000E+00   9.966E-01
 191  7.37737979   0.692  -1.30116   3.54233   6.70405   1.17409   0.00000   3.476E-03   0.000E+00   9.965E-01
 192  7.37991300   0.692  -1.30298   3.54232   6.70480   1.17692   0.00000   3.573E-03   0.000E+00   9.964E-01
 193  7.38243152   0.692  -1.30481   3.54231   6.70556   1.17976   0.00000   3.671E-03   0.000E+00   9.963E-01
 194  7.38493552   0.692  -1.30664   3.54230   6.70631   1.18259   0.00000   3.769E-03   0.000E+00   9.962E-01
 195  7.38742516   0.692  -1.30847   3.54229   6.70706   1.18542   0.00000   3.867E-03   0.000E+00   9.961E-01
 196  7.38990062   0.692  -1.31029   3.54227   6.70782   1.18826   0.00000   3.964E-03   0.000E+00   9.960E-01
 197  7.39236204   0.692  -1.31204   3.54226   6.70853   1.19099   0.00000   4.058E-03   0.000E+00   9.959E-01
 198  7.39480959   0.692  -1.31375   3.54225   6.70922   1.19368   0.00000   4.149E-03   0.000E+00   9.959E-01
 199  7.39724343   0.692  -1.31546   3.54224   6.70992   1.19636   0.00000   4.241E-03   0.000E+00   9.958E-01
 200  7.39966370   0.692  -1.31717   3.54223   6.71061   1.19905   0.00000   4.332E-03   0.000E+00   9.957E-01
 201  7.40207056   0.692  -1.31888   3.54221   6.71130   1.20173   0.00000   4.423E-03   0.000E+00   9.956E-01
 202  7.40446416   0.692  -1.32059   3.54220   6.71200   1.20442   0.00000   4.515E-03   0.000E+00   9.955E-01
 203  7.40684463   0.692  -1.32230   3.54219   6.71269   1.20710   0.00000   4.606E-03   0.000E+00   9.954E-01
 204  7.40921213   0.692  -1.32400   3.54218   6.71338   1.20978   0.00000   4.698E-03   0.000E+00   9.953E-01
 205  7.41156679   0.692  -1.32571   3.54217   6.71408   1.21247   0.00000   4.789E-03   0.000E+00   9.952E-01
 206  7.41390875   0.692  -1.32742   3.54216   6.71477   1.21515   0.00000   4.880E-03   0.000E+00   9.951E-01
 207  7.41623815   0.692  -1.32913   3.54214   6.71546   1.21784   0.00000   4.972E-03   0.000E+00   9.950E-01
 208  7.41855513   0.692  -1.33076   3.54213   6.71612   1.22042   0.00000   5.059E-03   0.000E+00   9.949E-01
 209  7.42085981   0.692  -1.33235   3.54212   6.71676   1.22296   0.00000   5.144E-03   0.000E+00   9.949E-01
 210  7.42315232   0.692  -1.33394   3.54211   6.71740   1.22550   0.00000   5.230E-03   0.000E+00   9.948E-01
 211  7.42543279   0.692  -1.33554   3.54211   6.71804   1.22805   0.00000   5.315E-03   0.000E+00   9.947E-01
 212  7.42770136   0.692  -1.33713   3.54210   6.71868   1.23059   0.00000   5.401E-03   0.000E+00   9.946E-01
 213  7.42995813   0.692  -1.33872   3.54209   6.71932   1.23313   0.00000   5.486E-03   0.000E+00   9.945E-01
 214  7.43220324   0.692  -1.34032   3.54208   6.71995   1.23567   0.00000   5.571E-03   0.000E+00   9.944E-01
 215  7.43443680   0.692  -1.34191   3.54207   6.72059   1.23821   0.00000   5.657E-03   0.000E+00   9.943E-01
 216  7.43665893   0.692  -1.34350   3.54206   6.72123   1.24075   0.00000   5.742E-03   0.000E+00   9.943E-01
 217  7.43886976   0.692  -1.34510   3.54205   6.72187   1.24329   0.00000   5.828E-03   0.000E+00   9.942E-01
 218  7.44106938   0.692  -1.34669   3.54204   6.72251   1.24583   0.00000   5.913E-03   0.000E+00   9.941E-01
 219  7.44325792   0.692  -1.34828   3.54203   6.72315   1.24837   0.00000   5.998E-03   0.000E+00   9.940E-01
 220  7.44543548   0.692  -1.34977   3.54202   6.72374   1.25078   0.00000   6.156E-03   0.000E+00   9.938E-01
 221  7.44760219   0.692  -1.35125   3.54201   6.72433   1.25319   0.00000   6.316E-03   0.000E+00   9.937E-01
 222  7.44975813   0.692  -1.35274   3.54200   6.72492   1.25559   0.00000   6.475E-03   0.000E+00   9.935E-01
 223  7.45190343   0.692  -1.35422   3.54200   6.72551   1.25800   0.00000   6.634E-03   0.000E+00   9.934E-01
 224  7.45403818   0.692  -1.35571   3.54199   6.72610   1.26040   0.00000   6.794E-03   0.000E+00   9.932E-01
 225  7.45616249   0.692  -1.35719   3.54198   6.72670   1.26281   0.00000   6.953E-03   0.000E+00   9.930E-01
 226  7.45827645   0.692  -1.35868   3.54197   6.72729   1.26522   0.00000   7.112E-03   0.000E+00   9.929E-01
 227  7.46038018   0.692  -1.36016   3.54196   6.72788   1.26762   0.00000   7.272E-03   0.000E+00   9.927E-01
 228  7.46247377   0.692  -1.36165   3.54195   6.72847   1.27003   0.00000   7.431E-03   0.000E+00   9.926E-01
 229  7.46455731   0.692  -1.36313   3.54194   6.72906   1.27243   0.00000   7.590E-03   0.000E+00   9.924E-01
 230  7.46663091   0.692  -1.36462   3.54193   6.72965   1.27484   0.00000   7.750E-03   0.000E+00   9.923E-01
 231  7.46869465   0.692  -1.36610   3.54193   6.73024   1.27724   0.00000   7.909E-03   0.000E+00   9.921E-01
 232  7.47074863   0.692  -1.36754   3.54192   6.73081   1.27959   0.00000   8.064E-03   0.000E+00   9.919E-01
 233  7.47279294   0.692  -1.36892   3.54191   6.73136   1.28187   0.00000   8.212E-03   0.000E+00   9.918E-01
 234  7.47482768   0.692  -1.37030   3.54190   6.73190   1.28415   0.00000   8.360E-03   0.000E+00   9.916E-01
 235  7.47685292   0.692  -1.37168   3.54189   6.73245   1.28642   0.00000   8.509E-03   0.000E+00   9.915E-01
 236  7.47886877   0.692  -1.37306   3.54188   6.73300   1.28870   0.00000   8.657E-03   0.000E+00   9.913E-01
 237  7.48087530   0.692  -1.37445   3.54188   6.73354   1.29098   0.00000   8.806E-03   0.000E+00   9.912E-01
 238  7.48287260   0.692  -1.37583   3.54187   6.73409   1.29325   0.00000   8.954E-03   0.000E+00   9.910E-01
 239  7.48486076   0.692  -1.37721   3.54186   6.73463   1.29553   0.00000   9.103E-03   0.000E+00   9.909E-01
 240  7.48683986   0.692  -1.37859   3.54185   6.73518   1.29780   0.00000   9.251E-03   0.000E+00   9.907E-01
 241  7.48880998   0.692  -1.37997   3.54184   6.73572   1.30008   0.00000   9.400E-03   0.000E+00   9.906E-01
 242  7.49077121   0.692  -1.38135   3.54183   6.73627   1.30236   0.00000   9.548E-03   0.000E+00   9.905E-01
 243  7.49272362   0.692  -1.38273   3.54183   6.73682   1.30463   0.00000   9.697E-03   0.000E+00   9.903E-01
 244  7.49466729   0.692  -1.38411   3.54182   6.73736   1.30691   0.00000   9.845E-03   0.000E+00   9.902E-01
 245  7.49660230   0.692  -1.38549   3.54181   6.73791   1.30919   0.00000   9.994E-03   0.000E+00   9.900E-01
 246  7.49852872   0.692  -1.38678   3.54180   6.73842   1.31134   0.00000   1.020E-02   0.000E+00   9.898E-01
 247  7.50044664   0.692  -1.38806   3.54180   6.73892   1.31350   0.00000   1.041E-02   0.000E+00   9.896E-01
 248  7.50235613   0.692  -1.38934   3.54179   6.73943   1.31565   0.00000   1.061E-02   0.000E+00   9.894E-01
 249  7.50425726   0.692  -1.39062   3.54179   6.73993   1.31780   0.00000   1.082E-02   0.000E+00   9.892E-01
 250  7.50615010   0.692  -1.39191   3.54178   6.74044   1.31995   0.00000   1.103E-02   0.000E+00   9.890E-01
 251  7.50803473   0.692  -1.39319   3.54178   6.74095   1.32211   0.00000   1.123E-02   0.000E+00   9.888E-01
 252  7.50991121   0.692  -1.39447   3.54177   6.74145   1.32426   0.00000   1.144E-02   0.000E+00   9.886E-01
 253  7.51177962   0.692  -1.39575   3.54177   6.74196   1.32641   0.00000   1.165E-02   0.000E+00   9.884E-01
 254  7.51364003   0.692  -1.39703   3.54176   6.74246   1.32856   0.00000   1.186E-02   0.000E+00   9.881E-01
 255  7.51549251   0.692  -1.39831   3.54175   6.74297   1.33072   0.00000   1.206E-02   0.000E+00   9.879E-01
 256  7.51733711   0.692  -1.39959   3.54175   6.74348   1.33287   0.00000   1.227E-02   0.000E+00   9.877E-01
 257  7.51917391   0.692  -1.40088   3.54174   6.74398   1.33502   0.00000   1.248E-02   0.000E+00   9.875E-01
 258  7.52100298   0.692  -1.40216   3.54174   6.74449   1.33717   0.00000   1.268E-02   0.000E+00   9.873E-01
 259  7.52282438   0.692  -1.40344   3.54173   6.74500   1.33932   0.00000   1.289E-02   0.000E+00   9.871E-01
 260  7.52463817   0.692  -1.40468   3.54173   6.74548   1.34142   0.00000   1.309E-02   0.000E+00   9.869E-01
 261  7.52644441   0.692  -1.40586   3.54172   6.74595   1.34345   0.00000   1.329E-02   0.000E+00   9.867E-01
 262  7.52824318   0.692  -1.40705   3.54172   6.74642   1.34548   0.00000   1.348E-02   0.000E+00   9.865E-01
 263  7.53003452   0.692  -1.40824   3.54171   6.74689   1.34751   0.00000   1.367E-02   0.000E+00   9.863E-01
 264  7.53181851   0.692  -1.40942   3.54171   6.74736   1.34955   0.00000   1.387E-02   0.000E+00   9.861E-01
 265  7.53359520   0.692  -1.41061   3.54170   6.74783   1.35158   0.00000   1.406E-02   0.000E+00   9.859E-01
 266  7.53536464   0.692  -1.41180   3.54170   6.74830   1.35361   0.00000   1.425E-02   0.000E+00   9.857E-01
 267  7.53712691   0.692  -1.41299   3.54169   6.74877   1.35564   0.00000   1.444E-02   0.000E+00   9.856E-01
 268  7.53888206   0.692  -1.41417   3.54169   6.74923   1.35767   0.00000   1.464E-02   0.000E+00   9.854E-01
 269  7.54063014   0.692  -1.41536   3.54168   6.74970   1.35970   0.00000   1.483E-02   0.000E+00   9.852E-01
 270  7.54237122   0.692  -1.41655   3.54168   6.75017   1.36173   0.00000   1.502E-02   0.000E+00   9.850E-01
 271  7.54410534   0.692  -1.41773   3.54167   6.75064   1.36377   0.00000   1.522E-02   0.000E+00   9.848E-01
 272  7.54583257   0.692  -1.41892   3.54167   6.75111   1.36580   0.00000   1.541E-02   0.000E+00   9.846E-01
 273  7.54755295   0.692  -1.42011   3.54166   6.75158   1.36783   0.00000   1.560E-02   0.000E+00   9.844E-01
 274  7.54926655   0.692  -1.42130   3.54166   6.75205   1.36986   0.00000   1.580E-02   0.000E+00   9.842E-01
 275  7.55097341   0.692  -1.42248   3.54165   6.75252   1.37189   0.00000   1.599E-02   0.000E+00   9.840E-01
 276  7.55267359   0.692  -1.42358   3.54165   6.75295   1.37381   0.00000   1.623E-02   0.000E+00   9.838E-01
 277  7.55436714   0.692  -1.42468   3.54165   6.75339   1.37573   0.00000   1.647E-02   0.000E+00   9.835E-01
 278  7.55605411   0.692  -1.42577   3.54164   6.75383   1.37765   0.00000   1.672E-02   0.000E+00   9.833E-01
 279  7.55773455   0.692  -1.42687   3.54164   6.75426   1.37956   0.00000   1.696E-02   0.000E+00   9.830E-01
 280  7.55940852   0.692  -1.42796   3.54164   6.75470   1.38148   0.00000   1.720E-02   0.000E+00   9.828E-01
 281  7.56107605   0.692  -1.42906   3.54164   6.75513   1.38340   0.00000   1.744E-02   0.000E+00   9.826E-01
 282  7.56273721   0.692  -1.43016   3.54163   6.75557   1.38531   0.00000   1.769E-02   0.000E+00   9.823E-01
 283  7.56439204   0.692  -1.43125   3.54163   6.75600   1.38723   0.00000   1.793E-02   0.000E+00   9.821E-01
 284  7.56604059   0.692  -1.43235   3.54163   6.75644   1.38914   0.00000   1.817E-02   0.000E+00   9.818E-01
 285  7.56768291   0.692  -1.43344   3.54163   6.75687   1.39106   0.00000   1.841E-02   0.000E+00   9.816E-01
 286  7.56931904   0.692  -1.43454   3.54162   6.75731   1.39298   0.00000   1.866E-02   0.000E+00   9.813E-01
 287  7.57094902   0.692  -1.43563   3.54162   6.75775   1.39489   0.00000   1.890E-02   0.000E+00   9.811E-01
 288  7.57257292   0.692  -1.43673   3.54162   6.75818   1.39681   0.00000   1.914E-02   0.000E+00   9.809E-01
 289  7.57419076   0.692  -1.43783   3.54162   6.75862   1.39873   0.00000   1.939E-02   0.000E+00   9.806E-01
 290  7.57580260   0.692  -1.43892   3.54161   6.75905   1.40064   0.00000   1.963E-02   0.000E+00   9.804E-01
 291  7.57740847   0.692  -1.44002   3.54161   6.75949   1.40256   0.00000   1.987E-02   0.000E+00   9.801E-01
 292  7.57900844   0.692  -1.44107   3.54161   6.75991   1.40442   0.00000   2.013E-02   0.000E+00   9.799E-01
 293  7.58060253   0.692  -1.44208   3.54161   6.76032   1.40623   0.00000   2.042E-02   0.000E+00   9.796E-01
 294  7.58219079   0.692  -1.44310   3.54161   6.76072   1.40804   0.00000   2.070E-02   0.000E+00   9.793E-01
 295  7.58377326   0.692  -1.44411   3.54160   6.76113   1.40984   0.00000   2.099E-02   0.000E+00   9.790E-01
 296  7.58534999   0.692  -1.44512   3.54160   6.76153   1.41165   0.00000   2.127E-02   0.000E+00   9.787E-01
 297  7.58692101   0.692  -1.44613   3.54160   6.76194   1.41346   0.00000   2.156E-02   0.000E+00   9.784E-01
 298  7.58848637   0.692  -1.44714   3.54160   6.76234   1.41527   0.00000   2.185E-02   0.000E+00   9.782E-01
 299  7.59004611   0.692  -1.44816   3.54160   6.76275   1.41707   0.00000   2.213E-02   0.000E+00   9.779E-01
 300  7.59160027   0.692  -1.44917   3.54160   6.76316   1.41888   0.00000   2.242E-02   0.000E+00   9.776E-01
 301  7.59314888   0.692  -1.45018   3.54159   6.76356   1.42069   0.00000   2.270E-02   0.000E+00   9.773E-01
 302  7.59469199   0.692  -1.45119   3.54159   6.76397   1.42249   0.00000   2.299E-02   0.000E+00   9.770E-01
 303  7.59622964   0.692  -1.45220   3.54159   6.76437   1.42430   0.00000   2.327E-02   0.000E+00   9.767E-01
 304  7.59776187   0.692  -1.45321   3.54159   6.76478   1.42611   0.00000   2.356E-02   0.000E+00   9.764E-01
 305  7.59928871   0.692  -1.45423   3.54159   6.76518   1.42791   0.00000   2.384E-02   0.000E+00   9.762E-01
 306  7.60081019   0.692  -1.45524   3.54159   6.76559   1.42972   0.00000   2.413E-02   0.000E+00   9.759E-01
 307  7.60232637   0.692  -1.45625   3.54158   6.76600   1.43153   0.00000   2.441E-02   0.000E+00   9.756E-01
 308  7.60383727   0.692  -1.45726   3.54158   6.76640   1.43333   0.00000   2.470E-02   0.000E+00   9.753E-01
 309  7.60534294   0.692  -1.45827   3.54158   6.76681   1.43514   0.00000   2.498E-02   0.000E+00   9.750E-01
 310  7.60684340   0.692  -1.45921   3.54158   6.76719   1.43685   0.00000   2.530E-02   0.000E+00   9.747E-01
 311  7.60833870   0.692  -1.46014   3.54158   6.76757   1.43855   0.00000   2.563E-02   0.000E+00   9.744E-01
 312  7.60982886   0.692  -1.46107   3.54158   6.76794   1.44025   0.00000   2.595E-02   0.000E+00   9.741E-01
 313  7.61131393   0.692  -1.46200   3.54158   6.76832   1.44195   0.00000   2.627E-02   0.000E+00   9.737E-01
 314  7.61279394   0.692  -1.46293   3.54158   6.76870   1.44366   0.00000   2.659E-02   0.000E+00   9.734E-01
 315  7.61426892   0.692  -1.46387   3.54158   6.76908   1.44536   0.00000   2.692E-02   0.000E+00   9.731E-01
 316  7.61573891   0.692  -1.46480   3.54158   6.76946   1.44706   0.00000   2.724E-02   0.000E+00   9.728E-01
 317  7.61720394   0.692  -1.46573   3.54158   6.76984   1.44876   0.00000   2.756E-02   0.000E+00   9.724E-01
 318  7.61866405   0.692  -1.46666   3.54158   6.77022   1.45047   0.00000   2.788E-02   0.000E+00   9.721E-01
 319  7.62011926   0.692  -1.46759   3.54159   6.77059   1.45217   0.00000   2.820E-02   0.000E+00   9.718E-01
 320  7.62156961   0.692  -1.46852   3.54159   6.77097   1.45387   0.00000   2.853E-02   0.000E+00   9.715E-01
 321  7.62301514   0.692  -1.46945   3.54159   6.77135   1.45557   0.00000   2.885E-02   0.000E+00   9.712E-01
 322  7.62445587   0.692  -1.47038   3.54159   6.77173   1.45727   0.00000   2.917E-02   0.000E+00   9.708E-01
 323  7.62589184   0.692  -1.47131   3.54159   6.77211   1.45898   0.00000   2.949E-02   0.000E+00   9.705E-01
 324  7.62732307   0.692  -1.47225   3.54159   6.77249   1.46068   0.00000   2.981E-02   0.000E+00   9.702E-01
 325  7.62874960   0.692  -1.47318   3.54159   6.77287   1.46238   0.00000   3.014E-02   0.000E+00   9.699E-01
 326  7.63017147   0.692  -1.47411   3.54159   6.77324   1.46408   0.00000   3.046E-02   0.000E+00   9.695E-01
 327  7.63158869   0.692  -1.47504   3.54159   6.77362   1.46579   0.00000   3.078E-02   0.000E+00   9.692E-01
 328  7.63300130   0.692  -1.47595   3.54159   6.77399   1.46745   0.00000   3.111E-02   0.000E+00   9.689E-01
 329  7.63440934   0.692  -1.47680   3.54159   6.77435   1.46905   0.00000   3.147E-02   0.000E+00   9.685E-01
 330  7.63581282   0.692  -1.47766   3.54159   6.77470   1.47065   0.00000   3.182E-02   0.000E+00   9.682E-01
 331  7.63721178   0.692  -1.47852   3.54160   6.77505   1.47225   0.00000   3.217E-02   0.000E+00   9.678E-01
 332  7.63860625   0.692  -1.47937   3.54160   6.77541   1.47385   0.00000   3.253E-02   0.000E+00   9.675E-01
 333  7.63999626   0.692  -1.48023   3.54160   6.77576   1.47544   0.00000   3.288E-02   0.000E+00   9.671E-01
 334  7.64138183   0.692  -1.48109   3.54160   6.77611   1.47704   0.00000   3.324E-02   0.000E+00   9.668E-01
 335  7.64276299   0.692  -1.48194   3.54160   6.77646   1.47864   0.00000   3.359E-02   0.000E+00   9.664E-01
 336  7.64413978   0.692  -1.48280   3.54160   6.77682   1.48024   0.00000   3.394E-02   0.000E+00   9.661E-01
 337  7.64551222   0.692  -1.48366   3.54160   6.77717   1.48184   0.00000   3.430E-02   0.000E+00   9.657E-01
 338  7.64688033   0.692  -1.48451   3.54161   6.77752   1.48343   0.00000   3.465E-02   0.000E+00   9.654E-01
 339  7.64824415   0.692  -1.48537   3.54161   6.77788   1.48503   0.00000   3.500E-02   0.000E+00   9.650E-01
 340  7.64960370   0.692  -1.48622   3.54161   6.77823   1.48663   0.00000   3.536E-02   0.000E+00   9.646E-01
 341  7.65095900   0.692  -1.48708   3.54161   6.77858   1.48823   0.00000   3.571E-02   0.000E+00   9.643E-01
 342  7.65231009   0.692  -1.48794   3.54161   6.77894   1.48983   0.00000   3.606E-02   0.000E+00   9.639E-01
 343  7.65365699   0.692  -1.48879   3.54161   6.77929   1.49142   0.00000   3.642E-02   0.000E+00   9.636E-01
 344  7.65499972   0.692  -1.48965   3.54161   6.77964   1.49302   0.00000   3.677E-02   0.000E+00   9.632E-01
 345  7.65633831   0.692  -1.49051   3.54162   6.78000   1.49462   0.00000   3.712E-02   0.000E+00   9.629E-01
 346  7.65767280   0.692  -1.49136   3.54162   6.78035   1.49622   0.00000   3.748E-02   0.000E+00   9.625E-01
 347  7.65900319   0.692  -1.49222   3.54162   6.78070   1.49782   0.00000   3.783E-02   0.000E+00   9.622E-01
 348  7.66032952   0.692  -1.49304   3.54162   6.78104   1.49936   0.00000   3.822E-02   0.000E+00   9.618E-01
 349  7.66165181   0.692  -1.49383   3.54162   6.78137   1.50087   0.00000   3.865E-02   0.000E+00   9.614E-01
 350  7.66297009   0.692  -1.49461   3.54163   6.78171   1.50237   0.00000   3.908E-02   0.000E+00   9.609E-01
 351  7.66428438   0.692  -1.49540   3.54163   6.78204   1.50387   0.00000   3.950E-02   0.000E+00   9.605E-01
 352  7.66559471   0.692  -1.49618   3.54163   6.78237   1.50537   0.00000   3.993E-02   0.000E+00   9.601E-01
 353  7.66690109   0.692  -1.49697   3.54164   6.78270   1.50687   0.00000   4.036E-02   0.000E+00   9.596E-01
 354  7.66820355   0.692  -1.49775   3.54164   6.78303   1.50837   0.00000   4.078E-02   0.000E+00   9.592E-01
 355  7.66950212   0.692  -1.49854   3.54164   6.78336   1.50988   0.00000   4.121E-02   0.000E+00   9.588E-01
 356  7.67079682   0.692  -1.49932   3.54164   6.78369   1.51138   0.00000   4.164E-02   0.000E+00   9.584E-01
 357  7.67208767   0.692  -1.50011   3.54165   6.78402   1.51288   0.00000   4.206E-02   0.000E+00   9.579E-01
 358  7.67337470   0.692  -1.50089   3.54165   6.78436   1.51438   0.00000   4.249E-02   0.000E+00   9.575E-01
 359  7.67465792   0.692  -1.50168   3.54165   6.78469   1.51588   0.00000   4.292E-02   0.000E+00   9.571E-01
 360  7.67593736   0.692  -1.50246   3.54166   6.78502   1.51738   0.00000   4.334E-02   0.000E+00   9.567E-01
 361  7.67721305   0.692  -1.50325   3.54166   6.78535   1.51888   0.00000   4.377E-02   0.000E+00   9.562E-01
 362  7.67848499   0.692  -1.50404   3.54166   6.78568   1.52039   0.00000   4.419E-02   0.000E+00   9.558E-01
 363  7.67975323   0.692  -1.50482   3.54166   6.78601   1.52189   0.00000   4.462E-02   0.000E+00   9.554E-01
 364  7.68101777   0.692  -1.50561   3.54167   6.78634   1.52339   0.00000   4.505E-02   0.000E+00   9.550E-01
 365  7.68227864   0.692  -1.50639   3.54167   6.78668   1.52489   0.00000   4.547E-02   0.000E+00   9.545E-01
 366  7.68353586   0.692  -1.50718   3.54167   6.78701   1.52639   0.00000   4.590E-02   0.000E+00   9.541E-01
 367  7.68478945   0.692  -1.50796   3.54168   6.78734   1.52789   0.00000   4.633E-02   0.000E+00   9.537E-01
 368  7.68603943   0.692  -1.50875   3.54168   6.78767   1.52940   0.00000   4.675E-02   0.000E+00   9.532E-01
 369  7.68728582   0.692  -1.50950   3.54168   6.78799   1.53086   0.00000   4.721E-02   0.000E+00   9.528E-01
 370  7.68852865   0.692  -1.51022   3.54169   6.78830   1.53226   0.00000   4.770E-02   0.000E+00   9.523E-01
 371  7.68976793   0.692  -1.51094   3.54169   6.78861   1.53367   0.00000   4.819E-02   0.000E+00   9.518E-01
 372  7.69100369   0.692  -1.51166   3.54169   6.78893   1.53508   0.00000   4.868E-02   0.000E+00   9.513E-01
 373  7.69223594   0.692  -1.51238   3.54170   6.78924   1.53649   0.00000   4.917E-02   0.000E+00   9.508E-01
 374  7.69346470   0.692  -1.51310   3.54170   6.78955   1.53789   0.00000   4.966E-02   0.000E+00   9.503E-01
 375  7.69468999   0.692  -1.51382   3.54171   6.78986   1.53930   0.00000   5.015E-02   0.000E+00   9.498E-01
 376  7.69591184   0.692  -1.51454   3.54171   6.79017   1.54071   0.00000   5.064E-02   0.000E+00   9.494E-01
 377  7.69713026   0.692  -1.51526   3.54171   6.79048   1.54212   0.00000   5.113E-02   0.000E+00   9.489E-01
 378  7.69834528   0.692  -1.51597   3.54172   6.79079   1.54352   0.00000   5.162E-02   0.000E+00   9.484E-01
 379  7.69955690   0.692  -1.51669   3.54172   6.79110   1.54493   0.00000   5.211E-02   0.000E+00   9.479E-01
 380  7.70076515   0.692  -1.51741   3.54173   6.79142   1.54634   0.00000   5.260E-02   0.000E+00   9.474E-01
 381  7.70197005   0.692  -1.51813   3.54173   6.79173   1.54775   0.00000   5.309E-02   0.000E+00   9.469E-01
 382  7.70317161   0.692  -1.51885   3.54173   6.79204   1.54915   0.00000   5.359E-02   0.000E+00   9.464E-01
 383  7.70436986   0.692  -1.51957   3.54174   6.79235   1.55056   0.00000   5.408E-02   0.000E+00   9.459E-01
 384  7.70556482   0.692  -1.52029   3.54174   6.79266   1.55197   0.00000   5.457E-02   0.000E+00   9.454E-01
 385  7.70675649   0.692  -1.52101   3.54175   6.79297   1.55338   0.00000   5.506E-02   0.000E+00   9.449E-01
 386  7.70794490   0.692  -1.52173   3.54175   6.79328   1.55478   0.00000   5.555E-02   0.000E+00   9.445E-01
 387  7.70913007   0.692  -1.52244   3.54175   6.79359   1.55619   0.00000   5.604E-02   0.000E+00   9.440E-01
 388  7.71031202   0.692  -1.52316   3.54176   6.79391   1.55760   0.00000   5.653E-02   0.000E+00   9.435E-01
 389  7.71149076   0.692  -1.52388   3.54176   6.79422   1.55901   0.00000   5.702E-02   0.000E+00   9.430E-01
 390  7.71266630   0.692  -1.52460   3.54177   6.79453   1.56041   0.00000   5.751E-02   0.000E+00   9.425E-01
 391  7.71383868   0.692  -1.52532   3.54177   6.79484   1.56182   0.00000   5.800E-02   0.000E+00   9.420E-01
 392  7.72828747   0.692  -1.53357   3.54183   6.79851   1.57836   0.00000   6.430E-02   0.000E+00   9.357E-01
 393  7.74227099   0.692  -1.54174   3.54190   6.80216   1.59481   0.00000   7.070E-02   0.000E+00   9.293E-01
 394  7.75581827   0.692  -1.54923   3.54198   6.80558   1.61027   0.00000   7.808E-02   0.000E+00   9.219E-01
 395  7.76895572   0.692  -1.55668   3.54206   6.80898   1.62567   0.00000   8.555E-02   0.000E+00   9.144E-01
 396  7.78170740   0.692  -1.56348   3.54214   6.81221   1.64001   0.00000   9.429E-02   0.000E+00   9.057E-01
 397  7.79409532   0.692  -1.57028   3.54223   6.81544   1.65436   0.00000   1.030E-01   0.000E+00   8.970E-01
 398  7.80613967   0.692  -1.57647   3.54233   6.81851   1.66772   0.00000   1.124E-01   0.000E+00   8.876E-01
 399  7.81785897   0.692  -1.58259   3.54243   6.82155   1.68096   0.00000   1.218E-01   0.000E+00   8.782E-01
 400  7.82927033   0.692  -1.58837   3.54253   6.82450   1.69359   0.00000   1.319E-01   0.000E+00   8.681E-01
 401  7.84038951   0.692  -1.59386   3.54263   6.82736   1.70573   0.00000   1.426E-01   0.000E+00   8.574E-01
 402  7.85123110   0.692  -1.59933   3.54273   6.83021   1.71783   0.00000   1.534E-01   0.000E+00   8.466E-01
 403  7.86180862   0.692  -1.60422   3.54284   6.83291   1.72887   0.00000   1.650E-01   0.000E+00   8.350E-01
 404  7.87213464   0.692  -1.60911   3.54295   6.83560   1.73992   0.00000   1.767E-01   0.000E+00   8.233E-01
 405  7.88222083   0.692  -1.61383   3.54306   6.83825   1.75064   0.00000   1.887E-01   0.000E+00   8.113E-01
 406  7.89207807   0.692  -1.61815   3.54317   6.84077   1.76057   0.00000   2.014E-01   0.000E+00   7.986E-01
 407  7.90171655   0.692  -1.62246   3.54328   6.84330   1.77049   0.00000   2.141E-01   0.000E+00   7.859E-01
 408  7.91114575   0.692  -1.62661   3.54339   6.84578   1.78006   0.00000   2.272E-01   0.000E+00   7.728E-01
 409  7.92037457   0.692  -1.63038   3.54350   6.84813   1.78879   0.00000   2.411E-01   0.000E+00   7.589E-01
 410  7.92941135   0.692  -1.63415   3.54360   6.85048   1.79752   0.00000   2.550E-01   0.000E+00   7.450E-01
 411  7.93826392   0.692  -1.63792   3.54371   6.85283   1.80625   0.00000   2.689E-01   0.000E+00   7.311E-01
 412  7.94693964   0.692  -1.64117   3.54382   6.85500   1.81380   0.00000   2.835E-01   0.000E+00   7.165E-01
 413  7.95544544   0.692  -1.64442   3.54392   6.85717   1.82136   0.00000   2.981E-01   0.000E+00   7.019E-01
 414  7.96378784   0.692  -1.64767   3.54403   6.85934   1.82891   0.00000   3.127E-01   0.000E+00   6.873E-01
 415  7.97197301   0.692  -1.65078   3.54413   6.86145   1.83610   0.00000   3.275E-01   0.000E+00   6.725E-01
 416  7.98000676   0.692  -1.65354   3.54423   6.86342   1.84245   0.00000   3.427E-01   0.000E+00   6.573E-01
 417  7.98789460   0.692  -1.65629   3.54432   6.86540   1.84880   0.00000   3.578E-01   0.000E+00   6.422E-01
 418  7.99564173   0.692  -1.65905   3.54442   6.86737   1.85515   0.00000   3.730E-01   0.000E+00   6.270E-01
 419  8.00325307   0.692  -1.66177   3.54452   6.86933   1.86140   0.00000   3.881E-01   0.000E+00   6.119E-01
 420  8.01073332   0.692  -1.66406   3.54460   6.87107   1.86646   0.00000   4.033E-01   0.000E+00   5.967E-01
 421  8.01808691   0.692  -1.66635   3.54469   6.87280   1.87152   0.00000   4.185E-01   0.000E+00   5.815E-01
 422  8.02531805   0.692  -1.66864   3.54477   6.87454   1.87659   0.00000   4.337E-01   0.000E+00   5.663E-01
 423  8.03243077   0.692  -1.67092   3.54486   6.87627   1.88165   0.00000   4.488E-01   0.000E+00   5.512E-01
 424  8.03942886   0.692  -1.67315   3.54494   6.87798   1.88655   0.00000   4.639E-01   0.000E+00   5.361E-01
 425  8.04631598   0.692  -1.67500   3.54501   6.87949   1.89038   0.00000   4.787E-01   0.000E+00   5.213E-01
 426  8.05309559   0.692  -1.67684   3.54508   6.88101   1.89421   0.00000   4.934E-01   0.000E+00   5.066E-01
 427  8.05977098   0.692  -1.67869   3.54515   6.88252   1.89804   0.00000   5.081E-01   0.000E+00   4.919E-01
 428  8.06634532   0.692  -1.68053   3.54522   6.88403   1.90187   0.00000   5.228E-01   0.000E+00   4.772E-01
 429  8.07282162   0.692  -1.68238   3.54529   6.88555   1.90570   0.00000   5.375E-01   0.000E+00   4.625E-01
 430  8.07920277   0.692  -1.68416   3.54536   6.88702   1.90934   0.00000   5.520E-01   0.000E+00   4.480E-01
 431  8.08549150   0.692  -1.68559   3.54540   6.88826   1.91193   0.00000   5.651E-01   0.000E+00   4.349E-01
 432  8.09169048   0.692  -1.68702   3.54545   6.88950   1.91451   0.00000   5.782E-01   0.000E+00   4.218E-01
 433  8.09780222   0.692  -1.68845   3.54550   6.89074   1.91710   0.00000   5.913E-01   0.000E+00   4.087E-01
 434  8.10382913   0.692  -1.68988   3.54555   6.89199   1.91969   0.00000   6.044E-01   0.000E+00   3.956E-01
 435  8.10977356   0.692  -1.69132   3.54559   6.89323   1.92227   0.00000   6.176E-01   0.000E+00   3.824E-01
 436  8.11563772   0.692  -1.69275   3.54564   6.89447   1.92486   0.00000   6.307E-01   0.000E+00   3.693E-01
 437  8.12142374   0.692  -1.69418   3.54569   6.89571   1.92744   0.00000   6.438E-01   0.000E+00   3.562E-01
 438  8.12713370   0.692  -1.69541   3.54572   6.89680   1.92938   0.00000   6.557E-01   0.000E+00   3.443E-01
 439  8.13276955   0.691  -1.69645   3.54575   6.89774   1.93073   0.00000   6.665E-01   0.000E+00   3.335E-01
 440  8.13833321   0.691  -1.69749   3.54577   6.89868   1.93208   0.00000   6.772E-01   0.000E+00   3.228E-01
 441  8.14382649   0.691  -1.69854   3.54579   6.89962   1.93343   0.00000   6.880E-01   0.000E+00   3.120E-01
 442  8.14925115   0.691  -1.69958   3.54581   6.90057   1.93478   0.00000   6.988E-01   0.000E+00   3.012E-01
 443  8.15460890   0.691  -1.70062   3.54584   6.90151   1.93613   0.00000   7.096E-01   0.000E+00   2.904E-01
 444  8.15990135   0.691  -1.70167   3.54586   6.90245   1.93748   0.00000   7.204E-01   0.000E+00   2.796E-01
 445  8.16513008   0.691  -1.70271   3.54588   6.90340   1.93883   0.00000   7.312E-01   0.000E+00   2.688E-01
 446  8.17029660   0.691  -1.70375   3.54591   6.90434   1.94018   0.00000   7.420E-01   0.000E+00   2.580E-01
 447  8.17540239   0.691  -1.70480   3.54593   6.90528   1.94153   0.00000   7.528E-01   0.000E+00   2.472E-01
 448  8.18044884   0.691  -1.70582   3.54595   6.90621   1.94283   0.00000   7.636E-01   0.000E+00   2.364E-01
 449  8.18543733   0.691  -1.70674   3.54597   6.90709   1.94385   0.00000   7.747E-01   0.000E+00   2.253E-01
 450  8.19036917   0.691  -1.70766   3.54599   6.90796   1.94484   0.00000   7.857E-01   0.000E+00   2.143E-01
 451  8.19524563   0.691  -1.70852   3.54600   6.90879   1.94562   0.00000   7.958E-01   0.000E+00   2.042E-01
 452  8.20006795   0.691  -1.70938   3.54602   6.90963   1.94640   0.00000   8.058E-01   0.000E+00   1.942E-01
 453  8.20483730   0.691  -1.71019   3.54603   6.91043   1.94699   0.00016   8.154E-01   0.000E+00   1.846E-01
 454  8.20955485   0.691  -1.71099   3.54604   6.91123   1.94756   0.00035   8.248E-01   0.000E+00   1.752E-01
 455  8.21422170   0.691  -1.71176   3.54604   6.91198   1.94803   0.00071   8.340E-01   0.000E+00   1.660E-01
 456  8.21883894   0.691  -1.71251   3.54604   6.91270   1.94843   0.00120   8.428E-01   0.000E+00   1.572E-01
 457  8.22340761   0.691  -1.71326   3.54604   6.91341   1.94882   0.00168   8.516E-01   0.000E+00   1.484E-01
 458  8.22792871   0.691  -1.71396   3.54604   6.91404   1.94903   0.00204   8.603E-01   0.000E+00   1.397E-01
 459  8.23240323   0.691  -1.71466   3.54604   6.91468   1.94924   0.00240   8.689E-01   0.000E+00   1.311E-01
 460  8.23683212   0.691  -1.71533   3.54604   6.91528   1.94938   0.00288   8.771E-01   0.000E+00   1.229E-01
 461  8.24121630   0.691  -1.71597   3.54603   6.91581   1.94942   0.00355   8.848E-01   0.000E+00   1.152E-01
 462  8.24555667   0.691  -1.71661   3.54602   6.91633   1.94945   0.00421   8.924E-01   0.000E+00   1.076E-01
 463  8.24985408   0.691  -1.71723   3.54601   6.91683   1.94942   0.00484   8.998E-01   0.000E+00   1.001E-01
 464  8.25410939   0.691  -1.71781   3.54600   6.91729   1.94933   0.00542   9.069E-01   0.000E+00   9.294E-02
 465  8.25832341   0.691  -1.71840   3.54599   6.91775   1.94923   0.00601   9.139E-01   0.000E+00   8.574E-02
 466  8.26249693   0.691  -1.71897   3.54597   6.91819   1.94908   0.00657   9.207E-01   0.000E+00   7.886E-02
 467  8.26663073   0.691  -1.71950   3.54595   6.91858   1.94885   0.00707   9.272E-01   0.000E+00   7.243E-02
 468  8.27072555   0.691  -1.72003   3.54594   6.91897   1.94862   0.00758   9.337E-01   0.000E+00   6.600E-02
 469  8.27478212   0.691  -1.72056   3.54592   6.91936   1.94838   0.00809   9.401E-01   0.000E+00   5.959E-02
 470  8.27880115   0.691  -1.72104   3.54590   6.91967   1.94803   0.00883   9.460E-01   0.000E+00   5.393E-02
 471  8.28278333   0.691  -1.72151   3.54588   6.91999   1.94767   0.00956   9.518E-01   0.000E+00   4.826E-02
 472  8.28672933   0.691  -1.72199   3.54586   6.92031   1.94731   0.01029   9.577E-01   0.000E+00   4.260E-02
 473  8.29063979   0.691  -1.72245   3.54583   6.92060   1.94693   0.01093   9.632E-01   0.000E+00   3.720E-02
 474  8.29451536   0.691  -1.72286   3.54581   6.92084   1.94649   0.01129   9.677E-01   0.000E+00   3.257E-02
 475  8.29835665   0.691  -1.72328   3.54579   6.92107   1.94604   0.01166   9.722E-01   0.000E+00   2.794E-02
 476  8.30216426   0.691  -1.72369   3.54576   6.92131   1.94559   0.01203   9.767E-01   0.000E+00   2.330E-02
 477  8.30593878   0.691  -1.72411   3.54574   6.92154   1.94514   0.01241   9.812E-01   0.000E+00   1.871E-02
 478  8.30968078   0.691  -1.72446   3.54571   6.92170   1.94462   0.01292   9.851E-01   0.000E+00   1.486E-02
 479  8.31339081   0.691  -1.72481   3.54568   6.92187   1.94409   0.01343   9.891E-01   0.000E+00   1.101E-02
 480  8.31706941   0.691  -1.72516   3.54566   6.92204   1.94356   0.01394   9.930E-01   0.000E+00   7.157E-03
 481  8.32071712   0.691  -1.72551   3.54563   6.92220   1.94303   0.01445   9.970E-01   0.000E+00   3.306E-03
 482  8.32433445   0.691  -1.72585   3.54560   6.92235   1.94249   0.01494   1.001E+00   0.000E+00  -3.390E-04
 483  8.32792189   0.691  -1.72613   3.54558   6.92246   1.94190   0.01538   1.003E+00   0.000E+00  -3.326E-03
 484  8.33147994   0.691  -1.72641   3.54555   6.92256   1.94131   0.01582   1.006E+00   0.000E+00  -6.313E-03
 485  8.33500908   0.691  -1.72670   3.54552   6.92267   1.94072   0.01626   1.009E+00   0.000E+00  -9.301E-03
 486  8.33850977   0.691  -1.72698   3.54549   6.92277   1.94012   0.01670   1.012E+00   0.000E+00  -1.229E-02
 487  8.34198247   0.691  -1.72726   3.54546   6.92287   1.93953   0.01714   1.015E+00   0.000E+00  -1.528E-02
 488  8.34542763   0.691  -1.72751   3.54543   6.92294   1.93894   0.01742   1.017E+00   0.000E+00  -1.761E-02
 489  8.34884566   0.691  -1.72772   3.54541   6.92299   1.93834   0.01757   1.019E+00   0.000E+00  -1.943E-02
 490  8.35223701   0.691  -1.72793   3.54538   6.92303   1.93773   0.01772   1.021E+00   0.000E+00  -2.125E-02
 491  8.35560208   0.691  -1.72814   3.54535   6.92307   1.93713   0.01788   1.023E+00   0.000E+00  -2.306E-02
 492  8.35894127   0.691  -1.72835   3.54533   6.92311   1.93653   0.01803   1.024E+00   0.000E+00  -2.488E-02
 493  8.36225499   0.691  -1.72856   3.54530   6.92316   1.93593   0.01818   1.026E+00   0.000E+00  -2.670E-02
 494  8.36554361   0.691  -1.72877   3.54527   6.92320   1.93533   0.01833   1.028E+00   0.000E+00  -2.852E-02
 495  8.36880752   0.691  -1.72893   3.54525   6.92322   1.93473   0.01855   1.030E+00   0.000E+00  -3.002E-02
 496  8.37204708   0.691  -1.72906   3.54522   6.92322   1.93412   0.01884   1.031E+00   0.000E+00  -3.122E-02
 497  8.37526266   0.691  -1.72918   3.54520   6.92321   1.93351   0.01913   1.032E+00   0.000E+00  -3.243E-02
 498  8.37845460   0.691  -1.72931   3.54517   6.92321   1.93290   0.01942   1.033E+00   0.000E+00  -3.363E-02
 499  8.38162325   0.691  -1.72943   3.54515   6.92321   1.93229   0.01970   1.035E+00   0.000E+00  -3.484E-02
 500  8.38476895   0.691  -1.72956   3.54512   6.92320   1.93168   0.01999   1.036E+00   0.000E+00  -3.604E-02
 501  8.38789203   0.690  -1.72968   3.54510   6.92320   1.93108   0.02028   1.037E+00   0.000E+00  -3.725E-02
 502  8.39099281   0.690  -1.72981   3.54507   6.92320   1.93047   0.02057   1.038E+00   0.000E+00  -3.845E-02
 503  8.39407161   0.690  -1.72993   3.54505   6.92319   1.92986   0.02086   1.040E+00   0.000E+00  -3.965E-02
 504  8.39712874   0.690  -1.73006   3.54502   6.92319   1.92925   0.02115   1.041E+00   0.000E+00  -4.086E-02
 505  8.40016450   0.690  -1.73010   3.54500   6.92315   1.92870   0.02132   1.041E+00   0.000E+00  -4.122E-02
 506  8.40317918   0.690  -1.73014   3.54498   6.92311   1.92815   0.02148   1.042E+00   0.000E+00  -4.155E-02
 507  8.40617308   0.690  -1.73018   3.54496   6.92307   1.92760   0.02164   1.042E+00   0.000E+00  -4.187E-02
 508  8.40914649   0.690  -1.73022   3.54494   6.92303   1.92705   0.02181   1.042E+00   0.000E+00  -4.220E-02
 509  8.41209967   0.690  -1.73026   3.54492   6.92299   1.92650   0.02197   1.042E+00   0.000E+00  -4.253E-02
 510  8.41503291   0.690  -1.73030   3.54490   6.92295   1.92596   0.02213   1.043E+00   0.000E+00  -4.286E-02
 511  8.41794647   0.690  -1.73034   3.54488   6.92291   1.92541   0.02230   1.043E+00   0.000E+00  -4.319E-02
 512  8.42084062   0.690  -1.73038   3.54486   6.92287   1.92486   0.02246   1.043E+00   0.000E+00  -4.351E-02
 513  8.42371560   0.690  -1.73042   3.54484   6.92283   1.92431   0.02263   1.044E+00   0.000E+00  -4.384E-02
 514  8.42657168   0.690  -1.73046   3.54482   6.92279   1.92376   0.02279   1.044E+00   0.000E+00  -4.417E-02
 515  8.42940910   0.690  -1.73050   3.54480   6.92275   1.92321   0.02295   1.044E+00   0.000E+00  -4.450E-02
 516  8.43222810   0.690  -1.73054   3.54478   6.92271   1.92266   0.02312   1.044E+00   0.000E+00  -4.483E-02
 517  8.43502892   0.690  -1.73059   3.54476   6.92267   1.92211   0.02328   1.045E+00   0.000E+00  -4.516E-02
 518  8.43781179   0.690  -1.73063   3.54474   6.92263   1.92156   0.02344   1.045E+00   0.000E+00  -4.548E-02
 519  8.44057695   0.690  -1.73062   3.54472   6.92258   1.92107   0.02356   1.045E+00   0.000E+00  -4.555E-02
 520  8.44332461   0.690  -1.73060   3.54471   6.92253   1.92061   0.02365   1.045E+00   0.000E+00  -4.549E-02
 521  8.44605499   0.690  -1.73058   3.54469   6.92247   1.92015   0.02374   1.045E+00   0.000E+00  -4.542E-02
 522  8.44876832   0.690  -1.73055   3.54468   6.92242   1.91969   0.02383   1.045E+00   0.000E+00  -4.535E-02
 523  8.45146480   0.690  -1.73053   3.54466   6.92236   1.91923   0.02393   1.045E+00   0.000E+00  -4.528E-02
 524  8.45414464   0.690  -1.73050   3.54465   6.92231   1.91877   0.02402   1.045E+00   0.000E+00  -4.521E-02
 525  8.45680805   0.690  -1.73048   3.54463   6.92226   1.91830   0.02411   1.045E+00   0.000E+00  -4.514E-02
 526  8.45945522   0.690  -1.73045   3.54462   6.92220   1.91784   0.02420   1.045E+00   0.000E+00  -4.507E-02
 527  8.46208636   0.690  -1.73043   3.54460   6.92215   1.91738   0.02429   1.045E+00   0.000E+00  -4.500E-02
 528  8.46470165   0.690  -1.73041   3.54459   6.92209   1.91692   0.02438   1.045E+00   0.000E+00  -4.493E-02
 529  8.46730128   0.690  -1.73038   3.54457   6.92204   1.91646   0.02448   1.045E+00   0.000E+00  -4.486E-02
 530  8.46988545   0.690  -1.73036   3.54456   6.92198   1.91600   0.02457   1.044E+00   0.000E+00  -4.479E-02
 531  8.47245433   0.690  -1.73033   3.54454   6.92193   1.91554   0.02466   1.044E+00   0.000E+00  -4.472E-02
 532  8.47500810   0.690  -1.73031   3.54453   6.92187   1.91508   0.02475   1.044E+00   0.000E+00  -4.465E-02
 533  8.47754695   0.690  -1.73029   3.54451   6.92182   1.91461   0.02484   1.044E+00   0.000E+00  -4.458E-02
 534  8.48007104   0.690  -1.73026   3.54450   6.92176   1.91415   0.02493   1.044E+00   0.000E+00  -4.451E-02
 535  8.48258055   0.690  -1.73024   3.54448   6.92171   1.91369   0.02503   1.044E+00   0.000E+00  -4.444E-02
 536  8.48507563   0.690  -1.73021   3.54447   6.92165   1.91323   0.02512   1.044E+00   0.000E+00  -4.437E-02
 537  8.48755647   0.690  -1.73019   3.54445   6.92160   1.91277   0.02521   1.044E+00   0.000E+00  -4.430E-02
 538  8.49002321   0.690  -1.73016   3.54444   6.92154   1.91231   0.02530   1.044E+00   0.000E+00  -4.423E-02
 539  8.49247603   0.690  -1.73014   3.54442   6.92149   1.91185   0.02539   1.044E+00   0.000E+00  -4.416E-02
 540  8.49491506   0.690  -1.73011   3.54441   6.92143   1.91140   0.02548   1.044E+00   0.000E+00  -4.407E-02
 541  8.49734048   0.690  -1.73006   3.54440   6.92138   1.91104   0.02555   1.044E+00   0.000E+00  -4.386E-02
 542  8.49975242   0.690  -1.73000   3.54439   6.92132   1.91068   0.02561   1.044E+00   0.000E+00  -4.366E-02
 543  8.50215105   0.690  -1.72995   3.54438   6.92127   1.91031   0.02567   1.043E+00   0.000E+00  -4.345E-02
 544  8.50453650   0.690  -1.72990   3.54437   6.92122   1.90995   0.02574   1.043E+00   0.000E+00  -4.325E-02
 545  8.50690892   0.690  -1.72984   3.54436   6.92116   1.90959   0.02580   1.043E+00   0.000E+00  -4.304E-02
 546  8.50926844   0.690  -1.72979   3.54435   6.92111   1.90922   0.02587   1.043E+00   0.000E+00  -4.284E-02
 547  8.51161522   0.690  -1.72974   3.54434   6.92106   1.90886   0.02593   1.042E+00   0.000E+00  -4.263E-02
 548  8.51394939   0.690  -1.72968   3.54433   6.92100   1.90850   0.02600   1.042E+00   0.000E+00  -4.243E-02
 549  8.51627108   0.690  -1.72963   3.54432   6.92095   1.90814   0.02606   1.042E+00   0.000E+00  -4.222E-02
 550  8.51858042   0.690  -1.72957   3.54431   6.92089   1.90777   0.02613   1.042E+00   0.000E+00  -4.202E-02
 551  8.52087755   0.690  -1.72952   3.54430   6.92084   1.90741   0.02619   1.042E+00   0.000E+00  -4.181E-02
 552  8.52316259   0.690  -1.72947   3.54429   6.92079   1.90705   0.02626   1.041E+00   0.000E+00  -4.161E-02
 553  8.52543567   0.690  -1.72941   3.54428   6.92073   1.90668   0.02632   1.041E+00   0.000E+00  -4.140E-02
 554  8.52769691   0.690  -1.72936   3.54427   6.92068   1.90632   0.02638   1.041E+00   0.000E+00  -4.120E-02
 555  8.52994645   0.690  -1.72931   3.54426   6.92063   1.90596   0.02645   1.041E+00   0.000E+00  -4.099E-02
 556  8.53218439   0.690  -1.72925   3.54425   6.92057   1.90560   0.02651   1.040E+00   0.000E+00  -4.079E-02
 557  8.53441086   0.690  -1.72920   3.54424   6.92052   1.90523   0.02658   1.040E+00   0.000E+00  -4.058E-02
 558  8.53662597   0.690  -1.72914   3.54424   6.92046   1.90487   0.02664   1.040E+00   0.000E+00  -4.038E-02
 559  8.53882984   0.690  -1.72909   3.54423   6.92041   1.90451   0.02671   1.040E+00   0.000E+00  -4.018E-02
 560  8.54102258   0.690  -1.72904   3.54422   6.92036   1.90415   0.02677   1.040E+00   0.000E+00  -3.997E-02
 561  8.54320431   0.690  -1.72898   3.54421   6.92030   1.90378   0.02684   1.039E+00   0.000E+00  -3.977E-02
 562  8.54537513   0.690  -1.72893   3.54420   6.92025   1.90342   0.02690   1.039E+00   0.000E+00  -3.956E-02
 563  8.54753516   0.690  -1.72888   3.54419   6.92020   1.90306   0.02697   1.039E+00   0.000E+00  -3.936E-02
 564  8.54968449   0.690  -1.72882   3.54418   6.92014   1.90269   0.02703   1.039E+00   0.000E+00  -3.915E-02
 565  8.55182325   0.690  -1.72877   3.54417   6.92009   1.90233   0.02709   1.039E+00   0.000E+00  -3.895E-02
 566  8.55395152   0.690  -1.72872   3.54416   6.92004   1.90197   0.02716   1.038E+00   0.000E+00  -3.874E-02
 567  8.55606941   0.690  -1.72866   3.54415   6.91998   1.90161   0.02722   1.038E+00   0.000E+00  -3.854E-02
 568  8.55817702   0.690  -1.72861   3.54414   6.91993   1.90124   0.02729   1.038E+00   0.000E+00  -3.833E-02
 569  8.56027445   0.690  -1.72855   3.54413   6.91987   1.90088   0.02735   1.038E+00   0.000E+00  -3.813E-02
 570  8.56236181   0.690  -1.72850   3.54412   6.91982   1.90052   0.02742   1.037E+00   0.000E+00  -3.792E-02
 571  8.56443918   0.690  -1.72845   3.54411   6.91977   1.90015   0.02748   1.037E+00   0.000E+00  -3.772E-02
 572  8.56650666   0.690  -1.72839   3.54410   6.91971   1.89979   0.02755   1.037E+00   0.000E+00  -3.751E-02
 573  8.56856434   0.690  -1.72834   3.54409   6.91967   1.89952   0.02763   1.037E+00   0.000E+00  -3.727E-02
 574  8.57061232   0.690  -1.72828   3.54409   6.91962   1.89926   0.02771   1.037E+00   0.000E+00  -3.702E-02
 575  8.57265069   0.689  -1.72822   3.54408   6.91958   1.89899   0.02779   1.036E+00   0.000E+00  -3.678E-02
 576  8.57467953   0.689  -1.72817   3.54407   6.91954   1.89873   0.02788   1.036E+00   0.000E+00  -3.653E-02
 577  8.57669895   0.689  -1.72811   3.54407   6.91949   1.89847   0.02796   1.036E+00   0.000E+00  -3.629E-02
 578  8.57870901   0.689  -1.72805   3.54406   6.91945   1.89820   0.02804   1.036E+00   0.000E+00  -3.604E-02
 579  8.58070982   0.689  -1.72800   3.54406   6.91940   1.89794   0.02813   1.035E+00   0.000E+00  -3.580E-02
 580  8.58270144   0.689  -1.72794   3.54405   6.91936   1.89767   0.02821   1.035E+00   0.000E+00  -3.555E-02
 581  8.58468398   0.689  -1.72788   3.54404   6.91931   1.89741   0.02829   1.035E+00   0.000E+00  -3.531E-02
 582  8.58665751   0.689  -1.72783   3.54404   6.91927   1.89715   0.02838   1.035E+00   0.000E+00  -3.506E-02
 583  8.58862211   0.689  -1.72777   3.54403   6.91923   1.89688   0.02846   1.034E+00   0.000E+00  -3.482E-02
 584  8.59057787   0.689  -1.72771   3.54402   6.91918   1.89662   0.02854   1.034E+00   0.000E+00  -3.457E-02
 585  8.59252485   0.689  -1.72766   3.54402   6.91914   1.89635   0.02862   1.034E+00   0.000E+00  -3.432E-02
 586  8.59446315   0.689  -1.72760   3.54401   6.91909   1.89609   0.02871   1.034E+00   0.000E+00  -3.408E-02
 587  8.59639283   0.689  -1.72754   3.54400   6.91905   1.89583   0.02879   1.033E+00   0.000E+00  -3.383E-02
 588  8.59831398   0.689  -1.72749   3.54400   6.91900   1.89556   0.02887   1.033E+00   0.000E+00  -3.359E-02
 589  8.60022667   0.689  -1.72743   3.54399   6.91896   1.89530   0.02896   1.033E+00   0.000E+00  -3.334E-02
 590  8.60213097   0.689  -1.72737   3.54398   6.91892   1.89503   0.02904   1.033E+00   0.000E+00  -3.310E-02
 591  8.60402695   0.689  -1.72732   3.54398   6.91887   1.89477   0.02912   1.032E+00   0.000E+00  -3.285E-02
 592  8.60591470   0.689  -1.72726   3.54397   6.91883   1.89450   0.02921   1.032E+00   0.000E+00  -3.261E-02
 593  8.60779427   0.689  -1.72720   3.54396   6.91878   1.89424   0.02929   1.032E+00   0.000E+00  -3.236E-02
 594  8.60966575   0.689  -1.72715   3.54396   6.91874   1.89398   0.02937   1.032E+00   0.000E+00  -3.212E-02
 595  8.61152919   0.689  -1.72709   3.54395   6.91870   1.89371   0.02946   1.031E+00   0.000E+00  -3.187E-02
 596  8.61338468   0.689  -1.72703   3.54395   6.91865   1.89345   0.02954   1.031E+00   0.000E+00  -3.162E-02
 597  8.61523227   0.689  -1.72698   3.54394   6.91861   1.89318   0.02962   1.031E+00   0.000E+00  -3.138E-02
 598  8.61707203   0.689  -1.72692   3.54393   6.91856   1.89292   0.02970   1.031E+00   0.000E+00  -3.113E-02
 599  8.61890404   0.689  -1.72686   3.54393   6.91852   1.89266   0.02979   1.030E+00   0.000E+00  -3.089E-02
 600  8.62072834   0.689  -1.72681   3.54392   6.91847   1.89239   0.02987   1.030E+00   0.000E+00  -3.064E-02
 601  8.62254502   0.689  -1.72675   3.54391   6.91843   1.89213   0.02995   1.030E+00   0.000E+00  -3.040E-02
 602  8.62435413   0.689  -1.72669   3.54391   6.91839   1.89186   0.03004   1.030E+00   0.000E+00  -3.015E-02
 603  8.62615573   0.689  -1.72664   3.54390   6.91834   1.89160   0.03012   1.029E+00   0.000E+00  -2.991E-02
 604  8.62794989   0.689  -1.72658   3.54389   6.91830   1.89134   0.03020   1.029E+00   0.000E+00  -2.966E-02
 605  8.62973667   0.689  -1.72652   3.54389   6.91825   1.89107   0.03029   1.029E+00   0.000E+00  -2.942E-02
 606  8.63151613   0.689  -1.72647   3.54388   6.91821   1.89081   0.03037   1.029E+00   0.000E+00  -2.917E-02
 607  8.63328833   0.689  -1.72641   3.54387   6.91816   1.89054   0.03045   1.029E+00   0.000E+00  -2.892E-02
 608  8.63505332   0.689  -1.72635   3.54387   6.91812   1.89028   0.03054   1.028E+00   0.000E+00  -2.868E-02
 609  8.63681117   0.689  -1.72630   3.54386   6.91808   1.89002   0.03062   1.028E+00   0.000E+00  -2.843E-02
 610  8.63856194   0.689  -1.72625   3.54386   6.91804   1.88982   0.03063   1.028E+00   0.000E+00  -2.822E-02
 611  8.64030567   0.689  -1.72620   3.54385   6.91801   1.88963   0.03063   1.028E+00   0.000E+00  -2.800E-02
 612  8.64204243   0.689  -1.72615   3.54385   6.91797   1.88944   0.03063   1.027E+00   0.000E+00  -2.779E-02
 613  8.64377228   0.689  -1.72610   3.54384   6.91794   1.88925   0.03063   1.027E+00   0.000E+00  -2.758E-02
 614  8.64549526   0.689  -1.72605   3.54384   6.91790   1.88906   0.03063   1.027E+00   0.000E+00  -2.737E-02
 615  8.64721143   0.689  -1.72600   3.54384   6.91787   1.88887   0.03063   1.027E+00   0.000E+00  -2.716E-02
 616  8.64892085   0.689  -1.72595   3.54383   6.91783   1.88868   0.03063   1.027E+00   0.000E+00  -2.694E-02
 617  8.65062356   0.689  -1.72590   3.54383   6.91780   1.88849   0.03063   1.026E+00   0.000E+00  -2.673E-02
 618  8.65231963   0.689  -1.72585   3.54382   6.91776   1.88830   0.03063   1.026E+00   0.000E+00  -2.652E-02
 619  8.65400910   0.689  -1.72580   3.54382   6.91773   1.88811   0.03063   1.026E+00   0.000E+00  -2.631E-02
 620  8.65569202   0.689  -1.72576   3.54381   6.91770   1.88792   0.03063   1.026E+00   0.000E+00  -2.610E-02
 621  8.65736844   0.689  -1.72571   3.54381   6.91766   1.88773   0.03063   1.026E+00   0.000E+00  -2.588E-02
 622  8.65903842   0.689  -1.72566   3.54381   6.91763   1.88754   0.03063   1.025E+00   0.000E+00  -2.567E-02
 623  8.66070200   0.689  -1.72561   3.54380   6.91759   1.88735   0.03063   1.025E+00   0.000E+00  -2.546E-02
 624  8.66235924   0.689  -1.72556   3.54380   6.91756   1.88716   0.03063   1.025E+00   0.000E+00  -2.525E-02
 625  8.66401017   0.689  -1.72551   3.54379   6.91752   1.88697   0.03063   1.025E+00   0.000E+00  -2.504E-02
 626  8.66565485   0.689  -1.72546   3.54379   6.91749   1.88678   0.03063   1.025E+00   0.000E+00  -2.482E-02
 627  8.66729333   0.689  -1.72541   3.54378   6.91745   1.88659   0.03063   1.024E+00   0.000E+00  -2.461E-02
 628  8.66892564   0.689  -1.72536   3.54378   6.91742   1.88640   0.03063   1.024E+00   0.000E+00  -2.440E-02
 629  8.67055185   0.689  -1.72531   3.54378   6.91738   1.88621   0.03063   1.024E+00   0.000E+00  -2.419E-02
 630  8.67217199   0.689  -1.72526   3.54377   6.91735   1.88602   0.03063   1.024E+00   0.000E+00  -2.398E-02
 631  8.67378611   0.689  -1.72521   3.54377   6.91732   1.88583   0.03063   1.024E+00   0.000E+00  -2.376E-02
 632  8.67539425   0.689  -1.72517   3.54376   6.91728   1.88564   0.03063   1.023E+00   0.000E+00  -2.355E-02
 633  8.67699646   0.689  -1.72512   3.54376   6.91725   1.88545   0.03063   1.023E+00   0.000E+00  -2.334E-02
 634  8.67859278   0.689  -1.72507   3.54375   6.91721   1.88526   0.03063   1.023E+00   0.000E+00  -2.313E-02
 635  8.68018325   0.689  -1.72502   3.54375   6.91718   1.88507   0.03063   1.023E+00   0.000E+00  -2.292E-02
 636  8.68176792   0.689  -1.72497   3.54375   6.91714   1.88488   0.03063   1.023E+00   0.000E+00  -2.270E-02
 637  8.68334683   0.689  -1.72492   3.54374   6.91711   1.88469   0.03063   1.022E+00   0.000E+00  -2.249E-02
 638  8.68492002   0.689  -1.72487   3.54374   6.91707   1.88450   0.03063   1.022E+00   0.000E+00  -2.228E-02
 639  8.68648753   0.689  -1.72482   3.54373   6.91704   1.88431   0.03063   1.022E+00   0.000E+00  -2.207E-02
 640  8.68804940   0.689  -1.72477   3.54373   6.91701   1.88412   0.03063   1.022E+00   0.000E+00  -2.186E-02
 641  8.68960568   0.689  -1.72472   3.54372   6.91697   1.88393   0.03063   1.022E+00   0.000E+00  -2.164E-02
 642  8.69115640   0.689  -1.72467   3.54372   6.91694   1.88374   0.03063   1.021E+00   0.000E+00  -2.143E-02
 643  8.69270160   0.689  -1.72462   3.54372   6.91690   1.88355   0.03063   1.021E+00   0.000E+00  -2.122E-02
 644  8.69424132   0.689  -1.72458   3.54371   6.91687   1.88336   0.03063   1.021E+00   0.000E+00  -2.101E-02
 645  8.69577561   0.689  -1.72453   3.54371   6.91684   1.88319   0.03065   1.021E+00   0.000E+00  -2.085E-02
 646  8.69730449   0.689  -1.72449   3.54371   6.91681   1.88303   0.03070   1.021E+00   0.000E+00  -2.074E-02
 647  8.69882801   0.689  -1.72445   3.54370   6.91678   1.88288   0.03075   1.021E+00   0.000E+00  -2.063E-02
 648  8.70034620   0.689  -1.72441   3.54370   6.91676   1.88273   0.03079   1.021E+00   0.000E+00  -2.052E-02
 649  8.70185911   0.689  -1.72437   3.54370   6.91673   1.88258   0.03084   1.020E+00   0.000E+00  -2.042E-02
 650  8.70336676   0.689  -1.72432   3.54369   6.91671   1.88243   0.03089   1.020E+00   0.000E+00  -2.031E-02
 651  8.70486920   0.689  -1.72428   3.54369   6.91668   1.88228   0.03093   1.020E+00   0.000E+00  -2.020E-02
 652  8.70636645   0.689  -1.72424   3.54369   6.91665   1.88213   0.03098   1.020E+00   0.000E+00  -2.009E-02
 653  8.70785857   0.689  -1.72420   3.54369   6.91663   1.88198   0.03103   1.020E+00   0.000E+00  -1.998E-02
 654  8.70934557   0.689  -1.72416   3.54368   6.91660   1.88182   0.03107   1.020E+00   0.000E+00  -1.988E-02
 655  8.71082750   0.689  -1.72412   3.54368   6.91657   1.88167   0.03112   1.020E+00   0.000E+00  -1.977E-02
 656  8.71230439   0.689  -1.72408   3.54368   6.91655   1.88152   0.03117   1.020E+00   0.000E+00  -1.966E-02
 657  8.71377628   0.689  -1.72404   3.54367   6.91652   1.88137   0.03121   1.019E+00   0.000E+00  -1.955E-02
 658  8.71524319   0.689  -1.72399   3.54367   6.91650   1.88122   0.03126   1.019E+00   0.000E+00  -1.944E-02
 659  8.71670517   0.689  -1.72395   3.54367   6.91647   1.88107   0.03131   1.019E+00   0.000E+00  -1.934E-02
 660  8.71816224   0.689  -1.72391   3.54366   6.91644   1.88092   0.03136   1.019E+00   0.000E+00  -1.923E-02
 661  8.71961444   0.689  -1.72387   3.54366   6.91642   1.88077   0.03140   1.019E+00   0.000E+00  -1.912E-02
 662  8.72106180   0.689  -1.72383   3.54366   6.91639   1.88061   0.03145   1.019E+00   0.000E+00  -1.901E-02
 663  8.72250435   0.688  -1.72379   3.54366   6.91636   1.88046   0.03150   1.019E+00   0.000E+00  -1.891E-02
 664  8.72394212   0.688  -1.72375   3.54365   6.91634   1.88031   0.03154   1.019E+00   0.000E+00  -1.880E-02
 665  8.72537515   0.688  -1.72371   3.54365   6.91631   1.88016   0.03159   1.018E+00   0.000E+00  -1.869E-02
 666  8.72680347   0.688  -1.72366   3.54365   6.91629   1.88001   0.03164   1.018E+00   0.000E+00  -1.858E-02
 667  8.72822711   0.688  -1.72362   3.54364   6.91626   1.87986   0.03168   1.018E+00   0.000E+00  -1.847E-02
 668  8.72964609   0.688  -1.72358   3.54364   6.91623   1.87971   0.03173   1.018E+00   0.000E+00  -1.837E-02
 669  8.73106046   0.688  -1.72354   3.54364   6.91621   1.87956   0.03178   1.018E+00   0.000E+00  -1.826E-02
 670  8.73247023   0.688  -1.72350   3.54364   6.91618   1.87940   0.03182   1.018E+00   0.000E+00  -1.815E-02
 671  8.73387544   0.688  -1.72346   3.54363   6.91616   1.87925   0.03187   1.018E+00   0.000E+00  -1.804E-02
 672  8.73527612   0.688  -1.72342   3.54363   6.91613   1.87910   0.03192   1.018E+00   0.000E+00  -1.793E-02
 673  8.73667230   0.688  -1.72338   3.54363   6.91610   1.87895   0.03196   1.018E+00   0.000E+00  -1.783E-02
 674  8.73806400   0.688  -1.72334   3.54362   6.91608   1.87880   0.03201   1.017E+00   0.000E+00  -1.772E-02
 675  8.73945125   0.688  -1.72329   3.54362   6.91605   1.87865   0.03206   1.017E+00   0.000E+00  -1.761E-02
 676  8.74083409   0.688  -1.72325   3.54362   6.91602   1.87850   0.03210   1.017E+00   0.000E+00  -1.750E-02
 677  8.74221254   0.688  -1.72321   3.54361   6.91600   1.87835   0.03215   1.017E+00   0.000E+00  -1.740E-02
 678  8.74358663   0.688  -1.72317   3.54361   6.91597   1.87819   0.03220   1.017E+00   0.000E+00  -1.729E-02
 679  8.74495639   0.688  -1.72313   3.54361   6.91595   1.87804   0.03225   1.017E+00   0.000E+00  -1.718E-02
 680  8.74632183   0.688  -1.72309   3.54361   6.91592   1.87789   0.03229   1.017E+00   0.000E+00  -1.707E-02
 681  8.74768300   0.688  -1.72305   3.54360   6.91589   1.87774   0.03234   1.017E+00   0.000E+00  -1.696E-02
 682  8.74903992   0.688  -1.72301   3.54360   6.91587   1.87759   0.03239   1.016E+00   0.000E+00  -1.686E-02
 683  8.75039261   0.688  -1.72296   3.54360   6.91584   1.87744   0.03243   1.016E+00   0.000E+00  -1.675E-02
 684  8.75174110   0.688  -1.72292   3.54359   6.91581   1.87729   0.03248   1.016E+00   0.000E+00  -1.664E-02
 685  8.75308541   0.688  -1.72288   3.54359   6.91579   1.87714   0.03253   1.016E+00   0.000E+00  -1.653E-02
 686  8.75442558   0.688  -1.72285   3.54359   6.91577   1.87701   0.03254   1.016E+00   0.000E+00  -1.644E-02
 687  8.75576162   0.688  -1.72281   3.54359   6.91575   1.87690   0.03254   1.016E+00   0.000E+00  -1.636E-02
 688  8.75709357   0.688  -1.72278   3.54358   6.91572   1.87678   0.03254   1.016E+00   0.000E+00  -1.628E-02
 689  8.75842144   0.688  -1.72275   3.54358   6.91570   1.87667   0.03254   1.016E+00   0.000E+00  -1.619E-02
 690  8.75974527   0.688  -1.72271   3.54358   6.91568   1.87655   0.03254   1.016E+00   0.000E+00  -1.611E-02
 691  8.76106507   0.688  -1.72268   3.54358   6.91566   1.87644   0.03254   1.016E+00   0.000E+00  -1.603E-02
 692  8.76238088   0.688  -1.72265   3.54357   6.91564   1.87633   0.03254   1.015E+00   0.000E+00  -1.595E-02
 693  8.76369271   0.688  -1.72262   3.54357   6.91562   1.87621   0.03254   1.015E+00   0.000E+00  -1.586E-02
 694  8.76500059   0.688  -1.72258   3.54357   6.91560   1.87610   0.03254   1.015E+00   0.000E+00  -1.578E-02
 695  8.76630454   0.688  -1.72255   3.54357   6.91558   1.87598   0.03254   1.015E+00   0.000E+00  -1.570E-02
 696  8.76760459   0.688  -1.72252   3.54357   6.91556   1.87587   0.03254   1.015E+00   0.000E+00  -1.561E-02
 697  8.76890076   0.688  -1.72248   3.54356   6.91554   1.87576   0.03254   1.015E+00   0.000E+00  -1.553E-02
 698  8.77019307   0.688  -1.72245   3.54356   6.91552   1.87564   0.03254   1.015E+00   0.000E+00  -1.545E-02
 699  8.77148155   0.688  -1.72242   3.54356   6.91550   1.87553   0.03254   1.015E+00   0.000E+00  -1.537E-02
 700  8.77276622   0.688  -1.72238   3.54356   6.91548   1.87541   0.03254   1.015E+00   0.000E+00  -1.528E-02
 701  8.77404709   0.688  -1.72235   3.54355   6.91546   1.87530   0.03254   1.015E+00   0.000E+00  -1.520E-02
 702  8.77532420   0.688  -1.72232   3.54355   6.91544   1.87519   0.03254   1.015E+00   0.000E+00  -1.512E-02
 703  8.77659757   0.688  -1.72228   3.54355   6.91542   1.87507   0.03254   1.015E+00   0.000E+00  -1.504E-02
 704  8.77786722   0.688  -1.72225   3.54355   6.91540   1.87496   0.03254   1.014E+00   0.000E+00  -1.495E-02
 705  8.77913316   0.688  -1.72222   3.54355   6.91538   1.87484   0.03254   1.014E+00   0.000E+00  -1.487E-02
 706  8.78039542   0.688  -1.72218   3.54354   6.91536   1.87473   0.03254   1.014E+00   0.000E+00  -1.479E-02
 707  8.78165403   0.688  -1.72215   3.54354   6.91534   1.87462   0.03254   1.014E+00   0.000E+00  -1.470E-02
 708  8.78290900   0.688  -1.72212   3.54354   6.91532   1.87450   0.03254   1.014E+00   0.000E+00  -1.462E-02
 709  8.78416035   0.688  -1.72209   3.54354   6.91529   1.87439   0.03254   1.014E+00   0.000E+00  -1.454E-02
 710  8.78540811   0.688  -1.72205   3.54353   6.91527   1.87428   0.03254   1.014E+00   0.000E+00  -1.446E-02
 711  8.78665229   0.688  -1.72202   3.54353   6.91525   1.87416   0.03254   1.014E+00   0.000E+00  -1.437E-02
 712  8.78789292   0.688  -1.72199   3.54353   6.91523   1.87405   0.03254   1.014E+00   0.000E+00  -1.429E-02
 713  8.78913001   0.688  -1.72195   3.54353   6.91521   1.87393   0.03254   1.014E+00   0.000E+00  -1.421E-02
 714  8.79036359   0.688  -1.72192   3.54352   6.91519   1.87382   0.03254   1.014E+00   0.000E+00  -1.413E-02
 715  8.79159368   0.688  -1.72189   3.54352   6.91517   1.87371   0.03254   1.014E+00   0.000E+00  -1.404E-02
 716  8.79282029   0.688  -1.72185   3.54352   6.91515   1.87359   0.03254   1.013E+00   0.000E+00  -1.396E-02
 717  8.79404345   0.688  -1.72182   3.54352   6.91513   1.87348   0.03254   1.013E+00   0.000E+00  -1.388E-02
 718  8.79526317   0.688  -1.72179   3.54352   6.91511   1.87336   0.03254   1.013E+00   0.000E+00  -1.379E-02
 719  8.79647948   0.688  -1.72175   3.54351   6.91509   1.87325   0.03254   1.013E+00   0.000E+00  -1.371E-02
 720  8.79769239   0.688  -1.72172   3.54351   6.91507   1.87314   0.03254   1.013E+00   0.000E+00  -1.363E-02
 721  8.79890192   0.688  -1.72169   3.54351   6.91505   1.87302   0.03254   1.013E+00   0.000E+00  -1.355E-02
 722  8.80010809   0.688  -1.72166   3.54351   6.91503   1.87291   0.03254   1.013E+00   0.000E+00  -1.346E-02
 723  8.80131092   0.688  -1.72162   3.54350   6.91501   1.87279   0.03254   1.013E+00   0.000E+00  -1.338E-02
 724  8.80251043   0.688  -1.72159   3.54350   6.91499   1.87268   0.03254   1.013E+00   0.000E+00  -1.330E-02
 725  8.80370664   0.688  -1.72156   3.54350   6.91497   1.87257   0.03254   1.013E+00   0.000E+00  -1.322E-02
 726  8.80489956   0.688  -1.72152   3.54350   6.91495   1.87245   0.03254   1.013E+00   0.000E+00  -1.313E-02
 727  8.80608921   0.688  -1.72149   3.54350   6.91493   1.87234   0.03254   1.013E+00   0.000E+00  -1.305E-02
 728  8.80727561   0.688  -1.72146   3.54349   6.91491   1.87222   0.03254   1.012E+00   0.000E+00  -1.297E-02
 729  8.80845878   0.688  -1.72142   3.54349   6.91489   1.87211   0.03254   1.012E+00   0.000E+00  -1.288E-02
 730  8.80963874   0.688  -1.72139   3.54349   6.91486   1.87200   0.03254   1.012E+00   0.000E+00  -1.280E-02
 731  8.81081550   0.688  -1.72136   3.54349   6.91484   1.87188   0.03254   1.012E+00   0.000E+00  -1.272E-02
 732  8.81198908   0.688  -1.72132   3.54348   6.91482   1.87177   0.03254   1.012E+00   0.000E+00  -1.264E-02
 733  8.81315949   0.688  -1.72129   3.54348   6.91480   1.87165   0.03254   1.012E+00   0.000E+00  -1.255E-02
 734  8.81432676   0.688  -1.72126   3.54348   6.91478   1.87155   0.03254   1.012E+00   0.000E+00  -1.248E-02
 735  8.81549090   0.688  -1.72124   3.54348   6.91477   1.87147   0.03254   1.012E+00   0.000E+00  -1.242E-02
 736  8.81665193   0.688  -1.72121   3.54348   6.91476   1.87139   0.03254   1.012E+00   0.000E+00  -1.237E-02
 737  8.81780987   0.688  -1.72118   3.54347   6.91474   1.87131   0.03254   1.012E+00   0.000E+00  -1.231E-02
 738  8.81896472   0.688  -1.72116   3.54347   6.91473   1.87123   0.03254   1.012E+00   0.000E+00  -1.225E-02
 739  8.82011651   0.688  -1.72113   3.54347   6.91471   1.87115   0.03254   1.012E+00   0.000E+00  -1.220E-02
 740  8.82126526   0.688  -1.72111   3.54347   6.91470   1.87107   0.03254   1.012E+00   0.000E+00  -1.214E-02
 741  8.82241097   0.688  -1.72108   3.54347   6.91468   1.87099   0.03254   1.012E+00   0.000E+00  -1.209E-02
 742  8.82355367   0.688  -1.72105   3.54347   6.91467   1.87091   0.03254   1.012E+00   0.000E+00  -1.203E-02
 743  8.82469337   0.688  -1.72103   3.54346   6.91466   1.87083   0.03254   1.012E+00   0.000E+00  -1.197E-02
 744  8.82583009   0.688  -1.72100   3.54346   6.91464   1.87074   0.03254   1.011E+00   0.000E+00  -1.192E-02
 745  8.82696384   0.688  -1.72098   3.54346   6.91463   1.87066   0.03254   1.011E+00   0.000E+00  -1.186E-02
 746  8.82809464   0.688  -1.72095   3.54346   6.91461   1.87058   0.03254   1.011E+00   0.000E+00  -1.180E-02
 747  8.82922250   0.688  -1.72093   3.54346   6.91460   1.87050   0.03254   1.011E+00   0.000E+00  -1.175E-02
 748  8.83034744   0.688  -1.72090   3.54346   6.91458   1.87042   0.03254   1.011E+00   0.000E+00  -1.169E-02
 749  8.83146947   0.688  -1.72087   3.54345   6.91457   1.87034   0.03254   1.011E+00   0.000E+00  -1.163E-02
 750  8.83258861   0.688  -1.72085   3.54345   6.91455   1.87026   0.03254   1.011E+00   0.000E+00  -1.158E-02
 751  8.83370488   0.688  -1.72082   3.54345   6.91454   1.87018   0.03254   1.011E+00   0.000E+00  -1.152E-02
 752  8.83481828   0.688  -1.72080   3.54345   6.91453   1.87010   0.03254   1.011E+00   0.000E+00  -1.146E-02
 753  8.83592884   0.688  -1.72077   3.54345   6.91451   1.87002   0.03254   1.011E+00   0.000E+00  -1.141E-02
 754  8.83703657   0.688  -1.72074   3.54345   6.91450   1.86994   0.03254   1.011E+00   0.000E+00  -1.135E-02
 755  8.83814147   0.688  -1.72072   3.54344   6.91448   1.86986   0.03254   1.011E+00   0.000E+00  -1.130E-02
 756  8.83924357   0.688  -1.72069   3.54344   6.91447   1.86978   0.03254   1.011E+00   0.000E+00  -1.124E-02
 757  8.84034289   0.687  -1.72067   3.54344   6.91445   1.86969   0.03254   1.011E+00   0.000E+00  -1.118E-02
 758  8.84143942   0.687  -1.72064   3.54344   6.91444   1.86961   0.03254   1.011E+00   0.000E+00  -1.113E-02
 759  8.84253320   0.687  -1.72062   3.54344   6.91443   1.86953   0.03254   1.011E+00   0.000E+00  -1.107E-02
 760  8.84362423   0.687  -1.72059   3.54344   6.91441   1.86945   0.03254   1.011E+00   0.000E+00  -1.101E-02
 761  8.84471252   0.687  -1.72056   3.54343   6.91440   1.86937   0.03254   1.011E+00   0.000E+00  -1.096E-02
 762  8.84579809   0.687  -1.72054   3.54343   6.91438   1.86929   0.03254   1.011E+00   0.000E+00  -1.090E-02
 763  8.84688096   0.687  -1.72051   3.54343   6.91437   1.86921   0.03254   1.011E+00   0.000E+00  -1.084E-02
 764  8.84796113   0.687  -1.72049   3.54343   6.91435   1.86913   0.03254   1.010E+00   0.000E+00  -1.079E-02
 765  8.84903863   0.687  -1.72046   3.54343   6.91434   1.86905   0.03254   1.010E+00   0.000E+00  -1.073E-02
 766  8.85011345   0.687  -1.72043   3.54343   6.91432   1.86897   0.03254   1.010E+00   0.000E+00  -1.067E-02
 767  8.85118563   0.687  -1.72041   3.54342   6.91431   1.86889   0.03254   1.010E+00   0.000E+00  -1.062E-02
 768  8.85225516   0.687  -1.72038   3.54342   6.91430   1.86881   0.03254   1.010E+00   0.000E+00  -1.056E-02
 769  8.85332206   0.687  -1.72036   3.54342   6.91428   1.86873   0.03254   1.010E+00   0.000E+00  -1.051E-02
 770  8.85438635   0.687  -1.72033   3.54342   6.91427   1.86864   0.03254   1.010E+00   0.000E+00  -1.045E-02
 771  8.85544804   0.687  -1.72031   3.54342   6.91425   1.86856   0.03254   1.010E+00   0.000E+00  -1.039E-02
 772  8.85650714   0.687  -1.72028   3.54342   6.91424   1.86848   0.03254   1.010E+00   0.000E+00  -1.034E-02
 773  8.85756367   0.687  -1.72025   3.54341   6.91422   1.86840   0.03254   1.010E+00   0.000E+00  -1.028E-02
 774  8.85861762   0.687  -1.72023   3.54341   6.91421   1.86832   0.03254   1.010E+00   0.000E+00  -1.022E-02
 775  8.85966903   0.687  -1.72020   3.54341   6.91419   1.86824   0.03254   1.010E+00   0.000E+00  -1.017E-02
 776  8.86071790   0.687  -1.72018   3.54341   6.91418   1.86816   0.03254   1.010E+00   0.000E+00  -1.011E-02
 777  8.86176424   0.687  -1.72015   3.54341   6.91417   1.86808   0.03254   1.010E+00   0.000E+00  -1.005E-02
 778  8.86280807   0.687  -1.72013   3.54341   6.91415   1.86800   0.03254   1.010E+00   0.000E+00  -9.998E-03
 779  8.86384939   0.687  -1.72010   3.54340   6.91414   1.86792   0.03254   1.010E+00   0.000E+00  -9.941E-03
 780  8.86488822   0.687  -1.72007   3.54340   6.91412   1.86784   0.03254   1.010E+00   0.000E+00  -9.885E-03
 781  8.86592458   0.687  -1.72005   3.54340   6.91411   1.86776   0.03254   1.010E+00   0.000E+00  -9.828E-03
 782  8.86695846   0.687  -1.72002   3.54340   6.91409   1.86768   0.03254   1.010E+00   0.000E+00  -9.772E-03
 783  8.86798990   0.687  -1.72000   3.54340   6.91408   1.86760   0.03254   1.010E+00   0.000E+00  -9.716E-03
 784  8.86901888   0.687  -1.71997   3.54340   6.91407   1.86751   0.03254   1.010E+00   0.000E+00  -9.659E-03
 785  8.87004544   0.687  -1.71994   3.54340   6.91405   1.86743   0.03254   1.009E+00   0.000E+00  -9.603E-03
 786  8.87106957   0.687  -1.71992   3.54339   6.91404   1.86735   0.03254   1.009E+00   0.000E+00  -9.546E-03
 787  8.87209130   0.687  -1.71989   3.54339   6.91402   1.86727   0.03254   1.009E+00   0.000E+00  -9.490E-03
 788  8.87311062   0.687  -1.71987   3.54339   6.91401   1.86719   0.03254   1.009E+00   0.000E+00  -9.434E-03
 789  8.87412756   0.687  -1.71984   3.54339   6.91399   1.86711   0.03254   1.009E+00   0.000E+00  -9.377E-03
 790  8.87514213   0.687  -1.71982   3.54339   6.91398   1.86703   0.03254   1.009E+00   0.000E+00  -9.321E-03
 791  8.87615433   0.687  -1.71979   3.54339   6.91396   1.86695   0.03254   1.009E+00   0.000E+00  -9.264E-03
 792  8.87716417   0.687  -1.71976   3.54338   6.91395   1.86687   0.03254   1.009E+00   0.000E+00  -9.208E-03
 793  8.87817168   0.687  -1.71974   3.54338   6.91394   1.86679   0.03254   1.009E+00   0.000E+00  -9.151E-03
 794  8.87917685   0.687  -1.71971   3.54338   6.91392   1.86671   0.03254   1.009E+00   0.000E+00  -9.095E-03
 795  8.88017970   0.687  -1.71969   3.54338   6.91391   1.86665   0.03254   1.009E+00   0.000E+00  -9.054E-03
 796  8.88118024   0.687  -1.71967   3.54338   6.91390   1.86660   0.03254   1.009E+00   0.000E+00  -9.015E-03
 797  8.88217848   0.687  -1.71965   3.54338   6.91389   1.86655   0.03254   1.009E+00   0.000E+00  -8.975E-03
 798  8.88317443   0.687  -1.71964   3.54338   6.91388   1.86650   0.03254   1.009E+00   0.000E+00  -8.936E-03
 799  8.88416810   0.687  -1.71962   3.54338   6.91387   1.86645   0.03254   1.009E+00   0.000E+00  -8.897E-03
 800  8.88515951   0.687  -1.71960   3.54337   6.91386   1.86640   0.03254   1.009E+00   0.000E+00  -8.857E-03
 801  8.88614865   0.687  -1.71958   3.54337   6.91385   1.86634   0.03254   1.009E+00   0.000E+00  -8.818E-03
 802  8.88713555   0.687  -1.71956   3.54337   6.91384   1.86629   0.03254   1.009E+00   0.000E+00  -8.779E-03
 803  8.88812021   0.687  -1.71954   3.54337   6.91383   1.86624   0.03254   1.009E+00   0.000E+00  -8.739E-03
 804  8.88910265   0.687  -1.71952   3.54337   6.91383   1.86619   0.03254   1.009E+00   0.000E+00  -8.700E-03
 805  8.89008286   0.687  -1.71950   3.54337   6.91382   1.86614   0.03254   1.009E+00   0.000E+00  -8.661E-03
 806  8.89106087   0.687  -1.71948   3.54337   6.91381   1.86609   0.03254   1.009E+00   0.000E+00  -8.621E-03
 807  8.89203668   0.687  -1.71946   3.54337   6.91380   1.86604   0.03254   1.009E+00   0.000E+00  -8.582E-03
 808  8.89301030   0.687  -1.71944   3.54337   6.91379   1.86598   0.03254   1.008E+00   0.000E+00  -8.543E-03
 809  8.89398175   0.687  -1.71943   3.54337   6.91378   1.86593   0.03254   1.008E+00   0.000E+00  -8.503E-03
 810  8.89495103   0.687  -1.71941   3.54337   6.91377   1.86588   0.03254   1.008E+00   0.000E+00  -8.464E-03
 811  8.89591815   0.687  -1.71939   3.54336   6.91376   1.86583   0.03254   1.008E+00   0.000E+00  -8.425E-03
 812  8.89688312   0.687  -1.71937   3.54336   6.91375   1.86578   0.03254   1.008E+00   0.000E+00  -8.385E-03
 813  8.89784595   0.687  -1.71935   3.54336   6.91374   1.86573   0.03254   1.008E+00   0.000E+00  -8.346E-03
 814  8.89880665   0.687  -1.71933   3.54336   6.91373   1.86568   0.03254   1.008E+00   0.000E+00  -8.307E-03
 815  8.89976523   0.687  -1.71931   3.54336   6.91372   1.86562   0.03254   1.008E+00   0.000E+00  -8.267E-03
 816  8.90072170   0.687  -1.71929   3.54336   6.91371   1.86557   0.03254   1.008E+00   0.000E+00  -8.228E-03
 817  8.90167606   0.687  -1.71927   3.54336   6.91370   1.86552   0.03254   1.008E+00   0.000E+00  -8.189E-03
 818  8.90262834   0.687  -1.71925   3.54336   6.91369   1.86547   0.03254   1.008E+00   0.000E+00  -8.149E-03
 819  8.90357853   0.687  -1.71923   3.54336   6.91368   1.86542   0.03254   1.008E+00   0.000E+00  -8.110E-03
 820  8.90452665   0.687  -1.71922   3.54336   6.91367   1.86537   0.03254   1.008E+00   0.000E+00  -8.071E-03
 821  8.90547270   0.687  -1.71920   3.54336   6.91366   1.86532   0.03254   1.008E+00   0.000E+00  -8.031E-03
 822  8.90641669   0.687  -1.71918   3.54335   6.91365   1.86526   0.03254   1.008E+00   0.000E+00  -7.992E-03
 823  8.90735864   0.687  -1.71916   3.54335   6.91364   1.86521   0.03254   1.008E+00   0.000E+00  -7.953E-03
 824  8.90829855   0.687  -1.71914   3.54335   6.91363   1.86516   0.03254   1.008E+00   0.000E+00  -7.913E-03
 825  8.90923643   0.687  -1.71912   3.54335   6.91363   1.86511   0.03254   1.008E+00   0.000E+00  -7.874E-03
 826  8.91017229   0.687  -1.71910   3.54335   6.91362   1.86506   0.03254   1.008E+00   0.000E+00  -7.835E-03
 827  8.91110613   0.687  -1.71908   3.54335   6.91361   1.86501   0.03254   1.008E+00   0.000E+00  -7.795E-03
 828  8.91203798   0.687  -1.71906   3.54335   6.91360   1.86496   0.03254   1.008E+00   0.000E+00  -7.756E-03
 829  8.91296782   0.687  -1.71904   3.54335   6.91359   1.86490   0.03254   1.008E+00   0.000E+00  -7.717E-03
 830  8.91389568   0.687  -1.71902   3.54335   6.91358   1.86485   0.03254   1.008E+00   0.000E+00  -7.677E-03
 831  8.91482157   0.687  -1.71901   3.54335   6.91357   1.86480   0.03254   1.008E+00   0.000E+00  -7.638E-03
 832  8.91574548   0.687  -1.71899   3.54335   6.91356   1.86475   0.03254   1.008E+00   0.000E+00  -7.599E-03
 833  8.91666743   0.687  -1.71897   3.54334   6.91355   1.86470   0.03254   1.007E+00   0.000E+00  -7.559E-03
 834  8.91758743   0.687  -1.71895   3.54334   6.91354   1.86465   0.03254   1.007E+00   0.000E+00  -7.520E-03
 835  8.91850548   0.687  -1.71893   3.54334   6.91353   1.86459   0.03254   1.007E+00   0.000E+00  -7.481E-03
 836  8.91942160   0.687  -1.71891   3.54334   6.91352   1.86454   0.03254   1.007E+00   0.000E+00  -7.441E-03
 837  8.92033579   0.687  -1.71889   3.54334   6.91351   1.86449   0.03254   1.007E+00   0.000E+00  -7.402E-03
 838  8.92124805   0.687  -1.71887   3.54334   6.91350   1.86444   0.03254   1.007E+00   0.000E+00  -7.363E-03
 839  8.92215841   0.687  -1.71885   3.54334   6.91349   1.86439   0.03254   1.007E+00   0.000E+00  -7.323E-03
 840  8.92306686   0.687  -1.71883   3.54334   6.91348   1.86434   0.03254   1.007E+00   0.000E+00  -7.284E-03
 841  8.92397342   0.687  -1.71881   3.54334   6.91347   1.86429   0.03254   1.007E+00   0.000E+00  -7.245E-03
 842  8.92487808   0.687  -1.71880   3.54334   6.91346   1.86423   0.03254   1.007E+00   0.000E+00  -7.205E-03
 843  8.92578087   0.687  -1.71878   3.54334   6.91345   1.86418   0.03254   1.007E+00   0.000E+00  -7.166E-03
 844  8.92668178   0.687  -1.71876   3.54333   6.91344   1.86413   0.03254   1.007E+00   0.000E+00  -7.127E-03
 845  8.92758083   0.687  -1.71874   3.54333   6.91343   1.86408   0.03254   1.007E+00   0.000E+00  -7.087E-03
 846  8.92847802   0.687  -1.71872   3.54333   6.91342   1.86403   0.03254   1.007E+00   0.000E+00  -7.048E-03
 847  8.92937337   0.687  -1.71870   3.54333   6.91342   1.86398   0.03254   1.007E+00   0.000E+00  -7.009E-03
 848  8.93026687   0.687  -1.71868   3.54333   6.91341   1.86393   0.03254   1.007E+00   0.000E+00  -6.969E-03
 849  8.93115853   0.687  -1.71866   3.54333   6.91340   1.86387   0.03254   1.007E+00   0.000E+00  -6.930E-03
 850  8.93204837   0.687  -1.71864   3.54333   6.91339   1.86382   0.03254   1.007E+00   0.000E+00  -6.891E-03
 851  8.93293639   0.687  -1.71862   3.54333   6.91338   1.86377   0.03254   1.007E+00   0.000E+00  -6.851E-03
 852  8.93382259   0.687  -1.71860   3.54333   6.91337   1.86372   0.03254   1.007E+00   0.000E+00  -6.812E-03
 853  8.93470700   0.686  -1.71859   3.54333   6.91336   1.86367   0.03254   1.007E+00   0.000E+00  -6.773E-03
 854  8.93558960   0.686  -1.71857   3.54333   6.91335   1.86362   0.03254   1.007E+00   0.000E+00  -6.733E-03
 855  8.93647041   0.686  -1.71855   3.54333   6.91334   1.86357   0.03254   1.007E+00   0.000E+00  -6.694E-03
 856  8.93734945   0.686  -1.71853   3.54332   6.91333   1.86351   0.03254   1.007E+00   0.000E+00  -6.655E-03
 857  8.93822670   0.686  -1.71851   3.54332   6.91332   1.86346   0.03254   1.007E+00   0.000E+00  -6.615E-03
 858  8.93910219   0.686  -1.71849   3.54332   6.91331   1.86341   0.03254   1.007E+00   0.000E+00  -6.576E-03
 859  8.93997592   0.686  -1.71847   3.54332   6.91330   1.86336   0.03254   1.006E+00   0.000E+00  -6.537E-03
 860  8.94084789   0.686  -1.71845   3.54332   6.91329   1.86331   0.03254   1.006E+00   0.000E+00  -6.497E-03
 861  8.94171811   0.686  -1.71843   3.54332   6.91328   1.86326   0.03254   1.006E+00   0.000E+00  -6.458E-03
 862  8.94258660   0.686  -1.71841   3.54332   6.91327   1.86321   0.03254   1.006E+00   0.000E+00  -6.419E-03
 863  8.94345335   0.686  -1.71839   3.54332   6.91326   1.86315   0.03254   1.006E+00   0.000E+00  -6.379E-03
 864  8.94431837   0.686  -1.71838   3.54332   6.91325   1.86310   0.03254   1.006E+00   0.000E+00  -6.340E-03
 865  8.94518168   0.686  -1.71836   3.54332   6.91324   1.86305   0.03254   1.006E+00   0.000E+00  -6.301E-03
 866  8.94604327   0.686  -1.71834   3.54332   6.91323   1.86300   0.03254   1.006E+00   0.000E+00  -6.261E-03
 867  8.94690316   0.686  -1.71832   3.54331   6.91322   1.86295   0.03254   1.006E+00   0.000E+00  -6.222E-03
 868  8.94776135   0.686  -1.71830   3.54331   6.91321   1.86290   0.03254   1.006E+00   0.000E+00  -6.183E-03
 869  8.94861784   0.686  -1.71828   3.54331   6.91321   1.86285   0.03254   1.006E+00   0.000E+00  -6.143E-03
 870  8.94947265   0.686  -1.71826   3.54331   6.91320   1.86279   0.03254   1.006E+00   0.000E+00  -6.104E-03
 871  8.95032578   0.686  -1.71824   3.54331   6.91319   1.86274   0.03254   1.006E+00   0.000E+00  -6.065E-03
 872  8.95117724   0.686  -1.71822   3.54331   6.91318   1.86270   0.03253   1.006E+00   0.000E+00  -6.033E-03
 873  8.95202703   0.686  -1.71821   3.54331   6.91317   1.86267   0.03252   1.006E+00   0.000E+00  -6.013E-03
 874  8.95287516   0.686  -1.71820   3.54331   6.91317   1.86263   0.03250   1.006E+00   0.000E+00  -5.993E-03
 875  8.95372164   0.686  -1.71818   3.54331   6.91316   1.86260   0.03248   1.006E+00   0.000E+00  -5.974E-03
 876  8.95456647   0.686  -1.71817   3.54331   6.91315   1.86257   0.03246   1.006E+00   0.000E+00  -5.954E-03
 877  8.95540966   0.686  -1.71815   3.54331   6.91315   1.86254   0.03244   1.006E+00   0.000E+00  -5.934E-03
 878  8.95625122   0.686  -1.71814   3.54331   6.91314   1.86251   0.03242   1.006E+00   0.000E+00  -5.915E-03
 879  8.95709115   0.686  -1.71813   3.54331   6.91314   1.86248   0.03241   1.006E+00   0.000E+00  -5.895E-03
 880  8.95792946   0.686  -1.71811   3.54331   6.91313   1.86244   0.03239   1.006E+00   0.000E+00  -5.875E-03
 881  8.95876616   0.686  -1.71810   3.54331   6.91312   1.86241   0.03237   1.006E+00   0.000E+00  -5.855E-03
 882  8.95960124   0.686  -1.71808   3.54331   6.91312   1.86238   0.03235   1.006E+00   0.000E+00  -5.836E-03
 883  8.96043472   0.686  -1.71807   3.54330   6.91311   1.86235   0.03233   1.006E+00   0.000E+00  -5.816E-03
 884  8.96126661   0.686  -1.71806   3.54330   6.91311   1.86232   0.03232   1.006E+00   0.000E+00  -5.796E-03
 885  8.96209690   0.686  -1.71804   3.54330   6.91310   1.86229   0.03230   1.006E+00   0.000E+00  -5.777E-03
 886  8.96292562   0.686  -1.71803   3.54330   6.91310   1.86225   0.03228   1.006E+00   0.000E+00  -5.757E-03
 887  8.96375275   0.686  -1.71802   3.54330   6.91309   1.86222   0.03226   1.006E+00   0.000E+00  -5.737E-03
 888  8.96457831   0.686  -1.71800   3.54330   6.91308   1.86219   0.03224   1.006E+00   0.000E+00  -5.718E-03
 889  8.96540230   0.686  -1.71799   3.54330   6.91308   1.86216   0.03222   1.006E+00   0.000E+00  -5.698E-03
 890  8.96622474   0.686  -1.71797   3.54330   6.91307   1.86213   0.03221   1.006E+00   0.000E+00  -5.678E-03
 891  8.96704562   0.686  -1.71796   3.54330   6.91307   1.86209   0.03219   1.006E+00   0.000E+00  -5.659E-03
 892  8.96786495   0.686  -1.71795   3.54330   6.91306   1.86206   0.03217   1.006E+00   0.000E+00  -5.639E-03
 893  8.96868273   0.686  -1.71793   3.54330   6.91305   1.86203   0.03215   1.006E+00   0.000E+00  -5.619E-03
 894  8.96949899   0.686  -1.71792   3.54330   6.91305   1.86200   0.03213   1.006E+00   0.000E+00  -5.599E-03
 895  8.97031370   0.686  -1.71790   3.54330   6.91304   1.86197   0.03212   1.006E+00   0.000E+00  -5.580E-03
 896  8.97112690   0.686  -1.71789   3.54330   6.91304   1.86194   0.03210   1.006E+00   0.000E+00  -5.560E-03
 897  8.97193857   0.686  -1.71788   3.54330   6.91303   1.86190   0.03208   1.006E+00   0.000E+00  -5.540E-03
 898  8.97274873   0.686  -1.71786   3.54330   6.91302   1.86187   0.03206   1.005E+00   0.000E+00  -5.521E-03
 899  8.97355738   0.686  -1.71785   3.54330   6.91302   1.86184   0.03204   1.005E+00   0.000E+00  -5.501E-03
 900  8.97436453   0.686  -1.71783   3.54330   6.91301   1.86181   0.03202   1.005E+00   0.000E+00  -5.481E-03
 901  8.97517018   0.686  -1.71782   3.54330   6.91301   1.86178   0.03201   1.005E+00   0.000E+00  -5.462E-03
 902  8.97597434   0.686  -1.71781   3.54330   6.91300   1.86174   0.03199   1.005E+00   0.000E+00  -5.442E-03
 903  8.97677702   0.686  -1.71779   3.54330   6.91299   1.86171   0.03197   1.005E+00   0.000E+00  -5.422E-03
 904  8.97757821   0.686  -1.71778   3.54329   6.91299   1.86168   0.03195   1.005E+00   0.000E+00  -5.403E-03
 905  8.97837793   0.686  -1.71776   3.54329   6.91298   1.86165   0.03193   1.005E+00   0.000E+00  -5.383E-03
 906  8.97917617   0.686  -1.71775   3.54329   6.91298   1.86162   0.03192   1.005E+00   0.000E+00  -5.363E-03
 907  8.97997296   0.686  -1.71774   3.54329   6.91297   1.86159   0.03190   1.005E+00   0.000E+00  -5.343E-03
 908  8.98076828   0.686  -1.71772   3.54329   6.91297   1.86155   0.03188   1.005E+00   0.000E+00  -5.324E-03
 909  8.98156215   0.686  -1.71771   3.54329   6.91296   1.86152   0.03186   1.005E+00   0.000E+00  -5.304E-03
 910  8.98235457   0.686  -1.71769   3.54329   6.91295   1.86149   0.03184   1.005E+00   0.000E+00  -5.284E-03
 911  8.98314555   0.686  -1.71768   3.54329   6.91295   1.86146   0.03182   1.005E+00   0.000E+00  -5.265E-03
 912  8.98393509   0.686  -1.71767   3.54329   6.91294   1.86143   0.03181   1.005E+00   0.000E+00  -5.245E-03
 913  8.98472320   0.686  -1.71765   3.54329   6.91294   1.86140   0.03179   1.005E+00   0.000E+00  -5.225E-03
 914  8.98550988   0.686  -1.71764   3.54329   6.91293   1.86136   0.03177   1.005E+00   0.000E+00  -5.206E-03
 915  8.98629513   0.686  -1.71762   3.54329   6.91292   1.86133   0.03175   1.005E+00   0.000E+00  -5.186E-03
 916  8.98707897   0.686  -1.71761   3.54329   6.91292   1.86130   0.03173   1.005E+00   0.000E+00  -5.166E-03
 917  8.98786140   0.686  -1.71760   3.54329   6.91291   1.86127   0.03172   1.005E+00   0.000E+00  -5.146E-03
 918  8.98864242   0.686  -1.71758   3.54329   6.91291   1.86124   0.03170   1.005E+00   0.000E+00  -5.127E-03
 919  8.98942204   0.686  -1.71757   3.54329   6.91290   1.86120   0.03168   1.005E+00   0.000E+00  -5.107E-03
 920  8.99020026   0.686  -1.71755   3.54329   6.91289   1.86117   0.03166   1.005E+00   0.000E+00  -5.087E-03
 921  8.99097709   0.686  -1.71754   3.54329   6.91289   1.86114   0.03164   1.005E+00   0.000E+00  -5.068E-03
 922  8.99175253   0.686  -1.71753   3.54329   6.91288   1.86111   0.03162   1.005E+00   0.000E+00  -5.048E-03
 923  8.99252660   0.686  -1.71751   3.54329   6.91288   1.86108   0.03161   1.005E+00   0.000E+00  -5.028E-03
 924  8.99329928   0.686  -1.71750   3.54329   6.91287   1.86105   0.03159   1.005E+00   0.000E+00  -5.009E-03
 925  8.99407059   0.686  -1.71748   3.54328   6.91287   1.86101   0.03157   1.005E+00   0.000E+00  -4.989E-03
 926  8.99484053   0.686  -1.71747   3.54328   6.91286   1.86098   0.03155   1.005E+00   0.000E+00  -4.969E-03
 927  8.99560911   0.686  -1.71746   3.54328   6.91285   1.86095   0.03153   1.005E+00   0.000E+00  -4.950E-03
 928  8.99637634   0.686  -1.71744   3.54328   6.91285   1.86092   0.03152   1.005E+00   0.000E+00  -4.930E-03
 929  8.99714221   0.686  -1.71743   3.54328   6.91284   1.86089   0.03150   1.005E+00   0.000E+00  -4.910E-03
 930  8.99790673   0.686  -1.71741   3.54328   6.91284   1.86086   0.03148   1.005E+00   0.000E+00  -4.890E-03
 931  8.99866991   0.686  -1.71740   3.54328   6.91283   1.86082   0.03146   1.005E+00   0.000E+00  -4.871E-03
 932  8.99943175   0.686  -1.71739   3.54328   6.91282   1.86079   0.03144   1.005E+00   0.000E+00  -4.851E-03
 933  9.00019225   0.686  -1.71737   3.54328   6.91282   1.86076   0.03142   1.005E+00   0.000E+00  -4.831E-03
 934  9.00095143   0.686  -1.71736   3.54328   6.91281   1.86073   0.03141   1.005E+00   0.000E+00  -4.812E-03
 935  9.00170928   0.686  -1.71734   3.54328   6.91281   1.86070   0.03139   1.005E+00   0.000E+00  -4.792E-03
 936  9.00246581   0.686  -1.71733   3.54328   6.91280   1.86066   0.03137   1.005E+00   0.000E+00  -4.772E-03
 937  9.00322103   0.686  -1.71732   3.54328   6.91279   1.86063   0.03135   1.005E+00   0.000E+00  -4.753E-03
 938  9.00397493   0.686  -1.71730   3.54328   6.91279   1.86060   0.03133   1.005E+00   0.000E+00  -4.733E-03
 939  9.00472753   0.686  -1.71729   3.54328   6.91278   1.86057   0.03132   1.005E+00   0.000E+00  -4.713E-03
 940  9.00547883   0.686  -1.71727   3.54328   6.91278   1.86054   0.03130   1.005E+00   0.000E+00  -4.694E-03
 941  9.00622883   0.686  -1.71726   3.54328   6.91277   1.86051   0.03128   1.005E+00   0.000E+00  -4.674E-03
 942  9.00697753   0.686  -1.71725   3.54328   6.91276   1.86047   0.03126   1.005E+00   0.000E+00  -4.654E-03
 943  9.00772495   0.686  -1.71723   3.54328   6.91276   1.86044   0.03124   1.005E+00   0.000E+00  -4.634E-03
 944  9.00847108   0.686  -1.71722   3.54328   6.91275   1.86041   0.03122   1.005E+00   0.000E+00  -4.615E-03
 945  9.00921594   0.686  -1.71720   3.54328   6.91275   1.86038   0.03121   1.005E+00   0.000E+00  -4.595E-03
 946  9.00995952   0.686  -1.71719   3.54327   6.91274   1.86035   0.03119   1.005E+00   0.000E+00  -4.575E-03
 947  9.01070182   0.686  -1.71718   3.54327   6.91274   1.86031   0.03117   1.005E+00   0.000E+00  -4.556E-03
 948  9.01144286   0.686  -1.71716   3.54327   6.91273   1.86028   0.03115   1.005E+00   0.000E+00  -4.536E-03
 949  9.01218264   0.686  -1.71715   3.54327   6.91272   1.86025   0.03113   1.005E+00   0.000E+00  -4.516E-03
 950  9.01292116   0.686  -1.71713   3.54327   6.91272   1.86022   0.03112   1.005E+00   0.000E+00  -4.497E-03
 951  9.01365843   0.686  -1.71712   3.54327   6.91271   1.86019   0.03110   1.004E+00   0.000E+00  -4.477E-03
 952  9.01439445   0.685  -1.71711   3.54327   6.91271   1.86016   0.03108   1.004E+00   0.000E+00  -4.457E-03
 953  9.01512922   0.685  -1.71709   3.54327   6.91270   1.86012   0.03106   1.004E+00   0.000E+00  -4.438E-03
 954  9.01586275   0.685  -1.71708   3.54327   6.91269   1.86009   0.03104   1.004E+00   0.000E+00  -4.418E-03
 955  9.01659504   0.685  -1.71706   3.54327   6.91269   1.86006   0.03103   1.004E+00   0.000E+00  -4.398E-03
 956  9.01732611   0.685  -1.71705   3.54327   6.91268   1.86003   0.03101   1.004E+00   0.000E+00  -4.378E-03
 957  9.01805594   0.685  -1.71704   3.54327   6.91268   1.86000   0.03099   1.004E+00   0.000E+00  -4.359E-03
 958  9.01878455   0.685  -1.71702   3.54327   6.91267   1.85997   0.03097   1.004E+00   0.000E+00  -4.339E-03
 959  9.01951194   0.685  -1.71701   3.54327   6.91266   1.85993   0.03095   1.004E+00   0.000E+00  -4.319E-03
 960  9.02023811   0.685  -1.71699   3.54327   6.91266   1.85990   0.03093   1.004E+00   0.000E+00  -4.300E-03
 961  9.02096307   0.685  -1.71698   3.54327   6.91265   1.85987   0.03092   1.004E+00   0.000E+00  -4.280E-03
 962  9.02168682   0.685  -1.71697   3.54327   6.91265   1.85984   0.03090   1.004E+00   0.000E+00  -4.260E-03
 963  9.02240937   0.685  -1.71695   3.54327   6.91264   1.85981   0.03088   1.004E+00   0.000E+00  -4.241E-03
 964  9.02313071   0.685  -1.71694   3.54327   6.91264   1.85977   0.03086   1.004E+00   0.000E+00  -4.221E-03
 965  9.02385086   0.685  -1.71692   3.54327   6.91263   1.85974   0.03084   1.004E+00   0.000E+00  -4.201E-03
 966  9.02456982   0.685  -1.71691   3.54327   6.91262   1.85971   0.03083   1.004E+00   0.000E+00  -4.181E-03
 967  9.02528759   0.685  -1.71690   3.54326   6.91262   1.85968   0.03081   1.004E+00   0.000E+00  -4.162E-03
 968  9.02600418   0.685  -1.71688   3.54326   6.91261   1.85965   0.03079   1.004E+00   0.000E+00  -4.142E-03
 969  9.02671959   0.685  -1.71687   3.54326   6.91261   1.85962   0.03077   1.004E+00   0.000E+00  -4.122E-03
 970  9.02743382   0.685  -1.71685   3.54326   6.91260   1.85958   0.03075   1.004E+00   0.000E+00  -4.103E-03
 971  9.02814687   0.685  -1.71684   3.54326   6.91259   1.85955   0.03073   1.004E+00   0.000E+00  -4.083E-03
 972  9.02885876   0.685  -1.71683   3.54326   6.91259   1.85952   0.03072   1.004E+00   0.000E+00  -4.063E-03
 973  9.02956948   0.685  -1.71681   3.54326   6.91258   1.85949   0.03070   1.004E+00   0.000E+00  -4.044E-03
 974  9.03027905   0.685  -1.71680   3.54326   6.91258   1.85946   0.03068   1.004E+00   0.000E+00  -4.024E-03
 975  9.03098745   0.685  -1.71678   3.54326   6.91257   1.85943   0.03066   1.004E+00   0.000E+00  -4.004E-03
 976  9.03169470   0.685  -1.71677   3.54326   6.91256   1.85939   0.03064   1.004E+00   0.000E+00  -3.985E-03
 977  9.03240080   0.685  -1.71676   3.54326   6.91256   1.85937   0.03063   1.004E+00   0.000E+00  -3.965E-03
 978  9.03310576   0.685  -1.71675   3.54326   6.91256   1.85936   0.03061   1.004E+00   0.000E+00  -3.945E-03
 979  9.03380957   0.685  -1.71674   3.54326   6.91255   1.85935   0.03060   1.004E+00   0.000E+00  -3.925E-03
 980  9.03451224   0.685  -1.71673   3.54326   6.91255   1.85934   0.03058   1.004E+00   0.000E+00  -3.906E-03
 981  9.03521378   0.685  -1.71672   3.54326   6.91255   1.85933   0.03057   1.004E+00   0.000E+00  -3.886E-03
 982  9.03591419   0.685  -1.71671   3.54326   6.91255   1.85932   0.03055   1.004E+00   0.000E+00  -3.866E-03
 983  9.03661347   0.685  -1.71670   3.54326   6.91254   1.85932   0.03054   1.004E+00   0.000E+00  -3.847E-03
 984  9.03731162   0.685  -1.71669   3.54326   6.91254   1.85931   0.03052   1.004E+00   0.000E+00  -3.827E-03
 985  9.03800866   0.685  -1.71668   3.54326   6.91254   1.85930   0.03051   1.004E+00   0.000E+00  -3.807E-03
 986  9.03870457   0.685  -1.71668   3.54326   6.91254   1.85929   0.03049   1.004E+00   0.000E+00  -3.788E-03
 987  9.03939938   0.685  -1.71667   3.54326   6.91253   1.85928   0.03048   1.004E+00   0.000E+00  -3.768E-03
 988  9.04009307   0.685  -1.71666   3.54326   6.91253   1.85927   0.03046   1.004E+00   0.000E+00  -3.748E-03
 989  9.04078566   0.685  -1.71665   3.54326   6.91253   1.85926   0.03045   1.004E+00   0.000E+00  -3.729E-03
 990  9.04147715   0.685  -1.71664   3.54326   6.91253   1.85926   0.03043   1.004E+00   0.000E+00  -3.709E-03
 991  9.04216753   0.685  -1.71663   3.54326   6.91252   1.85925   0.03042   1.004E+00   0.000E+00  -3.689E-03
 992  9.04285682   0.685  -1.71662   3.54326   6.91252   1.85924   0.03040   1.004E+00   0.000E+00  -3.669E-03
 993  9.04354502   0.685  -1.71661   3.54326   6.91252   1.85923   0.03039   1.004E+00   0.000E+00  -3.650E-03
 994  9.04423213   0.685  -1.71660   3.54326   6.91252   1.85922   0.03037   1.004E+00   0.000E+00  -3.630E-03
 995  9.04491816   0.685  -1.71659   3.54326   6.91251   1.85921   0.03036   1.004E+00   0.000E+00  -3.610E-03
 996  9.04560310   0.685  -1.71658   3.54326   6.91251   1.85920   0.03034   1.004E+00   0.000E+00  -3.591E-03
 997  9.04628696   0.685  -1.71658   3.54326   6.91251   1.85920   0.03033   1.004E+00   0.000E+00  -3.571E-03
 998  9.04696975   0.685  -1.71657   3.54326   6.91251   1.85919   0.03031   1.004E+00   0.000E+00  -3.551E-03
 999  9.04765147   0.685  -1.71656   3.54326   6.91250   1.85918   0.03030   1.004E+00   0.000E+00  -3.532E-03
1000  9.04833211   0.685  -1.71655   3.54326   6.91250   1.85917   0.03028   1.004E+00   0.000E+00  -3.512E-03
1001  9.04901170   0.685  -1.71654   3.54326   6.91250   1.85916   0.03027   1.004E+00   0.000E+00  -3.492E-03
1002  9.04969022   0.685  -1.71653   3.54326   6.91250   1.85915   0.03025   1.004E+00   0.000E+00  -3.473E-03
1003  9.05036768   0.685  -1.71652   3.54326   6.91249   1.85914   0.03024   1.004E+00   0.000E+00  -3.453E-03
1004  9.05104409   0.685  -1.71651   3.54326   6.91249   1.85914   0.03022   1.004E+00   0.000E+00  -3.433E-03
1005  9.05171945   0.685  -1.71650   3.54326   6.91249   1.85913   0.03021   1.004E+00   0.000E+00  -3.413E-03
1006  9.05239375   0.685  -1.71649   3.54326   6.91249   1.85912   0.03019   1.003E+00   0.000E+00  -3.394E-03
1007  9.05306702   0.685  -1.71648   3.54326   6.91248   1.85911   0.03018   1.003E+00   0.000E+00  -3.374E-03
1008  9.05373923   0.685  -1.71648   3.54326   6.91248   1.85910   0.03016   1.003E+00   0.000E+00  -3.354E-03
1009  9.05441042   0.685  -1.71647   3.54326   6.91248   1.85909   0.03015   1.003E+00   0.000E+00  -3.335E-03
1010  9.05508056   0.685  -1.71646   3.54326   6.91248   1.85908   0.03014   1.003E+00   0.000E+00  -3.315E-03
1011  9.05574967   0.685  -1.71645   3.54326   6.91247   1.85908   0.03012   1.003E+00   0.000E+00  -3.295E-03
1012  9.05641776   0.685  -1.71644   3.54326   6.91247   1.85907   0.03011   1.003E+00   0.000E+00  -3.276E-03
1013  9.05708482   0.685  -1.71643   3.54326   6.91247   1.85906   0.03009   1.003E+00   0.000E+00  -3.256E-03
1014  9.05775085   0.685  -1.71642   3.54326   6.91247   1.85905   0.03008   1.003E+00   0.000E+00  -3.236E-03
1015  9.05841586   0.685  -1.71641   3.54326   6.91246   1.85904   0.03006   1.003E+00   0.000E+00  -3.217E-03
1016  9.05907986   0.685  -1.71640   3.54326   6.91246   1.85903   0.03005   1.003E+00   0.000E+00  -3.197E-03
1017  9.05974285   0.685  -1.71639   3.54326   6.91246   1.85902   0.03003   1.003E+00   0.000E+00  -3.177E-03
1018  9.06040482   0.685  -1.71638   3.54326   6.91246   1.85902   0.03002   1.003E+00   0.000E+00  -3.157E-03
1019  9.06106579   0.685  -1.71638   3.54326   6.91245   1.85901   0.03000   1.003E+00   0.000E+00  -3.138E-03
1020  9.06172575   0.685  -1.71637   3.54326   6.91245   1.85900   0.02999   1.003E+00   0.000E+00  -3.118E-03
1021  9.06238471   0.685  -1.71636   3.54326   6.91245   1.85899   0.02997   1.003E+00   0.000E+00  -3.098E-03
1022  9.06304267   0.685  -1.71635   3.54326   6.91245   1.85898   0.02996   1.003E+00   0.000E+00  -3.079E-03
1023  9.06369964   0.685  -1.71634   3.54326   6.91244   1.85897   0.02994   1.003E+00   0.000E+00  -3.059E-03
1024  9.06435561   0.685  -1.71633   3.54326   6.91244   1.85896   0.02993   1.003E+00   0.000E+00  -3.039E-03
1025  9.06501060   0.685  -1.71632   3.54326   6.91244   1.85896   0.02991   1.003E+00   0.000E+00  -3.020E-03
1026  9.06566459   0.685  -1.71631   3.54326   6.91243   1.85895   0.02990   1.003E+00   0.000E+00  -3.000E-03
1027  9.06631761   0.685  -1.71630   3.54326   6.91243   1.85894   0.02988   1.003E+00   0.000E+00  -2.980E-03
1028  9.06696964   0.685  -1.71629   3.54326   6.91243   1.85893   0.02987   1.003E+00   0.000E+00  -2.961E-03
1029  9.06762070   0.685  -1.71628   3.54326   6.91243   1.85892   0.02985   1.003E+00   0.000E+00  -2.941E-03
1030  9.06827078   0.685  -1.71628   3.54326   6.91242   1.85891   0.02984   1.003E+00   0.000E+00  -2.921E-03
1031  9.06891990   0.685  -1.71627   3.54326   6.91242   1.85890   0.02982   1.003E+00   0.000E+00  -2.902E-03
1032  9.06956804   0.685  -1.71626   3.54326   6.91242   1.85890   0.02981   1.003E+00   0.000E+00  -2.882E-03
1033  9.07021522   0.685  -1.71625   3.54326   6.91242   1.85889   0.02979   1.003E+00   0.000E+00  -2.862E-03
1034  9.07086143   0.685  -1.71624   3.54327   6.91241   1.85888   0.02978   1.003E+00   0.000E+00  -2.842E-03
1035  9.07150668   0.685  -1.71623   3.54327   6.91241   1.85887   0.02976   1.003E+00   0.000E+00  -2.823E-03
1036  9.07215098   0.685  -1.71622   3.54327   6.91241   1.85886   0.02975   1.003E+00   0.000E+00  -2.803E-03
1037  9.07279432   0.685  -1.71621   3.54327   6.91241   1.85885   0.02973   1.003E+00   0.000E+00  -2.783E-03
1038  9.07343671   0.685  -1.71620   3.54327   6.91240   1.85884   0.02972   1.003E+00   0.000E+00  -2.764E-03
1039  9.07407815   0.685  -1.71619   3.54327   6.91240   1.85884   0.02970   1.003E+00   0.000E+00  -2.744E-03
1040  9.07471865   0.685  -1.71618   3.54327   6.91240   1.85883   0.02969   1.003E+00   0.000E+00  -2.724E-03
1041  9.07535820   0.685  -1.71618   3.54327   6.91240   1.85882   0.02967   1.003E+00   0.000E+00  -2.705E-03
1042  9.07599681   0.685  -1.71617   3.54327   6.91239   1.85881   0.02966   1.003E+00   0.000E+00  -2.685E-03
1043  9.07663449   0.685  -1.71616   3.54327   6.91239   1.85880   0.02964   1.003E+00   0.000E+00  -2.665E-03
1044  9.07727123   0.685  -1.71615   3.54327   6.91239   1.85879   0.02963   1.003E+00   0.000E+00  -2.646E-03
1045  9.07790703   0.685  -1.71614   3.54327   6.91239   1.85878   0.02961   1.003E+00   0.000E+00  -2.626E-03
1046  9.07854191   0.685  -1.71613   3.54327   6.91238   1.85878   0.02960   1.003E+00   0.000E+00  -2.606E-03
1047  9.07917586   0.685  -1.71612   3.54327   6.91238   1.85877   0.02958   1.003E+00   0.000E+00  -2.586E-03
1048  9.07980889   0.685  -1.71611   3.54327   6.91238   1.85876   0.02957   1.003E+00   0.000E+00  -2.567E-03
1049  9.08044099   0.685  -1.71610   3.54327   6.91238   1.85875   0.02955   1.003E+00   0.000E+00  -2.547E-03
1050  9.08107218   0.685  -1.71609   3.54327   6.91237   1.85874   0.02954   1.003E+00   0.000E+00  -2.527E-03
1051  9.08170245   0.684  -1.71608   3.54327   6.91237   1.85873   0.02953   1.003E+00   0.000E+00  -2.508E-03
1052  9.08233181   0.684  -1.71607   3.54327   6.91237   1.85872   0.02951   1.003E+00   0.000E+00  -2.488E-03
1053  9.08296026   0.684  -1.71607   3.54327   6.91237   1.85872   0.02950   1.003E+00   0.000E+00  -2.468E-03
1054  9.08358779   0.684  -1.71606   3.54327   6.91236   1.85871   0.02948   1.003E+00   0.000E+00  -2.449E-03
1055  9.08421443   0.684  -1.71605   3.54327   6.91236   1.85870   0.02947   1.003E+00   0.000E+00  -2.429E-03
1056  9.08484016   0.684  -1.71604   3.54327   6.91236   1.85869   0.02945   1.003E+00   0.000E+00  -2.409E-03
1057  9.08546499   0.684  -1.71603   3.54327   6.91236   1.85868   0.02944   1.003E+00   0.000E+00  -2.390E-03
1058  9.08608892   0.684  -1.71602   3.54327   6.91235   1.85867   0.02942   1.003E+00   0.000E+00  -2.370E-03
1059  9.08671196   0.684  -1.71601   3.54327   6.91235   1.85866   0.02941   1.003E+00   0.000E+00  -2.350E-03
1060  9.08733410   0.684  -1.71600   3.54327   6.91235   1.85866   0.02939   1.003E+00   0.000E+00  -2.330E-03
1061  9.08795536   0.684  -1.71599   3.54327   6.91235   1.85865   0.02938   1.003E+00   0.000E+00  -2.311E-03
1062  9.08857572   0.684  -1.71598   3.54327   6.91234   1.85864   0.02936   1.003E+00   0.000E+00  -2.291E-03
1063  9.08919521   0.684  -1.71597   3.54327   6.91234   1.85863   0.02935   1.002E+00   0.000E+00  -2.271E-03
1064  9.08981381   0.684  -1.71597   3.54327   6.91234   1.85862   0.02933   1.002E+00   0.000E+00  -2.252E-03
1065  9.09043153   0.684  -1.71596   3.54327   6.91234   1.85861   0.02932   1.002E+00   0.000E+00  -2.232E-03
1066  9.09104837   0.684  -1.71595   3.54327   6.91233   1.85860   0.02930   1.002E+00   0.000E+00  -2.212E-03
1067  9.09166434   0.684  -1.71594   3.54327   6.91233   1.85860   0.02929   1.002E+00   0.000E+00  -2.193E-03
1068  9.09227943   0.684  -1.71593   3.54327   6.91233   1.85859   0.02927   1.002E+00   0.000E+00  -2.173E-03
1069  9.09289366   0.684  -1.71592   3.54327   6.91233   1.85858   0.02926   1.002E+00   0.000E+00  -2.153E-03
1070  9.09350702   0.684  -1.71591   3.54327   6.91232   1.85857   0.02924   1.002E+00   0.000E+00  -2.134E-03
1071  9.09411951   0.684  -1.71590   3.54327   6.91232   1.85856   0.02923   1.002E+00   0.000E+00  -2.114E-03
1072  9.09473114   0.684  -1.71589   3.54327   6.91232   1.85855   0.02921   1.002E+00   0.000E+00  -2.094E-03
1073  9.09534191   0.684  -1.71588   3.54327   6.91232   1.85854   0.02920   1.002E+00   0.000E+00  -2.074E-03
1074  9.09595182   0.684  -1.71587   3.54327   6.91231   1.85854   0.02918   1.002E+00   0.000E+00  -2.055E-03
1075  9.09656088   0.684  -1.71587   3.54327   6.91231   1.85853   0.02917   1.002E+00   0.000E+00  -2.035E-03
1076  9.09716909   0.684  -1.71586   3.54327   6.91231   1.85852   0.02915   1.002E+00   0.000E+00  -2.015E-03
1077  9.09777644   0.684  -1.71585   3.54327   6.91231   1.85851   0.02914   1.002E+00   0.000E+00  -1.996E-03
1078  9.09838295   0.684  -1.71584   3.54327   6.91230   1.85850   0.02912   1.002E+00   0.000E+00  -1.976E-03
1079  9.09898860   0.684  -1.71583   3.54327   6.91230   1.85849   0.02911   1.002E+00   0.000E+00  -1.956E-03
1080  9.09959342   0.684  -1.71582   3.54327   6.91230   1.85848   0.02909   1.002E+00   0.000E+00  -1.937E-03
1081  9.10019740   0.684  -1.71581   3.54327   6.91230   1.85848   0.02908   1.002E+00   0.000E+00  -1.917E-03
1082  9.10080053   0.684  -1.71580   3.54327   6.91229   1.85847   0.02906   1.002E+00   0.000E+00  -1.897E-03
1083  9.10140283   0.684  -1.71579   3.54327   6.91229   1.85846   0.02905   1.002E+00   0.000E+00  -1.878E-03
1084  9.10200430   0.684  -1.71578   3.54327   6.91229   1.85845   0.02903   1.002E+00   0.000E+00  -1.858E-03
1085  9.10260493   0.684  -1.71577   3.54327   6.91229   1.85844   0.02902   1.002E+00   0.000E+00  -1.838E-03
1086  9.10320474   0.684  -1.71577   3.54327   6.91228   1.85843   0.02900   1.002E+00   0.000E+00  -1.818E-03
1087  9.10380371   0.684  -1.71576   3.54327   6.91228   1.85842   0.02899   1.002E+00   0.000E+00  -1.799E-03
1088  9.10440187   0.684  -1.71575   3.54327   6.91228   1.85842   0.02897   1.002E+00   0.000E+00  -1.779E-03
1089  9.10499920   0.684  -1.71574   3.54327   6.91228   1.85841   0.02896   1.002E+00   0.000E+00  -1.759E-03
1090  9.10559570   0.684  -1.71573   3.54327   6.91227   1.85840   0.02894   1.002E+00   0.000E+00  -1.740E-03
1091  9.10619140   0.684  -1.71572   3.54327   6.91227   1.85839   0.02893   1.002E+00   0.000E+00  -1.720E-03
