 # M = 0.60 Mo, Y = 0.2880, Z = 2.00000E-02, alpha = 1.68, X_D = 4.0E-05
 # Solar Mixture: Asplund et al. (2005)         
 # ------------------------------------------------------------------------------------------------------------
 # NMD   LOG AGE    Xc      LOG L     LOG TE    LOG Tc   LOG RHOc    M-CC       L-PP       L-CNO       L-GRA
 #        (yr)              (Lo)        (K)       (K)   (gr/cm^3)    (Mo)        (L)         (L)         (L)
 # ------------------------------------------------------------------------------------------------------------
   1  4.94566589   0.692   0.61477   3.60567   6.06997  -1.10381   0.00000   9.370E-01   0.000E+00   6.270E-02
   2  5.11892462   0.692   0.60623   3.60575   6.07423  -1.09100   0.00000   9.330E-01   0.000E+00   6.670E-02
   3  5.24244013   0.692   0.59860   3.60582   6.07804  -1.07957   0.00000   9.370E-01   0.000E+00   6.289E-02
   4  5.33849396   0.692   0.59159   3.60588   6.08153  -1.06908   0.00000   9.408E-01   0.000E+00   5.912E-02
   5  5.41710349   0.692   0.58520   3.60593   6.08471  -1.05954   0.00000   9.443E-01   0.000E+00   5.538E-02
   6  5.48364144   0.692   0.57905   3.60598   6.08776  -1.05036   0.00000   9.475E-01   0.000E+00   5.213E-02
   7  5.54132651   0.692   0.57360   3.60602   6.09046  -1.04225   0.00000   9.494E-01   0.000E+00   5.027E-02
   8  5.59224019   0.692   0.56816   3.60606   6.09316  -1.03413   0.00000   9.513E-01   0.000E+00   4.842E-02
   9  5.63780652   0.692   0.56274   3.60609   6.09584  -1.02606   0.00000   9.530E-01   0.000E+00   4.681E-02
  10  5.67904274   0.692   0.55755   3.60613   6.09841  -1.01835   0.00000   9.530E-01   0.000E+00   4.686E-02
  11  5.71670087   0.692   0.55237   3.60617   6.10098  -1.01063   0.00000   9.530E-01   0.000E+00   4.692E-02
  12  5.75135258   0.692   0.54718   3.60620   6.10355  -1.00291   0.00000   9.530E-01   0.000E+00   4.697E-02
  13  5.78344261   0.692   0.54189   3.60623   6.10616  -0.99506   0.00000   9.524E-01   0.000E+00   4.759E-02
  14  5.81332379   0.692   0.53647   3.60626   6.10883  -0.98703   0.00000   9.511E-01   0.000E+00   4.888E-02
  15  5.84128071   0.692   0.53105   3.60629   6.11150  -0.97901   0.00000   9.498E-01   0.000E+00   5.018E-02
  16  5.86754629   0.692   0.52563   3.60632   6.11417  -0.97099   0.00000   9.485E-01   0.000E+00   5.148E-02
  17  5.89231354   0.692   0.51980   3.60634   6.11704  -0.96240   0.00000   9.464E-01   0.000E+00   5.368E-02
  18  5.91574422   0.692   0.51370   3.60636   6.12002  -0.95342   0.00000   9.437E-01   0.000E+00   5.650E-02
  19  5.93797525   0.692   0.50760   3.60639   6.12301  -0.94445   0.00000   9.410E-01   0.000E+00   5.932E-02
  20  5.95912349   0.692   0.50150   3.60641   6.12600  -0.93548   0.00000   9.383E-01   0.000E+00   6.214E-02
  21  5.97928955   0.692   0.49436   3.60643   6.12949  -0.92500   0.00000   9.330E-01   0.000E+00   6.719E-02
  22  5.99856062   0.692   0.48711   3.60645   6.13303  -0.91436   0.00000   9.275E-01   0.000E+00   7.246E-02
  23  6.01701278   0.692   0.47987   3.60647   6.13657  -0.90373   0.00000   9.220E-01   0.000E+00   7.774E-02
  24  6.03471280   0.692   0.47152   3.60648   6.14062  -0.89155   0.00000   9.141E-01   0.000E+00   8.569E-02
  25  6.05171960   0.692   0.46252   3.60648   6.14498  -0.87846   0.00000   9.047E-01   0.000E+00   9.522E-02
  26  6.06808544   0.692   0.45352   3.60648   6.14934  -0.86537   0.00000   8.952E-01   0.000E+00   1.047E-01
  27  6.08385689   0.692   0.44243   3.60647   6.15468  -0.84930   0.00000   8.784E-01   0.000E+00   1.216E-01
  28  6.09907561   0.692   0.43101   3.60646   6.16018  -0.83278   0.00000   8.604E-01   0.000E+00   1.396E-01
  29  6.11377903   0.692   0.41760   3.60644   6.16663  -0.81340   0.00000   8.334E-01   0.000E+00   1.666E-01
  30  6.12800092   0.692   0.40308   3.60641   6.17361  -0.79246   0.00000   8.014E-01   0.000E+00   1.986E-01
  31  6.14177181   0.692   0.38511   3.60631   6.18215  -0.76680   0.00000   7.500E-01   0.000E+00   2.500E-01
  32  6.15511943   0.692   0.36460   3.60618   6.19184  -0.73765   0.00000   6.808E-01   0.000E+00   3.192E-01
  33  6.16806903   0.692   0.34035   3.60600   6.20324  -0.70340   0.00000   5.843E-01   0.000E+00   4.157E-01
  34  6.18064366   0.692   0.31188   3.60572   6.21654  -0.66346   0.00000   4.575E-01   0.000E+00   5.425E-01
  35  6.19286442   0.692   0.27935   3.60532   6.23157  -0.61832   0.00000   3.117E-01   0.000E+00   6.883E-01
  36  6.20475068   0.692   0.24420   3.60477   6.24769  -0.57004   0.00000   1.788E-01   0.000E+00   8.212E-01
  37  6.21632028   0.692   0.20882   3.60412   6.26373  -0.52193   0.00000   8.827E-02   0.000E+00   9.117E-01
  38  6.22758964   0.692   0.17510   3.60342   6.27884  -0.47662   0.00000   4.361E-02   0.000E+00   9.564E-01
  39  6.23857396   0.692   0.14365   3.60268   6.29273  -0.43487   0.00000   2.053E-02   0.000E+00   9.795E-01
  40  6.24928731   0.692   0.11467   3.60192   6.30540  -0.39685   0.00000   1.011E-02   0.000E+00   9.899E-01
  41  6.25974271   0.692   0.08770   3.60117   6.31708  -0.36171   0.00000   4.000E-03   0.000E+00   9.960E-01
  42  6.28479633   0.692   0.02886   3.59937   6.34229  -0.28593   0.00000   8.847E-04   0.000E+00   9.991E-01
  43  6.30848315   0.692  -0.02089   3.59773   6.36339  -0.22252   0.00000   0.000E+00   0.000E+00   1.000E+00
  44  6.33094461   0.692  -0.06397   3.59625   6.38155  -0.16790   0.00000   0.000E+00   0.000E+00   1.000E+00
  45  6.35230128   0.692  -0.10168   3.59495   6.39742  -0.12018   0.00000   0.000E+00   0.000E+00   1.000E+00
  46  6.37265676   0.692  -0.13522   3.59377   6.41152  -0.07776   0.00000   0.000E+00   0.000E+00   1.000E+00
  47  6.39210075   0.692  -0.16546   3.59270   6.42422  -0.03957   0.00000   0.000E+00   0.000E+00   1.000E+00
  48  6.41071137   0.692  -0.19311   3.59171   6.43584  -0.00465   0.00000   0.000E+00   0.000E+00   1.000E+00
  49  6.42855715   0.692  -0.21825   3.59083   6.44642   0.02721   0.00000   0.000E+00   0.000E+00   1.000E+00
  50  6.44569847   0.692  -0.24151   3.59002   6.45621   0.05666   0.00000   0.000E+00   0.000E+00   1.000E+00
  51  6.46218884   0.692  -0.26312   3.58926   6.46532   0.08407   0.00000   0.000E+00   0.000E+00   1.000E+00
  52  6.47807591   0.692  -0.28330   3.58856   6.47383   0.10967   0.00000   0.000E+00   0.000E+00   1.000E+00
  53  6.49340225   0.692  -0.30219   3.58791   6.48180   0.13367   0.00000   0.000E+00   0.000E+00   1.000E+00
  54  6.50820612   0.692  -0.31996   3.58729   6.48931   0.15628   0.00000   0.000E+00   0.000E+00   1.000E+00
  55  6.52252195   0.692  -0.33671   3.58672   6.49640   0.17763   0.00000   0.000E+00   0.000E+00   1.000E+00
  56  6.53638090   0.692  -0.35260   3.58618   6.50313   0.19789   0.00000   0.000E+00   0.000E+00   1.000E+00
  57  6.54981124   0.692  -0.36772   3.58567   6.50954   0.21720   0.00000   0.000E+00   0.000E+00   1.000E+00
  58  6.56283867   0.692  -0.38216   3.58518   6.51567   0.23564   0.00000   0.000E+00   0.000E+00   1.000E+00
  59  6.57548668   0.692  -0.39573   3.58473   6.52144   0.25302   0.00000   0.000E+00   0.000E+00   1.000E+00
  60  6.58777675   0.692  -0.40878   3.58430   6.52700   0.26976   0.00000   0.000E+00   0.000E+00   1.000E+00
  61  6.59972856   0.692  -0.42141   3.58388   6.53239   0.28596   0.00000   0.000E+00   0.000E+00   1.000E+00
  62  6.61136025   0.692  -0.43333   3.58350   6.53748   0.30129   0.00000   0.000E+00   0.000E+00   1.000E+00
  63  6.62268852   0.692  -0.44485   3.58313   6.54241   0.31613   0.00000   0.000E+00   0.000E+00   1.000E+00
  64  6.63372880   0.692  -0.45603   3.58278   6.54719   0.33053   0.00000   0.000E+00   0.000E+00   1.000E+00
  65  6.64449536   0.692  -0.46662   3.58244   6.55173   0.34422   0.00000   0.000E+00   0.000E+00   1.000E+00
  66  6.65500145   0.692  -0.47707   3.58211   6.55622   0.35773   0.00000   0.000E+00   0.000E+00   1.000E+00
  67  6.66525938   0.692  -0.48689   3.58181   6.56044   0.37048   0.00000   0.000E+00   0.000E+00   1.000E+00
  68  6.67528060   0.692  -0.49662   3.58152   6.56463   0.38311   0.00000   0.000E+00   0.000E+00   1.000E+00
  69  6.68507579   0.692  -0.50584   3.58124   6.56861   0.39509   0.00000   0.000E+00   0.000E+00   1.000E+00
  70  6.69465492   0.692  -0.51499   3.58096   6.57256   0.40699   0.00000   0.000E+00   0.000E+00   1.000E+00
  71  6.70402732   0.692  -0.52363   3.58070   6.57630   0.41825   0.00000   0.000E+00   0.000E+00   1.000E+00
  72  6.71320172   0.692  -0.53226   3.58044   6.58003   0.42951   0.00000   0.000E+00   0.000E+00   1.000E+00
  73  6.72218632   0.692  -0.54039   3.58021   6.58356   0.44013   0.00000   0.000E+00   0.000E+00   1.000E+00
  74  6.73098880   0.692  -0.54848   3.57998   6.58707   0.45071   0.00000   0.000E+00   0.000E+00   1.000E+00
  75  6.73961641   0.692  -0.55626   3.57975   6.59045   0.46089   0.00000   0.000E+00   0.000E+00   1.000E+00
  76  6.74807596   0.692  -0.56386   3.57953   6.59375   0.47084   0.00000   0.000E+00   0.000E+00   1.000E+00
  77  6.75637387   0.692  -0.57138   3.57932   6.59702   0.48069   0.00000   0.000E+00   0.000E+00   1.000E+00
  78  6.76451620   0.692  -0.57849   3.57912   6.60012   0.49004   0.00000   0.000E+00   0.000E+00   1.000E+00
  79  6.77250869   0.692  -0.58560   3.57892   6.60322   0.49939   0.00000   0.000E+00   0.000E+00   1.000E+00
  80  6.78035673   0.692  -0.59249   3.57873   6.60622   0.50845   0.00000   0.000E+00   0.000E+00   1.000E+00
  81  6.78806547   0.692  -0.59918   3.57854   6.60914   0.51724   0.00000   0.000E+00   0.000E+00   1.000E+00
  82  6.79563977   0.692  -0.60587   3.57835   6.61205   0.52603   0.00000   0.000E+00   0.000E+00   1.000E+00
  83  6.80308422   0.692  -0.61225   3.57818   6.61484   0.53445   0.00000   0.000E+00   0.000E+00   1.000E+00
  84  6.81040322   0.692  -0.61852   3.57801   6.61757   0.54271   0.00000   0.000E+00   0.000E+00   1.000E+00
  85  6.81760091   0.692  -0.62478   3.57784   6.62030   0.55097   0.00000   0.000E+00   0.000E+00   1.000E+00
  86  6.82468125   0.692  -0.63076   3.57768   6.62287   0.55894   0.00000   0.000E+00   0.000E+00   1.000E+00
  87  6.83164801   0.692  -0.63663   3.57752   6.62536   0.56679   0.00000   0.000E+00   0.000E+00   1.000E+00
  88  6.83850478   0.692  -0.64250   3.57736   6.62785   0.57464   0.00000   0.000E+00   0.000E+00   1.000E+00
  89  6.84525497   0.692  -0.64818   3.57720   6.63024   0.58228   0.00000   0.000E+00   0.000E+00   1.000E+00
  90  6.85190185   0.692  -0.65369   3.57706   6.63253   0.58973   0.00000   0.000E+00   0.000E+00   1.000E+00
  91  6.85844853   0.692  -0.65921   3.57691   6.63482   0.59718   0.00000   0.000E+00   0.000E+00   1.000E+00
  92  6.86489798   0.692  -0.66468   3.57676   6.63708   0.60458   0.00000   0.000E+00   0.000E+00   1.000E+00
  93  6.87125306   0.692  -0.66984   3.57663   6.63917   0.61166   0.00000   0.000E+00   0.000E+00   1.000E+00
  94  6.87751648   0.692  -0.67501   3.57649   6.64127   0.61874   0.00000   0.000E+00   0.000E+00   1.000E+00
  95  6.88369085   0.692  -0.68017   3.57636   6.64336   0.62582   0.00000   0.000E+00   0.000E+00   1.000E+00
  96  6.88977868   0.692  -0.68518   3.57623   6.64537   0.63272   0.00000   0.000E+00   0.000E+00   1.000E+00
  97  6.89578234   0.692  -0.69002   3.57610   6.64730   0.63944   0.00000   0.000E+00   0.000E+00   1.000E+00
  98  6.90170414   0.692  -0.69486   3.57597   6.64922   0.64617   0.00000   0.000E+00   0.000E+00   1.000E+00
  99  6.90754628   0.692  -0.69970   3.57585   6.65115   0.65289   0.00000   0.000E+00   0.000E+00   1.000E+00
 100  6.91331087   0.692  -0.70436   3.57573   6.65297   0.65941   0.00000   0.000E+00   0.000E+00   1.000E+00
 101  6.91899994   0.692  -0.70890   3.57561   6.65474   0.66580   0.00000   0.000E+00   0.000E+00   1.000E+00
 102  6.92461546   0.692  -0.71344   3.57550   6.65651   0.67219   0.00000   0.000E+00   0.000E+00   1.000E+00
 103  6.93015929   0.692  -0.71797   3.57538   6.65827   0.67859   0.00000   0.000E+00   0.000E+00   1.000E+00
 104  6.93563324   0.692  -0.72237   3.57527   6.65997   0.68482   0.00000   0.000E+00   0.000E+00   1.000E+00
 105  6.94103906   0.692  -0.72661   3.57516   6.66160   0.69090   0.00000   0.000E+00   0.000E+00   1.000E+00
 106  6.94637841   0.692  -0.73084   3.57505   6.66323   0.69697   0.00000   0.000E+00   0.000E+00   1.000E+00
 107  6.95165292   0.692  -0.73508   3.57495   6.66485   0.70305   0.00000   0.000E+00   0.000E+00   1.000E+00
 108  6.95686414   0.692  -0.73930   3.57484   6.66647   0.70910   0.00000   0.000E+00   0.000E+00   1.000E+00
 109  6.96201356   0.692  -0.74327   3.57474   6.66797   0.71487   0.00000   0.000E+00   0.000E+00   1.000E+00
 110  6.96710265   0.692  -0.74724   3.57464   6.66947   0.72065   0.00000   0.000E+00   0.000E+00   1.000E+00
 111  6.97213279   0.692  -0.75121   3.57454   6.67097   0.72642   0.00000   0.000E+00   0.000E+00   1.000E+00
 112  6.97710533   0.692  -0.75518   3.57444   6.67247   0.73220   0.00000   0.000E+00   0.000E+00   1.000E+00
 113  6.98202159   0.692  -0.75906   3.57435   6.67392   0.73787   0.00000   0.000E+00   0.000E+00   1.000E+00
 114  6.98688282   0.692  -0.76276   3.57426   6.67530   0.74337   0.00000   0.000E+00   0.000E+00   1.000E+00
 115  6.99169023   0.692  -0.76647   3.57417   6.67668   0.74886   0.00000   0.000E+00   0.000E+00   1.000E+00
 116  6.99644501   0.692  -0.77017   3.57408   6.67807   0.75435   0.00000   0.000E+00   0.000E+00   1.000E+00
 117  7.00114830   0.692  -0.77388   3.57399   6.67945   0.75984   0.00000   0.000E+00   0.000E+00   1.000E+00
 118  7.00580119   0.692  -0.77750   3.57390   6.68079   0.76525   0.00000   6.021E-05   0.000E+00   9.999E-01
 119  7.01040477   0.692  -0.78096   3.57382   6.68207   0.77047   0.00000   2.455E-04   0.000E+00   9.998E-01
 120  7.01496006   0.692  -0.78442   3.57374   6.68334   0.77570   0.00000   4.308E-04   0.000E+00   9.996E-01
 121  7.01946806   0.692  -0.78788   3.57366   6.68462   0.78092   0.00000   6.161E-04   0.000E+00   9.994E-01
 122  7.02392975   0.692  -0.79133   3.57358   6.68589   0.78615   0.00000   8.014E-04   0.000E+00   9.992E-01
 123  7.02834607   0.692  -0.79479   3.57350   6.68717   0.79137   0.00000   9.867E-04   0.000E+00   9.990E-01
 124  7.03271793   0.692  -0.79803   3.57342   6.68835   0.79636   0.00000   1.000E-03   0.000E+00   9.990E-01
 125  7.03704622   0.692  -0.80125   3.57335   6.68953   0.80133   0.00000   1.000E-03   0.000E+00   9.990E-01
 126  7.04133180   0.692  -0.80447   3.57328   6.69071   0.80630   0.00000   1.000E-03   0.000E+00   9.990E-01
 127  7.04557550   0.692  -0.80769   3.57320   6.69189   0.81127   0.00000   1.000E-03   0.000E+00   9.990E-01
 128  7.04977814   0.692  -0.81091   3.57313   6.69307   0.81624   0.00000   1.000E-03   0.000E+00   9.990E-01
 129  7.05394050   0.692  -0.81410   3.57306   6.69424   0.82118   0.00000   1.000E-03   0.000E+00   9.990E-01
 130  7.05806334   0.692  -0.81710   3.57299   6.69533   0.82590   0.00000   1.000E-03   0.000E+00   9.990E-01
 131  7.06214741   0.692  -0.82010   3.57293   6.69643   0.83063   0.00000   1.000E-03   0.000E+00   9.990E-01
 132  7.06619343   0.692  -0.82310   3.57286   6.69752   0.83536   0.00000   1.000E-03   0.000E+00   9.990E-01
 133  7.07020211   0.692  -0.82610   3.57280   6.69862   0.84009   0.00000   1.000E-03   0.000E+00   9.990E-01
 134  7.07417412   0.692  -0.82909   3.57273   6.69971   0.84481   0.00000   1.000E-03   0.000E+00   9.990E-01
 135  7.07811013   0.692  -0.83209   3.57266   6.70081   0.84954   0.00000   1.000E-03   0.000E+00   9.990E-01
 136  7.08201080   0.692  -0.83489   3.57261   6.70183   0.85405   0.00000   1.000E-03   0.000E+00   9.990E-01
 137  7.08587674   0.692  -0.83767   3.57255   6.70285   0.85854   0.00000   1.000E-03   0.000E+00   9.990E-01
 138  7.08970856   0.692  -0.84046   3.57249   6.70386   0.86304   0.00000   1.000E-03   0.000E+00   9.990E-01
 139  7.09350688   0.692  -0.84324   3.57244   6.70488   0.86753   0.00000   1.000E-03   0.000E+00   9.990E-01
 140  7.09727227   0.692  -0.84602   3.57238   6.70590   0.87203   0.00000   1.000E-03   0.000E+00   9.990E-01
 141  7.10100528   0.692  -0.84881   3.57232   6.70691   0.87652   0.00000   1.000E-03   0.000E+00   9.990E-01
 142  7.10470649   0.692  -0.85154   3.57227   6.70791   0.88095   0.00000   1.000E-03   0.000E+00   9.990E-01
 143  7.10837642   0.692  -0.85412   3.57221   6.70886   0.88523   0.00000   1.000E-03   0.000E+00   9.990E-01
 144  7.11201559   0.692  -0.85670   3.57216   6.70981   0.88950   0.00000   1.000E-03   0.000E+00   9.990E-01
 145  7.11562453   0.692  -0.85928   3.57211   6.71075   0.89377   0.00000   1.000E-03   0.000E+00   9.990E-01
 146  7.11920372   0.692  -0.86186   3.57206   6.71170   0.89804   0.00000   1.000E-03   0.000E+00   9.990E-01
 147  7.12275365   0.692  -0.86444   3.57201   6.71265   0.90232   0.00000   1.000E-03   0.000E+00   9.990E-01
 148  7.12627480   0.692  -0.86702   3.57196   6.71360   0.90659   0.00000   1.000E-03   0.000E+00   9.990E-01
 149  7.12976764   0.692  -0.86958   3.57191   6.71454   0.91084   0.00000   1.010E-03   0.000E+00   9.990E-01
 150  7.13323260   0.692  -0.87197   3.57186   6.71542   0.91490   0.00000   1.139E-03   0.000E+00   9.989E-01
 151  7.13667014   0.692  -0.87436   3.57182   6.71629   0.91895   0.00000   1.268E-03   0.000E+00   9.987E-01
 152  7.14008069   0.692  -0.87675   3.57178   6.71717   0.92301   0.00000   1.397E-03   0.000E+00   9.986E-01
 153  7.14346466   0.692  -0.87913   3.57174   6.71805   0.92706   0.00000   1.526E-03   0.000E+00   9.985E-01
 154  7.14682246   0.692  -0.88152   3.57169   6.71893   0.93112   0.00000   1.655E-03   0.000E+00   9.983E-01
 155  7.15015451   0.692  -0.88391   3.57165   6.71980   0.93517   0.00000   1.784E-03   0.000E+00   9.982E-01
 156  7.15346118   0.692  -0.88630   3.57161   6.72068   0.93923   0.00000   1.913E-03   0.000E+00   9.981E-01
 157  7.15674287   0.692  -0.88862   3.57157   6.72154   0.94322   0.00000   2.000E-03   0.000E+00   9.980E-01
 158  7.15999994   0.692  -0.89082   3.57153   6.72236   0.94708   0.00000   2.000E-03   0.000E+00   9.980E-01
 159  7.16323277   0.692  -0.89302   3.57150   6.72318   0.95094   0.00000   2.000E-03   0.000E+00   9.980E-01
 160  7.16644172   0.692  -0.89523   3.57146   6.72400   0.95479   0.00000   2.000E-03   0.000E+00   9.980E-01
 161  7.16962712   0.692  -0.89743   3.57142   6.72482   0.95865   0.00000   2.000E-03   0.000E+00   9.980E-01
 162  7.17278934   0.692  -0.89963   3.57139   6.72564   0.96251   0.00000   2.000E-03   0.000E+00   9.980E-01
 163  7.17592869   0.692  -0.90183   3.57135   6.72646   0.96637   0.00000   2.000E-03   0.000E+00   9.980E-01
 164  7.17904551   0.692  -0.90403   3.57132   6.72728   0.97023   0.00000   2.000E-03   0.000E+00   9.980E-01
 165  7.18214013   0.692  -0.90623   3.57128   6.72810   0.97409   0.00000   2.000E-03   0.000E+00   9.980E-01
 166  7.18521285   0.692  -0.90827   3.57125   6.72887   0.97777   0.00000   2.108E-03   0.000E+00   9.979E-01
 167  7.18826398   0.692  -0.91029   3.57122   6.72963   0.98143   0.00000   2.221E-03   0.000E+00   9.978E-01
 168  7.19129382   0.692  -0.91231   3.57119   6.73040   0.98510   0.00000   2.334E-03   0.000E+00   9.977E-01
 169  7.19430268   0.692  -0.91434   3.57116   6.73116   0.98876   0.00000   2.447E-03   0.000E+00   9.976E-01
 170  7.19729083   0.692  -0.91636   3.57113   6.73193   0.99243   0.00000   2.560E-03   0.000E+00   9.974E-01
 171  7.20025856   0.692  -0.91839   3.57111   6.73269   0.99609   0.00000   2.673E-03   0.000E+00   9.973E-01
 172  7.20320615   0.692  -0.92041   3.57108   6.73346   0.99976   0.00000   2.786E-03   0.000E+00   9.972E-01
 173  7.20613387   0.692  -0.92243   3.57105   6.73422   1.00342   0.00000   2.899E-03   0.000E+00   9.971E-01
 174  7.20904199   0.692  -0.92444   3.57102   6.73498   1.00707   0.00000   3.000E-03   0.000E+00   9.970E-01
 175  7.21193076   0.692  -0.92630   3.57100   6.73570   1.01055   0.00000   3.000E-03   0.000E+00   9.970E-01
 176  7.21480044   0.692  -0.92816   3.57097   6.73642   1.01404   0.00000   3.000E-03   0.000E+00   9.970E-01
 177  7.21765129   0.692  -0.93002   3.57095   6.73713   1.01752   0.00000   3.000E-03   0.000E+00   9.970E-01
 178  7.22048354   0.692  -0.93188   3.57093   6.73785   1.02101   0.00000   3.000E-03   0.000E+00   9.970E-01
 179  7.22329744   0.692  -0.93373   3.57091   6.73856   1.02449   0.00000   3.000E-03   0.000E+00   9.970E-01
 180  7.22609323   0.692  -0.93559   3.57088   6.73928   1.02798   0.00000   3.000E-03   0.000E+00   9.970E-01
 181  7.22887113   0.692  -0.93745   3.57086   6.73999   1.03146   0.00000   3.000E-03   0.000E+00   9.970E-01
 182  7.23163138   0.692  -0.93931   3.57084   6.74071   1.03495   0.00000   3.000E-03   0.000E+00   9.970E-01
 183  7.23437420   0.692  -0.94117   3.57082   6.74143   1.03843   0.00000   3.000E-03   0.000E+00   9.970E-01
 184  7.23709980   0.692  -0.94291   3.57080   6.74211   1.04179   0.00000   3.077E-03   0.000E+00   9.969E-01
 185  7.23980840   0.692  -0.94462   3.57078   6.74278   1.04510   0.00000   3.178E-03   0.000E+00   9.968E-01
 186  7.24250022   0.692  -0.94633   3.57076   6.74345   1.04842   0.00000   3.280E-03   0.000E+00   9.967E-01
 187  7.24517545   0.692  -0.94804   3.57075   6.74412   1.05174   0.00000   3.381E-03   0.000E+00   9.966E-01
 188  7.24783431   0.692  -0.94975   3.57073   6.74479   1.05505   0.00000   3.483E-03   0.000E+00   9.965E-01
 189  7.25047698   0.692  -0.95146   3.57071   6.74547   1.05837   0.00000   3.584E-03   0.000E+00   9.964E-01
 190  7.25310368   0.692  -0.95316   3.57069   6.74614   1.06168   0.00000   3.686E-03   0.000E+00   9.963E-01
 191  7.25571458   0.692  -0.95487   3.57068   6.74681   1.06500   0.00000   3.787E-03   0.000E+00   9.962E-01
 192  7.25830988   0.692  -0.95658   3.57066   6.74748   1.06831   0.00000   3.888E-03   0.000E+00   9.961E-01
 193  7.26088976   0.692  -0.95829   3.57064   6.74815   1.07163   0.00000   3.990E-03   0.000E+00   9.960E-01
 194  7.26345441   0.692  -0.95987   3.57063   6.74879   1.07480   0.00000   4.087E-03   0.000E+00   9.959E-01
 195  7.26600400   0.692  -0.96143   3.57062   6.74942   1.07796   0.00000   4.183E-03   0.000E+00   9.958E-01
 196  7.26853871   0.692  -0.96299   3.57061   6.75006   1.08111   0.00000   4.279E-03   0.000E+00   9.957E-01
 197  7.27105871   0.692  -0.96455   3.57060   6.75069   1.08427   0.00000   4.376E-03   0.000E+00   9.956E-01
 198  7.27356417   0.692  -0.96611   3.57059   6.75132   1.08743   0.00000   4.472E-03   0.000E+00   9.955E-01
 199  7.27605527   0.692  -0.96767   3.57058   6.75195   1.09058   0.00000   4.568E-03   0.000E+00   9.954E-01
 200  7.27853215   0.692  -0.96923   3.57057   6.75259   1.09374   0.00000   4.665E-03   0.000E+00   9.953E-01
 201  7.28099499   0.692  -0.97079   3.57056   6.75322   1.09690   0.00000   4.761E-03   0.000E+00   9.952E-01
 202  7.28344394   0.692  -0.97235   3.57055   6.75385   1.10005   0.00000   4.858E-03   0.000E+00   9.951E-01
 203  7.28587916   0.692  -0.97391   3.57054   6.75449   1.10321   0.00000   4.954E-03   0.000E+00   9.950E-01
 204  7.28830080   0.692  -0.97540   3.57053   6.75510   1.10629   0.00000   5.048E-03   0.000E+00   9.950E-01
 205  7.29070902   0.692  -0.97683   3.57052   6.75570   1.10930   0.00000   5.139E-03   0.000E+00   9.949E-01
 206  7.29310395   0.692  -0.97825   3.57052   6.75630   1.11230   0.00000   5.231E-03   0.000E+00   9.948E-01
 207  7.29548575   0.692  -0.97968   3.57052   6.75690   1.11531   0.00000   5.323E-03   0.000E+00   9.947E-01
 208  7.29785455   0.692  -0.98111   3.57051   6.75750   1.11832   0.00000   5.414E-03   0.000E+00   9.946E-01
 209  7.30021051   0.692  -0.98253   3.57051   6.75809   1.12133   0.00000   5.506E-03   0.000E+00   9.945E-01
 210  7.30255375   0.692  -0.98396   3.57051   6.75869   1.12434   0.00000   5.598E-03   0.000E+00   9.944E-01
 211  7.30488442   0.692  -0.98538   3.57050   6.75929   1.12735   0.00000   5.689E-03   0.000E+00   9.943E-01
 212  7.30720265   0.692  -0.98681   3.57050   6.75989   1.13035   0.00000   5.781E-03   0.000E+00   9.942E-01
 213  7.30950857   0.692  -0.98824   3.57050   6.76049   1.13336   0.00000   5.872E-03   0.000E+00   9.941E-01
 214  7.31180231   0.692  -0.98966   3.57049   6.76109   1.13637   0.00000   5.964E-03   0.000E+00   9.940E-01
 215  7.31408400   0.692  -0.99101   3.57049   6.76167   1.13930   0.00000   6.106E-03   0.000E+00   9.939E-01
 216  7.31635376   0.692  -0.99231   3.57049   6.76223   1.14217   0.00000   6.280E-03   0.000E+00   9.937E-01
 217  7.31861173   0.692  -0.99361   3.57049   6.76280   1.14504   0.00000   6.455E-03   0.000E+00   9.935E-01
 218  7.32085801   0.692  -0.99491   3.57049   6.76337   1.14791   0.00000   6.629E-03   0.000E+00   9.934E-01
 219  7.32309274   0.692  -0.99621   3.57049   6.76394   1.15078   0.00000   6.804E-03   0.000E+00   9.932E-01
 220  7.32531603   0.692  -0.99751   3.57049   6.76451   1.15365   0.00000   6.978E-03   0.000E+00   9.930E-01
 221  7.32752799   0.692  -0.99881   3.57050   6.76508   1.15653   0.00000   7.153E-03   0.000E+00   9.928E-01
 222  7.32972874   0.692  -1.00011   3.57050   6.76565   1.15940   0.00000   7.327E-03   0.000E+00   9.927E-01
 223  7.33191840   0.692  -1.00141   3.57050   6.76621   1.16227   0.00000   7.501E-03   0.000E+00   9.925E-01
 224  7.33409707   0.692  -1.00271   3.57050   6.76678   1.16514   0.00000   7.676E-03   0.000E+00   9.923E-01
 225  7.33626487   0.692  -1.00401   3.57050   6.76735   1.16801   0.00000   7.850E-03   0.000E+00   9.921E-01
 226  7.33842190   0.692  -1.00530   3.57050   6.76792   1.17087   0.00000   8.012E-03   0.000E+00   9.920E-01
 227  7.34056827   0.692  -1.00648   3.57051   6.76846   1.17361   0.00000   8.095E-03   0.000E+00   9.919E-01
 228  7.34270409   0.692  -1.00766   3.57051   6.76900   1.17635   0.00000   8.178E-03   0.000E+00   9.918E-01
 229  7.34482945   0.692  -1.00884   3.57052   6.76954   1.17909   0.00000   8.261E-03   0.000E+00   9.917E-01
 230  7.34694446   0.692  -1.01002   3.57053   6.77008   1.18184   0.00000   8.345E-03   0.000E+00   9.917E-01
 231  7.34904923   0.692  -1.01121   3.57053   6.77063   1.18458   0.00000   8.428E-03   0.000E+00   9.916E-01
 232  7.35114384   0.692  -1.01239   3.57054   6.77117   1.18732   0.00000   8.511E-03   0.000E+00   9.915E-01
 233  7.35322839   0.692  -1.01357   3.57055   6.77171   1.19006   0.00000   8.594E-03   0.000E+00   9.914E-01
 234  7.35530299   0.692  -1.01475   3.57055   6.77225   1.19280   0.00000   8.678E-03   0.000E+00   9.913E-01
 235  7.35736773   0.692  -1.01593   3.57056   6.77279   1.19555   0.00000   8.761E-03   0.000E+00   9.912E-01
 236  7.35942269   0.692  -1.01711   3.57057   6.77333   1.19829   0.00000   8.844E-03   0.000E+00   9.912E-01
 237  7.36146798   0.692  -1.01830   3.57057   6.77388   1.20103   0.00000   8.927E-03   0.000E+00   9.911E-01
 238  7.36350368   0.692  -1.01946   3.57058   6.77441   1.20376   0.00000   9.020E-03   0.000E+00   9.910E-01
 239  7.36552989   0.692  -1.02054   3.57059   6.77493   1.20638   0.00000   9.179E-03   0.000E+00   9.908E-01
 240  7.36754668   0.692  -1.02161   3.57061   6.77545   1.20900   0.00000   9.338E-03   0.000E+00   9.907E-01
 241  7.36955415   0.692  -1.02268   3.57062   6.77597   1.21162   0.00000   9.497E-03   0.000E+00   9.905E-01
 242  7.37155239   0.692  -1.02375   3.57063   6.77648   1.21424   0.00000   9.656E-03   0.000E+00   9.903E-01
 243  7.37354147   0.692  -1.02483   3.57064   6.77700   1.21686   0.00000   9.814E-03   0.000E+00   9.902E-01
 244  7.37552149   0.692  -1.02590   3.57065   6.77752   1.21948   0.00000   9.973E-03   0.000E+00   9.900E-01
 245  7.37749251   0.692  -1.02697   3.57066   6.77804   1.22210   0.00000   1.013E-02   0.000E+00   9.899E-01
 246  7.37945464   0.692  -1.02805   3.57068   6.77855   1.22472   0.00000   1.029E-02   0.000E+00   9.897E-01
 247  7.38140794   0.692  -1.02912   3.57069   6.77907   1.22734   0.00000   1.045E-02   0.000E+00   9.895E-01
 248  7.38335249   0.692  -1.03019   3.57070   6.77959   1.22996   0.00000   1.061E-02   0.000E+00   9.894E-01
 249  7.38528837   0.692  -1.03126   3.57071   6.78010   1.23258   0.00000   1.077E-02   0.000E+00   9.892E-01
 250  7.38721567   0.692  -1.03234   3.57072   6.78062   1.23520   0.00000   1.093E-02   0.000E+00   9.891E-01
 251  7.38913445   0.692  -1.03335   3.57074   6.78113   1.23776   0.00000   1.112E-02   0.000E+00   9.889E-01
 252  7.39104478   0.692  -1.03432   3.57076   6.78162   1.24027   0.00000   1.135E-02   0.000E+00   9.886E-01
 253  7.39294676   0.692  -1.03529   3.57077   6.78212   1.24277   0.00000   1.158E-02   0.000E+00   9.884E-01
 254  7.39484043   0.692  -1.03626   3.57079   6.78262   1.24528   0.00000   1.181E-02   0.000E+00   9.882E-01
 255  7.39672589   0.692  -1.03722   3.57081   6.78311   1.24779   0.00000   1.203E-02   0.000E+00   9.880E-01
 256  7.39860320   0.692  -1.03819   3.57082   6.78361   1.25029   0.00000   1.226E-02   0.000E+00   9.877E-01
 257  7.40047243   0.692  -1.03916   3.57084   6.78410   1.25280   0.00000   1.249E-02   0.000E+00   9.875E-01
 258  7.40233364   0.692  -1.04013   3.57086   6.78460   1.25530   0.00000   1.272E-02   0.000E+00   9.873E-01
 259  7.40418692   0.692  -1.04109   3.57087   6.78510   1.25781   0.00000   1.295E-02   0.000E+00   9.871E-01
 260  7.40603232   0.692  -1.04206   3.57089   6.78559   1.26032   0.00000   1.317E-02   0.000E+00   9.868E-01
 261  7.40786991   0.692  -1.04303   3.57091   6.78609   1.26282   0.00000   1.340E-02   0.000E+00   9.866E-01
 262  7.40969976   0.692  -1.04400   3.57092   6.78658   1.26533   0.00000   1.363E-02   0.000E+00   9.864E-01
 263  7.41152193   0.692  -1.04497   3.57094   6.78708   1.26783   0.00000   1.386E-02   0.000E+00   9.861E-01
 264  7.41333648   0.692  -1.04590   3.57096   6.78757   1.27030   0.00000   1.405E-02   0.000E+00   9.859E-01
 265  7.41514349   0.692  -1.04677   3.57098   6.78805   1.27270   0.00000   1.420E-02   0.000E+00   9.858E-01
 266  7.41694301   0.692  -1.04764   3.57100   6.78852   1.27510   0.00000   1.435E-02   0.000E+00   9.857E-01
 267  7.41873511   0.692  -1.04851   3.57102   6.78900   1.27750   0.00000   1.449E-02   0.000E+00   9.855E-01
 268  7.42051984   0.692  -1.04937   3.57104   6.78948   1.27990   0.00000   1.464E-02   0.000E+00   9.854E-01
 269  7.42229726   0.692  -1.05024   3.57106   6.78995   1.28230   0.00000   1.478E-02   0.000E+00   9.852E-01
 270  7.42406744   0.692  -1.05111   3.57108   6.79043   1.28470   0.00000   1.493E-02   0.000E+00   9.851E-01
 271  7.42583044   0.692  -1.05198   3.57111   6.79091   1.28710   0.00000   1.507E-02   0.000E+00   9.849E-01
 272  7.42758630   0.692  -1.05285   3.57113   6.79138   1.28950   0.00000   1.522E-02   0.000E+00   9.848E-01
 273  7.42933510   0.692  -1.05372   3.57115   6.79186   1.29190   0.00000   1.536E-02   0.000E+00   9.846E-01
 274  7.43107688   0.692  -1.05459   3.57117   6.79234   1.29430   0.00000   1.551E-02   0.000E+00   9.845E-01
 275  7.43281171   0.692  -1.05546   3.57119   6.79282   1.29670   0.00000   1.565E-02   0.000E+00   9.843E-01
 276  7.43453963   0.692  -1.05633   3.57121   6.79329   1.29910   0.00000   1.580E-02   0.000E+00   9.842E-01
 277  7.43626071   0.692  -1.05720   3.57123   6.79377   1.30150   0.00000   1.595E-02   0.000E+00   9.841E-01
 278  7.43797499   0.692  -1.05801   3.57126   6.79424   1.30384   0.00000   1.617E-02   0.000E+00   9.838E-01
 279  7.43968253   0.692  -1.05879   3.57128   6.79469   1.30614   0.00000   1.645E-02   0.000E+00   9.835E-01
 280  7.44138338   0.692  -1.05957   3.57131   6.79515   1.30844   0.00000   1.673E-02   0.000E+00   9.833E-01
 281  7.44307760   0.692  -1.06034   3.57134   6.79561   1.31074   0.00000   1.701E-02   0.000E+00   9.830E-01
 282  7.44476524   0.692  -1.06112   3.57136   6.79607   1.31304   0.00000   1.729E-02   0.000E+00   9.827E-01
 283  7.44644634   0.692  -1.06190   3.57139   6.79653   1.31534   0.00000   1.757E-02   0.000E+00   9.824E-01
 284  7.44812096   0.692  -1.06268   3.57142   6.79699   1.31764   0.00000   1.785E-02   0.000E+00   9.822E-01
 285  7.44978915   0.692  -1.06345   3.57144   6.79745   1.31994   0.00000   1.812E-02   0.000E+00   9.819E-01
 286  7.45145095   0.692  -1.06423   3.57147   6.79790   1.32224   0.00000   1.840E-02   0.000E+00   9.816E-01
 287  7.45310642   0.692  -1.06501   3.57149   6.79836   1.32454   0.00000   1.868E-02   0.000E+00   9.813E-01
 288  7.45475560   0.692  -1.06578   3.57152   6.79882   1.32684   0.00000   1.896E-02   0.000E+00   9.810E-01
 289  7.45639855   0.692  -1.06656   3.57155   6.79928   1.32914   0.00000   1.924E-02   0.000E+00   9.808E-01
 290  7.45803530   0.692  -1.06734   3.57157   6.79974   1.33144   0.00000   1.952E-02   0.000E+00   9.805E-01
 291  7.45966591   0.692  -1.06812   3.57160   6.80020   1.33374   0.00000   1.980E-02   0.000E+00   9.802E-01
 292  7.46129042   0.692  -1.06887   3.57163   6.80065   1.33601   0.00000   2.007E-02   0.000E+00   9.799E-01
 293  7.46290887   0.692  -1.06956   3.57166   6.80110   1.33822   0.00000   2.034E-02   0.000E+00   9.797E-01
 294  7.46452132   0.692  -1.07025   3.57169   6.80154   1.34042   0.00000   2.061E-02   0.000E+00   9.794E-01
 295  7.46612780   0.692  -1.07094   3.57172   6.80199   1.34262   0.00000   2.088E-02   0.000E+00   9.791E-01
 296  7.46772836   0.692  -1.07163   3.57175   6.80243   1.34483   0.00000   2.114E-02   0.000E+00   9.789E-01
 297  7.46932304   0.692  -1.07231   3.57179   6.80287   1.34703   0.00000   2.141E-02   0.000E+00   9.786E-01
 298  7.47091189   0.692  -1.07300   3.57182   6.80332   1.34923   0.00000   2.168E-02   0.000E+00   9.783E-01
 299  7.47249495   0.692  -1.07369   3.57185   6.80376   1.35144   0.00000   2.195E-02   0.000E+00   9.781E-01
 300  7.47407225   0.692  -1.07438   3.57188   6.80421   1.35364   0.00000   2.221E-02   0.000E+00   9.778E-01
 301  7.47564385   0.692  -1.07507   3.57191   6.80465   1.35585   0.00000   2.248E-02   0.000E+00   9.775E-01
 302  7.47720979   0.692  -1.07576   3.57194   6.80510   1.35805   0.00000   2.275E-02   0.000E+00   9.773E-01
 303  7.47877009   0.692  -1.07645   3.57197   6.80554   1.36025   0.00000   2.301E-02   0.000E+00   9.770E-01
 304  7.48032481   0.692  -1.07714   3.57201   6.80599   1.36246   0.00000   2.328E-02   0.000E+00   9.767E-01
 305  7.48187399   0.692  -1.07783   3.57204   6.80643   1.36466   0.00000   2.355E-02   0.000E+00   9.765E-01
 306  7.48341766   0.692  -1.07852   3.57207   6.80688   1.36686   0.00000   2.382E-02   0.000E+00   9.762E-01
 307  7.48495586   0.692  -1.07918   3.57210   6.80732   1.36904   0.00000   2.408E-02   0.000E+00   9.759E-01
 308  7.48648863   0.692  -1.07979   3.57214   6.80775   1.37115   0.00000   2.434E-02   0.000E+00   9.757E-01
 309  7.48801602   0.692  -1.08039   3.57217   6.80818   1.37326   0.00000   2.459E-02   0.000E+00   9.754E-01
 310  7.48953804   0.692  -1.08100   3.57221   6.80861   1.37538   0.00000   2.485E-02   0.000E+00   9.751E-01
 311  7.49105476   0.692  -1.08160   3.57225   6.80904   1.37749   0.00000   2.511E-02   0.000E+00   9.749E-01
 312  7.49256619   0.692  -1.08221   3.57228   6.80947   1.37960   0.00000   2.537E-02   0.000E+00   9.746E-01
 313  7.49407239   0.692  -1.08281   3.57232   6.80990   1.38172   0.00000   2.562E-02   0.000E+00   9.744E-01
 314  7.49557337   0.692  -1.08342   3.57235   6.81033   1.38383   0.00000   2.588E-02   0.000E+00   9.741E-01
 315  7.49706919   0.692  -1.08403   3.57239   6.81076   1.38594   0.00000   2.614E-02   0.000E+00   9.739E-01
 316  7.49855988   0.692  -1.08463   3.57242   6.81119   1.38806   0.00000   2.639E-02   0.000E+00   9.736E-01
 317  7.50004546   0.692  -1.08524   3.57246   6.81162   1.39017   0.00000   2.665E-02   0.000E+00   9.734E-01
 318  7.50152598   0.692  -1.08584   3.57250   6.81206   1.39228   0.00000   2.691E-02   0.000E+00   9.731E-01
 319  7.50300147   0.692  -1.08645   3.57253   6.81249   1.39440   0.00000   2.716E-02   0.000E+00   9.728E-01
 320  7.50447197   0.692  -1.08705   3.57257   6.81292   1.39651   0.00000   2.742E-02   0.000E+00   9.726E-01
 321  7.50593750   0.692  -1.08766   3.57260   6.81335   1.39862   0.00000   2.768E-02   0.000E+00   9.723E-01
 322  7.50739810   0.692  -1.08826   3.57264   6.81378   1.40073   0.00000   2.793E-02   0.000E+00   9.721E-01
 323  7.50885381   0.692  -1.08881   3.57268   6.81420   1.40278   0.00000   2.827E-02   0.000E+00   9.717E-01
 324  7.51030465   0.692  -1.08933   3.57272   6.81462   1.40481   0.00000   2.864E-02   0.000E+00   9.714E-01
 325  7.51175067   0.692  -1.08986   3.57276   6.81504   1.40684   0.00000   2.902E-02   0.000E+00   9.710E-01
 326  7.51319188   0.692  -1.09039   3.57280   6.81546   1.40886   0.00000   2.939E-02   0.000E+00   9.706E-01
 327  7.51462833   0.692  -1.09091   3.57284   6.81587   1.41089   0.00000   2.976E-02   0.000E+00   9.702E-01
 328  7.51606004   0.692  -1.09144   3.57288   6.81629   1.41292   0.00000   3.013E-02   0.000E+00   9.699E-01
 329  7.51748705   0.692  -1.09196   3.57292   6.81671   1.41494   0.00000   3.050E-02   0.000E+00   9.695E-01
 330  7.51890939   0.692  -1.09249   3.57297   6.81713   1.41697   0.00000   3.087E-02   0.000E+00   9.691E-01
 331  7.52032708   0.692  -1.09301   3.57301   6.81755   1.41900   0.00000   3.124E-02   0.000E+00   9.688E-01
 332  7.52174016   0.692  -1.09354   3.57305   6.81797   1.42102   0.00000   3.161E-02   0.000E+00   9.684E-01
 333  7.52314865   0.692  -1.09406   3.57309   6.81838   1.42305   0.00000   3.198E-02   0.000E+00   9.680E-01
 334  7.52455260   0.692  -1.09459   3.57313   6.81880   1.42508   0.00000   3.235E-02   0.000E+00   9.677E-01
 335  7.52595201   0.692  -1.09511   3.57317   6.81922   1.42710   0.00000   3.272E-02   0.000E+00   9.673E-01
 336  7.52734694   0.692  -1.09564   3.57321   6.81964   1.42913   0.00000   3.309E-02   0.000E+00   9.669E-01
 337  7.52873740   0.692  -1.09616   3.57325   6.82006   1.43116   0.00000   3.346E-02   0.000E+00   9.665E-01
 338  7.53012342   0.692  -1.09669   3.57329   6.82048   1.43318   0.00000   3.383E-02   0.000E+00   9.662E-01
 339  7.53150503   0.692  -1.09717   3.57333   6.82089   1.43517   0.00000   3.419E-02   0.000E+00   9.658E-01
 340  7.53288226   0.692  -1.09762   3.57338   6.82130   1.43711   0.00000   3.455E-02   0.000E+00   9.655E-01
 341  7.53425513   0.692  -1.09807   3.57343   6.82171   1.43906   0.00000   3.490E-02   0.000E+00   9.651E-01
 342  7.53562368   0.692  -1.09851   3.57347   6.82211   1.44100   0.00000   3.526E-02   0.000E+00   9.647E-01
 343  7.53698794   0.692  -1.09896   3.57352   6.82252   1.44295   0.00000   3.562E-02   0.000E+00   9.644E-01
 344  7.53834791   0.692  -1.09941   3.57356   6.82293   1.44489   0.00000   3.597E-02   0.000E+00   9.640E-01
 345  7.53970365   0.692  -1.09986   3.57361   6.82334   1.44684   0.00000   3.633E-02   0.000E+00   9.637E-01
 346  7.54105516   0.692  -1.10030   3.57365   6.82375   1.44878   0.00000   3.668E-02   0.000E+00   9.633E-01
 347  7.54240248   0.692  -1.10075   3.57370   6.82416   1.45073   0.00000   3.704E-02   0.000E+00   9.630E-01
 348  7.54374564   0.692  -1.10120   3.57375   6.82456   1.45267   0.00000   3.740E-02   0.000E+00   9.626E-01
 349  7.54508465   0.692  -1.10165   3.57379   6.82497   1.45462   0.00000   3.775E-02   0.000E+00   9.622E-01
 350  7.54641955   0.692  -1.10209   3.57384   6.82538   1.45656   0.00000   3.811E-02   0.000E+00   9.619E-01
 351  7.54775036   0.692  -1.10254   3.57388   6.82579   1.45851   0.00000   3.846E-02   0.000E+00   9.615E-01
 352  7.54907710   0.692  -1.10299   3.57393   6.82620   1.46045   0.00000   3.882E-02   0.000E+00   9.612E-01
 353  7.55039980   0.692  -1.10344   3.57397   6.82661   1.46240   0.00000   3.918E-02   0.000E+00   9.608E-01
 354  7.55171848   0.692  -1.10388   3.57402   6.82701   1.46434   0.00000   3.953E-02   0.000E+00   9.605E-01
 355  7.55303318   0.692  -1.10433   3.57407   6.82742   1.46629   0.00000   3.989E-02   0.000E+00   9.601E-01
 356  7.55434390   0.692  -1.10473   3.57412   6.82783   1.46818   0.00000   4.032E-02   0.000E+00   9.597E-01
 357  7.55565068   0.692  -1.10510   3.57417   6.82822   1.47005   0.00000   4.077E-02   0.000E+00   9.592E-01
 358  7.55695354   0.692  -1.10547   3.57422   6.82862   1.47191   0.00000   4.123E-02   0.000E+00   9.588E-01
 359  7.55825251   0.692  -1.10585   3.57427   6.82902   1.47378   0.00000   4.169E-02   0.000E+00   9.583E-01
 360  7.55954760   0.692  -1.10622   3.57432   6.82942   1.47565   0.00000   4.214E-02   0.000E+00   9.579E-01
 361  7.56083884   0.692  -1.10660   3.57437   6.82982   1.47751   0.00000   4.260E-02   0.000E+00   9.574E-01
 362  7.56212625   0.692  -1.10697   3.57442   6.83022   1.47938   0.00000   4.306E-02   0.000E+00   9.569E-01
 363  7.56340986   0.692  -1.10734   3.57447   6.83062   1.48125   0.00000   4.351E-02   0.000E+00   9.565E-01
 364  7.56468968   0.692  -1.10772   3.57452   6.83102   1.48312   0.00000   4.397E-02   0.000E+00   9.560E-01
 365  7.56596574   0.692  -1.10809   3.57457   6.83142   1.48498   0.00000   4.443E-02   0.000E+00   9.556E-01
 366  7.56723807   0.692  -1.10846   3.57462   6.83182   1.48685   0.00000   4.488E-02   0.000E+00   9.551E-01
 367  7.56850668   0.692  -1.10884   3.57467   6.83222   1.48872   0.00000   4.534E-02   0.000E+00   9.547E-01
 368  7.56977159   0.692  -1.10921   3.57473   6.83262   1.49059   0.00000   4.580E-02   0.000E+00   9.542E-01
 369  7.57103283   0.692  -1.10958   3.57478   6.83302   1.49245   0.00000   4.626E-02   0.000E+00   9.537E-01
 370  7.57229042   0.692  -1.10996   3.57483   6.83342   1.49432   0.00000   4.671E-02   0.000E+00   9.533E-01
 371  7.57354438   0.692  -1.11033   3.57488   6.83381   1.49619   0.00000   4.717E-02   0.000E+00   9.528E-01
 372  7.57479472   0.692  -1.11070   3.57493   6.83421   1.49805   0.00000   4.763E-02   0.000E+00   9.524E-01
 373  7.57604148   0.692  -1.11107   3.57498   6.83461   1.49991   0.00000   4.809E-02   0.000E+00   9.519E-01
 374  7.57728467   0.692  -1.11137   3.57504   6.83500   1.50170   0.00000   4.859E-02   0.000E+00   9.514E-01
 375  7.57852431   0.692  -1.11167   3.57509   6.83539   1.50349   0.00000   4.908E-02   0.000E+00   9.509E-01
 376  7.57976042   0.692  -1.11197   3.57515   6.83578   1.50528   0.00000   4.958E-02   0.000E+00   9.504E-01
 377  7.58099303   0.692  -1.11228   3.57520   6.83617   1.50707   0.00000   5.007E-02   0.000E+00   9.499E-01
 378  7.58222214   0.692  -1.11258   3.57526   6.83656   1.50886   0.00000   5.057E-02   0.000E+00   9.494E-01
 379  7.58344779   0.692  -1.11288   3.57531   6.83695   1.51065   0.00000   5.106E-02   0.000E+00   9.489E-01
 380  7.58466998   0.692  -1.11318   3.57537   6.83734   1.51244   0.00000   5.156E-02   0.000E+00   9.484E-01
 381  7.58588875   0.692  -1.11349   3.57542   6.83774   1.51423   0.00000   5.205E-02   0.000E+00   9.479E-01
 382  7.58710411   0.692  -1.11379   3.57548   6.83813   1.51602   0.00000   5.255E-02   0.000E+00   9.475E-01
 383  7.58831607   0.692  -1.11409   3.57554   6.83852   1.51781   0.00000   5.304E-02   0.000E+00   9.470E-01
 384  7.58952467   0.692  -1.11439   3.57559   6.83891   1.51961   0.00000   5.354E-02   0.000E+00   9.465E-01
 385  7.59072990   0.692  -1.11470   3.57565   6.83930   1.52140   0.00000   5.403E-02   0.000E+00   9.460E-01
 386  7.59193181   0.692  -1.11500   3.57570   6.83969   1.52319   0.00000   5.453E-02   0.000E+00   9.455E-01
 387  7.59313039   0.692  -1.11530   3.57576   6.84008   1.52498   0.00000   5.502E-02   0.000E+00   9.450E-01
 388  7.59432568   0.692  -1.11560   3.57581   6.84047   1.52677   0.00000   5.552E-02   0.000E+00   9.445E-01
 389  7.59551768   0.692  -1.11591   3.57587   6.84086   1.52856   0.00000   5.601E-02   0.000E+00   9.440E-01
 390  7.59670643   0.692  -1.11621   3.57592   6.84125   1.53035   0.00000   5.651E-02   0.000E+00   9.435E-01
 391  7.59789193   0.692  -1.11651   3.57598   6.84164   1.53214   0.00000   5.700E-02   0.000E+00   9.430E-01
 392  7.60665229   0.692  -1.11826   3.57644   6.84451   1.54496   0.00000   6.135E-02   0.000E+00   9.386E-01
 393  7.61523942   0.692  -1.12000   3.57689   6.84738   1.55778   0.00000   6.571E-02   0.000E+00   9.343E-01
 394  7.62366005   0.692  -1.12152   3.57736   6.85023   1.57033   0.00000   7.017E-02   0.000E+00   9.298E-01
 395  7.63192052   0.692  -1.12279   3.57785   6.85305   1.58257   0.00000   7.474E-02   0.000E+00   9.253E-01
 396  7.64002679   0.692  -1.12405   3.57834   6.85588   1.59482   0.00000   7.932E-02   0.000E+00   9.207E-01
 397  7.64798452   0.692  -1.12489   3.57887   6.85866   1.60660   0.00000   8.437E-02   0.000E+00   9.156E-01
 398  7.65579907   0.692  -1.12566   3.57940   6.86144   1.61829   0.00000   8.950E-02   0.000E+00   9.105E-01
 399  7.66347548   0.692  -1.12637   3.57994   6.86422   1.62992   0.00000   9.474E-02   0.000E+00   9.053E-01
 400  7.67101856   0.692  -1.12668   3.58051   6.86696   1.64106   0.00000   1.008E-01   0.000E+00   8.992E-01
 401  7.67843286   0.692  -1.12698   3.58108   6.86970   1.65219   0.00000   1.068E-01   0.000E+00   8.932E-01
 402  7.68572271   0.692  -1.12717   3.58166   6.87243   1.66316   0.00000   1.129E-01   0.000E+00   8.871E-01
 403  7.69289221   0.692  -1.12708   3.58226   6.87513   1.67373   0.00000   1.192E-01   0.000E+00   8.808E-01
 404  7.69994527   0.692  -1.12698   3.58287   6.87783   1.68430   0.00000   1.254E-01   0.000E+00   8.746E-01
 405  7.70688562   0.692  -1.12672   3.58348   6.88052   1.69463   0.00000   1.321E-01   0.000E+00   8.679E-01
 406  7.71371679   0.692  -1.12622   3.58412   6.88318   1.70463   0.00000   1.392E-01   0.000E+00   8.608E-01
 407  7.72044218   0.692  -1.12572   3.58475   6.88584   1.71463   0.00000   1.463E-01   0.000E+00   8.537E-01
 408  7.72706501   0.692  -1.12507   3.58541   6.88848   1.72436   0.00000   1.537E-01   0.000E+00   8.463E-01
 409  7.73358835   0.692  -1.12424   3.58607   6.89111   1.73379   0.00000   1.614E-01   0.000E+00   8.386E-01
 410  7.74001517   0.692  -1.12341   3.58674   6.89374   1.74322   0.00000   1.691E-01   0.000E+00   8.309E-01
 411  7.74634826   0.692  -1.12246   3.58741   6.89635   1.75237   0.00000   1.771E-01   0.000E+00   8.229E-01
 412  7.75259032   0.692  -1.12137   3.58809   6.89894   1.76122   0.00000   1.856E-01   0.000E+00   8.144E-01
 413  7.75874394   0.692  -1.12028   3.58876   6.90153   1.77006   0.00000   1.940E-01   0.000E+00   8.060E-01
 414  7.76481158   0.692  -1.11911   3.58944   6.90410   1.77864   0.00000   2.028E-01   0.000E+00   7.972E-01
 415  7.77079561   0.692  -1.11781   3.59013   6.90666   1.78684   0.00000   2.120E-01   0.000E+00   7.880E-01
 416  7.77669832   0.692  -1.11651   3.59081   6.90921   1.79503   0.00000   2.212E-01   0.000E+00   7.788E-01
 417  7.78252187   0.692  -1.11516   3.59149   6.91174   1.80307   0.00000   2.305E-01   0.000E+00   7.695E-01
 418  7.78826836   0.692  -1.11365   3.59218   6.91418   1.81065   0.00000   2.402E-01   0.000E+00   7.598E-01
 419  7.79393981   0.692  -1.11209   3.59286   6.91656   1.81794   0.00000   2.500E-01   0.000E+00   7.500E-01
 420  7.79953815   0.692  -1.11050   3.59353   6.91893   1.82506   0.00000   2.597E-01   0.000E+00   7.403E-01
 421  7.80506524   0.692  -1.10887   3.59421   6.92133   1.83207   0.00000   2.693E-01   0.000E+00   7.307E-01
 422  7.81052287   0.692  -1.10721   3.59489   6.92372   1.83887   0.00000   2.799E-01   0.000E+00   7.201E-01
 423  7.81591277   0.692  -1.10553   3.59557   6.92610   1.84546   0.00000   2.899E-01   0.000E+00   7.101E-01
 424  7.82123660   0.692  -1.10383   3.59624   6.92846   1.85187   0.00000   3.005E-01   0.000E+00   6.995E-01
 425  7.82649595   0.692  -1.10212   3.59691   6.93082   1.85808   0.00000   3.115E-01   0.000E+00   6.885E-01
 426  7.83169237   0.692  -1.10041   3.59758   6.93316   1.86411   0.00000   3.223E-01   0.000E+00   6.774E-01
 427  7.83682735   0.692  -1.09873   3.59825   6.93549   1.86994   0.00000   3.329E-01   0.000E+00   6.662E-01
 428  7.84190233   0.692  -1.09703   3.59890   6.93781   1.87559   0.00000   3.446E-01   0.000E+00   6.554E-01
 429  7.84691868   0.692  -1.09532   3.59956   6.94012   1.88101   0.00000   3.566E-01   0.000E+00   6.434E-01
 430  7.85187776   0.692  -1.09364   3.60021   6.94242   1.88620   0.00000   3.685E-01   0.000E+00   6.315E-01
 431  7.85678085   0.692  -1.09197   3.60086   6.94472   1.89119   0.00000   3.803E-01   0.000E+00   6.197E-01
 432  7.86162920   0.692  -1.09032   3.60150   6.94701   1.89598   0.00000   3.924E-01   0.000E+00   6.076E-01
 433  7.86642402   0.692  -1.08872   3.60214   6.94930   1.90056   0.00000   4.050E-01   0.000E+00   5.950E-01
 434  7.87116648   0.692  -1.08714   3.60276   6.95160   1.90493   0.00000   4.179E-01   0.000E+00   5.821E-01
 435  7.87585771   0.692  -1.08562   3.60338   6.95389   1.90899   0.00000   4.305E-01   0.000E+00   5.695E-01
 436  7.88049881   0.692  -1.08418   3.60398   6.95619   1.91281   0.00000   4.439E-01   0.000E+00   5.561E-01
 437  7.88509084   0.692  -1.08280   3.60457   6.95850   1.91638   0.00000   4.577E-01   0.000E+00   5.423E-01
 438  7.88963482   0.692  -1.08144   3.60515   6.96080   1.91972   0.00000   4.719E-01   0.000E+00   5.281E-01
 439  7.89413175   0.692  -1.08025   3.60571   6.96313   1.92268   0.00000   4.860E-01   0.000E+00   5.140E-01
 440  7.89858259   0.692  -1.07912   3.60624   6.96549   1.92539   0.00000   5.009E-01   0.000E+00   4.991E-01
 441  7.90298828   0.692  -1.07806   3.60676   6.96786   1.92788   0.00000   5.163E-01   0.000E+00   4.837E-01
 442  7.90734972   0.692  -1.07723   3.60724   6.97024   1.92992   0.00035   5.322E-01   0.000E+00   4.678E-01
 443  7.91166780   0.692  -1.07645   3.60770   6.97263   1.93186   0.00078   5.481E-01   0.000E+00   4.519E-01
 444  7.91594337   0.692  -1.07586   3.60812   6.97485   1.93324   0.00231   5.649E-01   3.699E-04   4.347E-01
 445  7.92017726   0.691  -1.07528   3.60854   6.97705   1.93458   0.00390   5.817E-01   7.614E-04   4.175E-01
 446  7.92437027   0.691  -1.07489   3.60891   6.97915   1.93566   0.00567   5.992E-01   1.000E-03   3.998E-01
 447  7.92852318   0.691  -1.07480   3.60923   6.98106   1.93633   0.00772   6.177E-01   1.000E-03   3.813E-01
 448  7.93263676   0.691  -1.07471   3.60954   6.98298   1.93700   0.00977   6.362E-01   1.000E-03   3.628E-01
 449  7.93671174   0.691  -1.07462   3.60986   6.98489   1.93766   0.01181   6.547E-01   1.000E-03   3.443E-01
 450  7.94074883   0.691  -1.07519   3.61002   6.98635   1.93743   0.01404   6.737E-01   1.000E-03   3.253E-01
 451  7.94474875   0.691  -1.07581   3.61017   6.98778   1.93714   0.01629   6.928E-01   1.000E-03   3.062E-01
 452  7.94871216   0.691  -1.07644   3.61031   6.98920   1.93684   0.01853   7.118E-01   1.000E-03   2.872E-01
 453  7.95263973   0.691  -1.07706   3.61046   6.99062   1.93654   0.02078   7.309E-01   1.000E-03   2.681E-01
 454  7.95653210   0.691  -1.07769   3.61061   6.99205   1.93625   0.02302   7.500E-01   1.000E-03   2.490E-01
 455  7.96038989   0.691  -1.07869   3.61065   6.99331   1.93467   0.02669   7.826E-01   1.000E-03   2.161E-01
 456  7.96421372   0.691  -1.07983   3.61066   6.99452   1.93264   0.03088   8.201E-01   1.000E-03   1.783E-01
 457  7.96800417   0.691  -1.08097   3.61066   6.99573   1.93060   0.03507   8.576E-01   1.000E-03   1.405E-01
 458  7.97176182   0.691  -1.08229   3.61062   6.99679   1.92827   0.03916   8.939E-01   1.000E-03   1.041E-01
 459  7.97548724   0.691  -1.08378   3.61054   6.99773   1.92568   0.04316   9.293E-01   1.000E-03   6.880E-02
 460  7.97918098   0.691  -1.08547   3.61041   6.99851   1.92301   0.04625   9.555E-01   1.579E-03   4.285E-02
 461  7.98284356   0.691  -1.08732   3.61025   6.99917   1.92034   0.04907   9.762E-01   2.000E-03   2.223E-02
 462  7.98647552   0.691  -1.08933   3.61005   6.99972   1.91767   0.05197   9.935E-01   2.000E-03   4.766E-03
 463  7.99007735   0.691  -1.09152   3.60982   7.00016   1.91499   0.05424   1.011E+00   2.000E-03  -1.238E-02
 464  7.99364956   0.691  -1.09387   3.60955   7.00052   1.91238   0.05548   1.023E+00   2.000E-03  -2.428E-02
 465  7.99719262   0.691  -1.09636   3.60926   7.00079   1.90983   0.05743   1.034E+00   2.000E-03  -3.596E-02
 466  8.00070701   0.691  -1.09898   3.60893   7.00100   1.90734   0.05743   1.044E+00   2.000E-03  -4.554E-02
 467  8.00419319   0.691  -1.10173   3.60858   7.00114   1.90498   0.05743   1.050E+00   2.000E-03  -5.129E-02
 468  8.00765161   0.691  -1.10457   3.60820   7.00121   1.90274   0.05743   1.055E+00   2.000E-03  -5.610E-02
 469  8.01108271   0.691  -1.10748   3.60782   7.00124   1.90062   0.05743   1.058E+00   2.000E-03  -6.014E-02
 470  8.01448691   0.691  -1.11041   3.60741   7.00122   1.89864   0.05743   1.062E+00   2.000E-03  -6.338E-02
 471  8.01786464   0.691  -1.11338   3.60700   7.00116   1.89676   0.05743   1.064E+00   2.000E-03  -6.596E-02
 472  8.02121629   0.691  -1.11635   3.60659   7.00107   1.89501   0.05743   1.066E+00   2.000E-03  -6.801E-02
 473  8.02454228   0.691  -1.11931   3.60616   7.00096   1.89336   0.05743   1.068E+00   2.000E-03  -6.968E-02
 474  8.02784300   0.691  -1.12223   3.60575   7.00082   1.89184   0.05424   1.069E+00   2.000E-03  -7.081E-02
 475  8.03111881   0.691  -1.12512   3.60532   7.00066   1.89043   0.05424   1.070E+00   2.000E-03  -7.124E-02
 476  8.03437010   0.691  -1.12793   3.60492   7.00048   1.88913   0.05424   1.070E+00   2.000E-03  -7.140E-02
 477  8.03759723   0.691  -1.13068   3.60451   7.00028   1.88794   0.05424   1.070E+00   2.000E-03  -7.134E-02
 478  8.04080056   0.691  -1.13333   3.60411   7.00008   1.88684   0.05105   1.069E+00   2.000E-03  -7.110E-02
 479  8.04398043   0.691  -1.13588   3.60373   6.99987   1.88584   0.05105   1.069E+00   2.000E-03  -7.028E-02
 480  8.04713719   0.691  -1.13832   3.60336   6.99965   1.88493   0.05105   1.067E+00   2.000E-03  -6.939E-02
 481  8.05027117   0.691  -1.14061   3.60300   6.99942   1.88410   0.04929   1.066E+00   2.000E-03  -6.831E-02
 482  8.05338269   0.691  -1.14276   3.60267   6.99919   1.88336   0.04882   1.065E+00   2.000E-03  -6.680E-02
 483  8.05647209   0.691  -1.14476   3.60236   6.99897   1.88269   0.04882   1.064E+00   2.000E-03  -6.531E-02
 484  8.05953966   0.691  -1.14663   3.60206   6.99874   1.88210   0.04692   1.062E+00   2.000E-03  -6.362E-02
 485  8.06258571   0.691  -1.14837   3.60178   6.99852   1.88157   0.04690   1.060E+00   2.000E-03  -6.175E-02
 486  8.06561055   0.691  -1.14997   3.60153   6.99830   1.88112   0.04538   1.058E+00   2.000E-03  -5.985E-02
 487  8.06861447   0.691  -1.15143   3.60129   6.99808   1.88072   0.04499   1.056E+00   2.000E-03  -5.782E-02
 488  8.07159775   0.691  -1.15276   3.60107   6.99787   1.88037   0.04430   1.054E+00   2.000E-03  -5.575E-02
 489  8.07456068   0.691  -1.15400   3.60086   6.99766   1.88006   0.04307   1.052E+00   2.000E-03  -5.367E-02
 490  8.07750353   0.691  -1.15507   3.60067   6.99747   1.87982   0.04307   1.050E+00   2.000E-03  -5.141E-02
 491  8.08042657   0.691  -1.15601   3.60051   6.99728   1.87961   0.04255   1.048E+00   2.000E-03  -4.919E-02
 492  8.08333007   0.691  -1.15685   3.60036   6.99709   1.87943   0.04154   1.046E+00   2.000E-03  -4.701E-02
 493  8.08621429   0.691  -1.15754   3.60024   6.99692   1.87930   0.04116   1.043E+00   2.000E-03  -4.479E-02
 494  8.08907948   0.691  -1.15814   3.60012   6.99675   1.87920   0.04116   1.041E+00   2.000E-03  -4.254E-02
 495  8.09192589   0.691  -1.15869   3.60001   6.99659   1.87911   0.04103   1.039E+00   1.931E-03  -4.036E-02
 496  8.09475377   0.691  -1.15905   3.59993   6.99644   1.87907   0.04045   1.037E+00   1.627E-03  -3.841E-02
 497  8.09756335   0.691  -1.15942   3.59985   6.99630   1.87903   0.03987   1.035E+00   1.323E-03  -3.647E-02
 498  8.10035488   0.691  -1.15978   3.59977   6.99616   1.87899   0.03929   1.033E+00   1.019E-03  -3.452E-02
 499  8.10312857   0.691  -1.15990   3.59973   6.99605   1.87901   0.03925   1.031E+00   1.000E-03  -3.284E-02
 500  8.10588467   0.691  -1.16001   3.59970   6.99594   1.87902   0.03925   1.030E+00   1.000E-03  -3.118E-02
 501  8.10862338   0.691  -1.16012   3.59966   6.99583   1.87904   0.03925   1.028E+00   1.000E-03  -2.952E-02
 502  8.11134493   0.691  -1.16022   3.59962   6.99573   1.87905   0.03925   1.027E+00   1.000E-03  -2.786E-02
 503  8.11404953   0.691  -1.16033   3.59958   6.99562   1.87907   0.03925   1.025E+00   1.000E-03  -2.620E-02
 504  8.11673739   0.691  -1.16025   3.59957   6.99555   1.87910   0.03895   1.024E+00   1.000E-03  -2.517E-02
 505  8.11940872   0.691  -1.16017   3.59957   6.99548   1.87913   0.03864   1.023E+00   1.000E-03  -2.414E-02
 506  8.12206372   0.691  -1.16008   3.59956   6.99541   1.87916   0.03834   1.022E+00   1.000E-03  -2.312E-02
 507  8.12470259   0.691  -1.16000   3.59956   6.99534   1.87919   0.03804   1.021E+00   1.000E-03  -2.209E-02
 508  8.12732552   0.691  -1.15992   3.59955   6.99527   1.87922   0.03774   1.020E+00   1.000E-03  -2.107E-02
 509  8.12993270   0.691  -1.15984   3.59955   6.99520   1.87925   0.03743   1.019E+00   1.000E-03  -2.004E-02
 510  8.13252432   0.691  -1.15975   3.59954   6.99513   1.87928   0.03713   1.017E+00   1.000E-03  -1.901E-02
 511  8.13510058   0.691  -1.15963   3.59955   6.99508   1.87930   0.03689   1.017E+00   1.000E-03  -1.824E-02
 512  8.13766163   0.691  -1.15949   3.59956   6.99504   1.87932   0.03669   1.016E+00   1.000E-03  -1.764E-02
 513  8.14020768   0.691  -1.15934   3.59957   6.99499   1.87934   0.03649   1.015E+00   1.000E-03  -1.703E-02
 514  8.14273888   0.691  -1.15919   3.59958   6.99495   1.87936   0.03629   1.015E+00   1.000E-03  -1.643E-02
 515  8.14525542   0.691  -1.15905   3.59959   6.99491   1.87939   0.03609   1.014E+00   1.000E-03  -1.583E-02
 516  8.14775746   0.691  -1.15890   3.59960   6.99487   1.87941   0.03589   1.013E+00   1.000E-03  -1.522E-02
 517  8.15024517   0.691  -1.15875   3.59961   6.99483   1.87943   0.03569   1.013E+00   1.000E-03  -1.462E-02
 518  8.15271871   0.691  -1.15860   3.59962   6.99479   1.87945   0.03548   1.012E+00   1.000E-03  -1.402E-02
 519  8.15517824   0.691  -1.15846   3.59963   6.99475   1.87947   0.03528   1.012E+00   1.000E-03  -1.341E-02
 520  8.15762392   0.691  -1.15831   3.59964   6.99471   1.87949   0.03508   1.011E+00   1.000E-03  -1.281E-02
 521  8.16005590   0.691  -1.15816   3.59964   6.99467   1.87951   0.03488   1.010E+00   1.000E-03  -1.221E-02
 522  8.16247434   0.691  -1.15803   3.59965   6.99464   1.87952   0.03471   1.010E+00   1.000E-03  -1.178E-02
 523  8.16487939   0.691  -1.15792   3.59966   6.99461   1.87951   0.03457   1.010E+00   1.000E-03  -1.154E-02
 524  8.16727119   0.691  -1.15780   3.59967   6.99458   1.87951   0.03443   1.009E+00   1.000E-03  -1.130E-02
 525  8.16964990   0.691  -1.15768   3.59968   6.99456   1.87951   0.03429   1.009E+00   1.000E-03  -1.105E-02
 526  8.17201564   0.691  -1.15757   3.59969   6.99453   1.87950   0.03415   1.009E+00   1.000E-03  -1.081E-02
 527  8.17436857   0.691  -1.15745   3.59970   6.99450   1.87950   0.03401   1.009E+00   1.000E-03  -1.057E-02
 528  8.17670882   0.691  -1.15734   3.59971   6.99448   1.87950   0.03386   1.009E+00   1.000E-03  -1.033E-02
 529  8.17903652   0.691  -1.15722   3.59972   6.99445   1.87949   0.03372   1.008E+00   1.000E-03  -1.008E-02
 530  8.18135182   0.691  -1.15710   3.59972   6.99443   1.87949   0.03358   1.008E+00   1.000E-03  -9.841E-03
 531  8.18365484   0.691  -1.15699   3.59973   6.99440   1.87949   0.03344   1.008E+00   1.000E-03  -9.598E-03
 532  8.18594571   0.691  -1.15687   3.59974   6.99437   1.87948   0.03330   1.008E+00   1.000E-03  -9.356E-03
 533  8.18822456   0.691  -1.15676   3.59975   6.99435   1.87948   0.03316   1.007E+00   1.000E-03  -9.113E-03
 534  8.19049151   0.691  -1.15664   3.59976   6.99432   1.87947   0.03302   1.007E+00   1.000E-03  -8.871E-03
 535  8.19274669   0.691  -1.15652   3.59977   6.99429   1.87947   0.03288   1.007E+00   1.000E-03  -8.628E-03
 536  8.19499022   0.691  -1.15646   3.59977   6.99427   1.87945   0.03278   1.007E+00   1.000E-03  -8.546E-03
 537  8.19722223   0.691  -1.15640   3.59978   6.99425   1.87943   0.03269   1.007E+00   1.000E-03  -8.484E-03
 538  8.19944281   0.691  -1.15634   3.59978   6.99423   1.87941   0.03259   1.007E+00   1.000E-03  -8.423E-03
 539  8.20165211   0.691  -1.15628   3.59978   6.99420   1.87939   0.03250   1.007E+00   1.000E-03  -8.362E-03
 540  8.20385022   0.691  -1.15622   3.59979   6.99418   1.87937   0.03241   1.007E+00   1.000E-03  -8.300E-03
 541  8.20603726   0.691  -1.15616   3.59979   6.99416   1.87934   0.03232   1.007E+00   1.000E-03  -8.239E-03
 542  8.20821334   0.691  -1.15610   3.59979   6.99414   1.87932   0.03223   1.007E+00   1.000E-03  -8.178E-03
 543  8.21037858   0.691  -1.15604   3.59980   6.99412   1.87930   0.03213   1.007E+00   1.000E-03  -8.116E-03
 544  8.21253307   0.691  -1.15599   3.59980   6.99409   1.87928   0.03204   1.006E+00   1.000E-03  -8.055E-03
 545  8.21467693   0.691  -1.15593   3.59980   6.99407   1.87926   0.03195   1.006E+00   1.000E-03  -7.994E-03
 546  8.21681025   0.691  -1.15587   3.59981   6.99405   1.87924   0.03186   1.006E+00   1.000E-03  -7.932E-03
 547  8.21893315   0.691  -1.15581   3.59981   6.99403   1.87922   0.03177   1.006E+00   1.000E-03  -7.871E-03
 548  8.22104572   0.691  -1.15575   3.59981   6.99401   1.87919   0.03167   1.006E+00   1.000E-03  -7.810E-03
 549  8.22314807   0.691  -1.15569   3.59982   6.99398   1.87917   0.03158   1.006E+00   1.000E-03  -7.748E-03
 550  8.22524028   0.691  -1.15563   3.59982   6.99396   1.87915   0.03149   1.006E+00   1.000E-03  -7.687E-03
 551  8.22732247   0.691  -1.15557   3.59983   6.99394   1.87913   0.03140   1.006E+00   1.000E-03  -7.626E-03
 552  8.22939472   0.691  -1.15551   3.59983   6.99392   1.87911   0.03131   1.006E+00   1.000E-03  -7.564E-03
 553  8.23145713   0.691  -1.15548   3.59983   6.99389   1.87907   0.03119   1.006E+00   1.000E-03  -7.567E-03
 554  8.23350979   0.691  -1.15547   3.59982   6.99387   1.87903   0.03105   1.006E+00   1.000E-03  -7.612E-03
 555  8.23555279   0.691  -1.15546   3.59982   6.99384   1.87899   0.03091   1.006E+00   1.000E-03  -7.658E-03
 556  8.23758623   0.691  -1.15544   3.59982   6.99382   1.87895   0.03077   1.006E+00   1.000E-03  -7.703E-03
 557  8.23961020   0.690  -1.15543   3.59981   6.99379   1.87891   0.03063   1.006E+00   1.000E-03  -7.748E-03
 558  8.24162477   0.690  -1.15542   3.59981   6.99377   1.87886   0.03049   1.006E+00   1.000E-03  -7.793E-03
 559  8.24363004   0.690  -1.15540   3.59981   6.99374   1.87882   0.03036   1.006E+00   1.000E-03  -7.838E-03
 560  8.24562610   0.690  -1.15539   3.59980   6.99372   1.87878   0.03022   1.006E+00   1.000E-03  -7.883E-03
 561  8.24761303   0.690  -1.15538   3.59980   6.99369   1.87874   0.03008   1.006E+00   1.000E-03  -7.928E-03
 562  8.24959090   0.690  -1.15536   3.59980   6.99367   1.87870   0.02994   1.006E+00   1.000E-03  -7.974E-03
 563  8.25155981   0.690  -1.15535   3.59979   6.99364   1.87865   0.02980   1.006E+00   1.000E-03  -8.019E-03
 564  8.25351983   0.690  -1.15534   3.59979   6.99362   1.87861   0.02966   1.006E+00   1.000E-03  -8.064E-03
 565  8.25547105   0.690  -1.15532   3.59979   6.99359   1.87857   0.02952   1.006E+00   1.000E-03  -8.109E-03
 566  8.25741354   0.690  -1.15531   3.59978   6.99357   1.87853   0.02939   1.007E+00   1.000E-03  -8.154E-03
 567  8.25934738   0.690  -1.15530   3.59978   6.99354   1.87849   0.02925   1.007E+00   1.000E-03  -8.199E-03
 568  8.26127264   0.690  -1.15529   3.59978   6.99352   1.87844   0.02911   1.007E+00   1.000E-03  -8.244E-03
 569  8.26318941   0.690  -1.15527   3.59977   6.99349   1.87840   0.02897   1.007E+00   1.000E-03  -8.290E-03
 570  8.26509776   0.690  -1.15526   3.59977   6.99347   1.87836   0.02883   1.007E+00   1.000E-03  -8.335E-03
 571  8.26699776   0.690  -1.15525   3.59977   6.99344   1.87832   0.02869   1.007E+00   1.000E-03  -8.380E-03
 572  8.26888948   0.690  -1.15523   3.59976   6.99342   1.87828   0.02855   1.007E+00   1.000E-03  -8.425E-03
 573  8.27077300   0.690  -1.15522   3.59976   6.99339   1.87823   0.02842   1.007E+00   1.000E-03  -8.470E-03
 574  8.27264838   0.690  -1.15521   3.59975   6.99337   1.87819   0.02828   1.007E+00   1.000E-03  -8.515E-03
 575  8.27451570   0.690  -1.15519   3.59975   6.99334   1.87815   0.02814   1.007E+00   1.000E-03  -8.560E-03
 576  8.27637503   0.690  -1.15518   3.59975   6.99332   1.87811   0.02800   1.007E+00   1.000E-03  -8.606E-03
 577  8.27822643   0.690  -1.15517   3.59974   6.99329   1.87807   0.02786   1.007E+00   1.000E-03  -8.651E-03
 578  8.28006997   0.690  -1.15515   3.59974   6.99327   1.87802   0.02772   1.007E+00   1.000E-03  -8.696E-03
 579  8.28190571   0.690  -1.15515   3.59974   6.99324   1.87799   0.02760   1.007E+00   1.000E-03  -8.702E-03
 580  8.28373373   0.690  -1.15515   3.59973   6.99321   1.87796   0.02748   1.007E+00   1.000E-03  -8.690E-03
 581  8.28555409   0.690  -1.15515   3.59973   6.99319   1.87792   0.02735   1.007E+00   1.000E-03  -8.678E-03
 582  8.28736685   0.690  -1.15515   3.59972   6.99316   1.87789   0.02723   1.007E+00   1.000E-03  -8.665E-03
 583  8.28917208   0.690  -1.15514   3.59972   6.99313   1.87786   0.02711   1.007E+00   1.000E-03  -8.653E-03
 584  8.29096983   0.690  -1.15514   3.59971   6.99310   1.87783   0.02699   1.007E+00   1.000E-03  -8.641E-03
 585  8.29276017   0.690  -1.15514   3.59971   6.99308   1.87780   0.02687   1.007E+00   1.000E-03  -8.629E-03
 586  8.29454317   0.690  -1.15514   3.59970   6.99305   1.87777   0.02675   1.007E+00   1.000E-03  -8.617E-03
 587  8.29631887   0.690  -1.15514   3.59970   6.99302   1.87774   0.02663   1.007E+00   1.000E-03  -8.605E-03
 588  8.29808734   0.690  -1.15514   3.59969   6.99299   1.87770   0.02651   1.007E+00   1.000E-03  -8.593E-03
 589  8.29984864   0.690  -1.15514   3.59969   6.99297   1.87767   0.02639   1.007E+00   1.000E-03  -8.581E-03
 590  8.30160282   0.690  -1.15513   3.59968   6.99294   1.87764   0.02626   1.007E+00   1.000E-03  -8.569E-03
 591  8.30334995   0.690  -1.15513   3.59968   6.99291   1.87761   0.02614   1.007E+00   1.000E-03  -8.557E-03
 592  8.30509007   0.690  -1.15513   3.59967   6.99288   1.87758   0.02602   1.007E+00   1.000E-03  -8.545E-03
 593  8.30682326   0.690  -1.15513   3.59967   6.99286   1.87755   0.02590   1.007E+00   1.000E-03  -8.532E-03
 594  8.30854955   0.690  -1.15513   3.59966   6.99283   1.87751   0.02578   1.007E+00   1.000E-03  -8.520E-03
 595  8.31026901   0.690  -1.15513   3.59966   6.99280   1.87748   0.02566   1.007E+00   1.000E-03  -8.508E-03
 596  8.31198168   0.690  -1.15513   3.59965   6.99277   1.87745   0.02554   1.007E+00   1.000E-03  -8.496E-03
 597  8.31368763   0.690  -1.15513   3.59965   6.99275   1.87742   0.02542   1.007E+00   1.000E-03  -8.484E-03
 598  8.31538691   0.690  -1.15512   3.59964   6.99272   1.87739   0.02529   1.007E+00   1.000E-03  -8.472E-03
 599  8.31707956   0.690  -1.15512   3.59964   6.99269   1.87736   0.02517   1.007E+00   1.000E-03  -8.460E-03
 600  8.31876564   0.690  -1.15512   3.59963   6.99266   1.87732   0.02505   1.007E+00   1.000E-03  -8.448E-03
 601  8.32044520   0.690  -1.15512   3.59963   6.99264   1.87729   0.02493   1.007E+00   1.000E-03  -8.436E-03
 602  8.32211829   0.690  -1.15512   3.59962   6.99261   1.87726   0.02481   1.007E+00   1.000E-03  -8.424E-03
 603  8.32378496   0.690  -1.15512   3.59962   6.99258   1.87723   0.02469   1.007E+00   1.000E-03  -8.412E-03
 604  8.32544526   0.690  -1.15512   3.59961   6.99255   1.87720   0.02457   1.007E+00   1.000E-03  -8.399E-03
 605  8.32709923   0.690  -1.15512   3.59961   6.99253   1.87717   0.02445   1.007E+00   1.000E-03  -8.387E-03
 606  8.32874693   0.690  -1.15511   3.59960   6.99250   1.87713   0.02433   1.007E+00   1.000E-03  -8.375E-03
 607  8.33038840   0.690  -1.15511   3.59960   6.99247   1.87710   0.02420   1.007E+00   1.000E-03  -8.363E-03
 608  8.33202369   0.690  -1.15511   3.59959   6.99244   1.87707   0.02408   1.007E+00   1.000E-03  -8.351E-03
 609  8.33365285   0.690  -1.15511   3.59959   6.99242   1.87704   0.02396   1.007E+00   1.000E-03  -8.339E-03
 610  8.33527592   0.690  -1.15511   3.59959   6.99239   1.87701   0.02384   1.007E+00   1.000E-03  -8.327E-03
 611  8.33689294   0.690  -1.15511   3.59958   6.99236   1.87698   0.02372   1.007E+00   1.000E-03  -8.315E-03
 612  8.33850397   0.690  -1.15511   3.59958   6.99233   1.87694   0.02360   1.007E+00   1.000E-03  -8.303E-03
 613  8.34010904   0.690  -1.15511   3.59957   6.99231   1.87691   0.02348   1.007E+00   1.000E-03  -8.291E-03
 614  8.34170820   0.690  -1.15510   3.59957   6.99228   1.87688   0.02336   1.007E+00   1.000E-03  -8.279E-03
 615  8.34330150   0.690  -1.15510   3.59956   6.99225   1.87685   0.02324   1.007E+00   1.000E-03  -8.266E-03
 616  8.34488897   0.690  -1.15510   3.59956   6.99222   1.87682   0.02311   1.007E+00   1.000E-03  -8.254E-03
 617  8.34647066   0.690  -1.15510   3.59955   6.99220   1.87679   0.02299   1.007E+00   1.000E-03  -8.242E-03
 618  8.34804661   0.690  -1.15510   3.59955   6.99217   1.87676   0.02289   1.007E+00   1.000E-03  -8.237E-03
 619  8.34961686   0.690  -1.15510   3.59954   6.99214   1.87673   0.02280   1.007E+00   1.000E-03  -8.233E-03
 620  8.35118145   0.690  -1.15510   3.59954   6.99211   1.87670   0.02270   1.007E+00   1.000E-03  -8.229E-03
 621  8.35274043   0.690  -1.15510   3.59953   6.99208   1.87667   0.02260   1.007E+00   1.000E-03  -8.225E-03
 622  8.35429383   0.690  -1.15509   3.59953   6.99205   1.87664   0.02251   1.007E+00   1.000E-03  -8.221E-03
 623  8.35584170   0.690  -1.15509   3.59952   6.99203   1.87661   0.02241   1.007E+00   1.000E-03  -8.217E-03
 624  8.35738407   0.690  -1.15509   3.59952   6.99200   1.87658   0.02231   1.007E+00   1.000E-03  -8.213E-03
 625  8.35892098   0.690  -1.15509   3.59951   6.99197   1.87655   0.02222   1.007E+00   1.000E-03  -8.209E-03
 626  8.36045247   0.690  -1.15509   3.59951   6.99194   1.87652   0.02212   1.007E+00   1.000E-03  -8.205E-03
 627  8.36197857   0.690  -1.15509   3.59950   6.99191   1.87649   0.02202   1.007E+00   1.000E-03  -8.201E-03
 628  8.36349934   0.690  -1.15509   3.59950   6.99189   1.87646   0.02193   1.007E+00   1.000E-03  -8.197E-03
 629  8.36501480   0.690  -1.15509   3.59949   6.99186   1.87644   0.02183   1.007E+00   1.000E-03  -8.193E-03
 630  8.36652499   0.690  -1.15508   3.59949   6.99183   1.87641   0.02174   1.007E+00   1.000E-03  -8.189E-03
 631  8.36802994   0.690  -1.15508   3.59948   6.99180   1.87638   0.02164   1.007E+00   1.000E-03  -8.186E-03
 632  8.36952970   0.690  -1.15508   3.59948   6.99177   1.87635   0.02154   1.007E+00   1.000E-03  -8.182E-03
 633  8.37102430   0.690  -1.15508   3.59947   6.99175   1.87632   0.02145   1.007E+00   1.000E-03  -8.178E-03
 634  8.37251377   0.690  -1.15508   3.59947   6.99172   1.87629   0.02135   1.007E+00   1.000E-03  -8.174E-03
 635  8.37399815   0.690  -1.15508   3.59946   6.99169   1.87626   0.02125   1.007E+00   1.000E-03  -8.170E-03
 636  8.37547747   0.690  -1.15508   3.59946   6.99166   1.87623   0.02116   1.007E+00   1.000E-03  -8.166E-03
 637  8.37695177   0.690  -1.15508   3.59945   6.99163   1.87620   0.02106   1.007E+00   1.000E-03  -8.162E-03
 638  8.37842109   0.690  -1.15508   3.59945   6.99160   1.87617   0.02096   1.007E+00   1.000E-03  -8.158E-03
 639  8.37988545   0.690  -1.15507   3.59945   6.99158   1.87614   0.02087   1.007E+00   1.000E-03  -8.154E-03
 640  8.38134488   0.690  -1.15507   3.59944   6.99155   1.87612   0.02077   1.007E+00   1.000E-03  -8.150E-03
 641  8.38279943   0.690  -1.15507   3.59944   6.99152   1.87609   0.02068   1.007E+00   1.000E-03  -8.146E-03
 642  8.38424913   0.690  -1.15507   3.59943   6.99149   1.87606   0.02058   1.007E+00   1.000E-03  -8.142E-03
 643  8.38569400   0.690  -1.15507   3.59943   6.99146   1.87603   0.02048   1.007E+00   1.000E-03  -8.138E-03
 644  8.38713408   0.690  -1.15507   3.59942   6.99144   1.87600   0.02039   1.007E+00   1.000E-03  -8.134E-03
 645  8.38856941   0.690  -1.15507   3.59942   6.99141   1.87597   0.02029   1.007E+00   1.000E-03  -8.130E-03
 646  8.39000000   0.690  -1.15507   3.59941   6.99138   1.87594   0.02019   1.007E+00   1.000E-03  -8.126E-03
 647  8.39142590   0.690  -1.15506   3.59941   6.99135   1.87591   0.02010   1.007E+00   1.000E-03  -8.122E-03
 648  8.39284713   0.690  -1.15506   3.59940   6.99132   1.87588   0.02000   1.007E+00   1.000E-03  -8.118E-03
 649  8.39426372   0.690  -1.15506   3.59940   6.99130   1.87585   0.01990   1.007E+00   1.000E-03  -8.115E-03
 650  8.39567571   0.689  -1.15506   3.59939   6.99127   1.87582   0.01981   1.007E+00   1.000E-03  -8.111E-03
 651  8.39708312   0.689  -1.15506   3.59939   6.99124   1.87579   0.01971   1.007E+00   1.000E-03  -8.107E-03
 652  8.39848599   0.689  -1.15506   3.59938   6.99121   1.87577   0.01962   1.007E+00   1.000E-03  -8.103E-03
 653  8.39988434   0.689  -1.15506   3.59938   6.99118   1.87574   0.01952   1.007E+00   1.000E-03  -8.099E-03
 654  8.40127820   0.689  -1.15506   3.59937   6.99115   1.87571   0.01942   1.007E+00   1.000E-03  -8.095E-03
 655  8.40266760   0.689  -1.15505   3.59937   6.99113   1.87568   0.01933   1.007E+00   1.000E-03  -8.091E-03
 656  8.40405258   0.689  -1.15505   3.59936   6.99110   1.87565   0.01923   1.007E+00   1.000E-03  -8.087E-03
 657  8.40543315   0.689  -1.15505   3.59936   6.99107   1.87562   0.01913   1.007E+00   1.000E-03  -8.083E-03
 658  8.40680934   0.689  -1.15505   3.59935   6.99104   1.87559   0.01904   1.007E+00   1.000E-03  -8.079E-03
 659  8.40818119   0.689  -1.15505   3.59935   6.99101   1.87556   0.01894   1.007E+00   1.000E-03  -8.075E-03
 660  8.40954871   0.689  -1.15505   3.59934   6.99099   1.87553   0.01884   1.007E+00   1.000E-03  -8.071E-03
 661  8.41091195   0.689  -1.15505   3.59934   6.99096   1.87550   0.01875   1.007E+00   1.000E-03  -8.067E-03
 662  8.41227092   0.689  -1.15505   3.59933   6.99093   1.87547   0.01865   1.007E+00   1.000E-03  -8.063E-03
 663  8.41362565   0.689  -1.15505   3.59933   6.99090   1.87544   0.01856   1.007E+00   1.000E-03  -8.059E-03
 664  8.41497617   0.689  -1.15504   3.59933   6.99087   1.87542   0.01846   1.007E+00   1.000E-03  -8.055E-03
 665  8.41632250   0.689  -1.15504   3.59932   6.99085   1.87539   0.01836   1.007E+00   1.000E-03  -8.051E-03
 666  8.41766467   0.689  -1.15504   3.59932   6.99082   1.87536   0.01827   1.007E+00   1.000E-03  -8.047E-03
 667  8.41900270   0.689  -1.15504   3.59931   6.99079   1.87533   0.01817   1.007E+00   1.000E-03  -8.044E-03
 668  8.42033663   0.689  -1.15504   3.59931   6.99076   1.87530   0.01807   1.007E+00   1.000E-03  -8.040E-03
 669  8.42166647   0.689  -1.15504   3.59930   6.99073   1.87527   0.01798   1.007E+00   1.000E-03  -8.036E-03
 670  8.42299225   0.689  -1.15504   3.59930   6.99070   1.87524   0.01788   1.007E+00   1.000E-03  -8.032E-03
 671  8.42431399   0.689  -1.15504   3.59929   6.99068   1.87521   0.01778   1.007E+00   1.000E-03  -8.028E-03
 672  8.42563173   0.689  -1.15503   3.59929   6.99065   1.87518   0.01769   1.007E+00   1.000E-03  -8.024E-03
 673  8.42694548   0.689  -1.15503   3.59928   6.99062   1.87515   0.01759   1.007E+00   1.000E-03  -8.020E-03
 674  8.42825526   0.689  -1.15503   3.59928   6.99059   1.87512   0.01749   1.007E+00   1.000E-03  -8.016E-03
 675  8.42956111   0.689  -1.15503   3.59927   6.99056   1.87509   0.01740   1.007E+00   1.000E-03  -8.012E-03
 676  8.43086305   0.689  -1.15503   3.59927   6.99054   1.87507   0.01731   1.007E+00   1.000E-03  -8.003E-03
 677  8.43216109   0.689  -1.15503   3.59926   6.99051   1.87505   0.01724   1.007E+00   1.000E-03  -7.989E-03
 678  8.43345526   0.689  -1.15502   3.59926   6.99049   1.87502   0.01717   1.007E+00   1.000E-03  -7.974E-03
 679  8.43474559   0.689  -1.15502   3.59926   6.99047   1.87500   0.01709   1.007E+00   1.000E-03  -7.960E-03
 680  8.43603210   0.689  -1.15502   3.59925   6.99044   1.87498   0.01702   1.007E+00   1.000E-03  -7.946E-03
 681  8.43731481   0.689  -1.15502   3.59925   6.99042   1.87496   0.01694   1.007E+00   1.000E-03  -7.931E-03
 682  8.43859374   0.689  -1.15501   3.59925   6.99039   1.87494   0.01687   1.007E+00   1.000E-03  -7.917E-03
 683  8.43986891   0.689  -1.15501   3.59924   6.99037   1.87491   0.01680   1.007E+00   1.000E-03  -7.903E-03
 684  8.44114036   0.689  -1.15501   3.59924   6.99034   1.87489   0.01672   1.007E+00   1.000E-03  -7.889E-03
 685  8.44240809   0.689  -1.15501   3.59923   6.99032   1.87487   0.01665   1.007E+00   1.000E-03  -7.874E-03
 686  8.44367213   0.689  -1.15500   3.59923   6.99030   1.87485   0.01657   1.007E+00   1.000E-03  -7.860E-03
 687  8.44493250   0.689  -1.15500   3.59923   6.99027   1.87482   0.01650   1.007E+00   1.000E-03  -7.846E-03
 688  8.44618922   0.689  -1.15500   3.59922   6.99025   1.87480   0.01643   1.007E+00   1.000E-03  -7.831E-03
 689  8.44744232   0.689  -1.15499   3.59922   6.99022   1.87478   0.01635   1.007E+00   1.000E-03  -7.817E-03
 690  8.44869181   0.689  -1.15499   3.59922   6.99020   1.87476   0.01628   1.007E+00   1.000E-03  -7.803E-03
 691  8.44993772   0.689  -1.15499   3.59921   6.99017   1.87473   0.01621   1.007E+00   1.000E-03  -7.789E-03
 692  8.45118007   0.689  -1.15499   3.59921   6.99015   1.87471   0.01613   1.007E+00   1.000E-03  -7.774E-03
 693  8.45241887   0.689  -1.15498   3.59920   6.99013   1.87469   0.01606   1.007E+00   1.000E-03  -7.760E-03
 694  8.45365415   0.689  -1.15498   3.59920   6.99010   1.87467   0.01598   1.007E+00   1.000E-03  -7.746E-03
 695  8.45488592   0.689  -1.15498   3.59920   6.99008   1.87465   0.01591   1.007E+00   1.000E-03  -7.731E-03
 696  8.45611421   0.689  -1.15498   3.59919   6.99005   1.87462   0.01584   1.007E+00   1.000E-03  -7.717E-03
 697  8.45733904   0.689  -1.15497   3.59919   6.99003   1.87460   0.01576   1.007E+00   1.000E-03  -7.703E-03
 698  8.45856042   0.689  -1.15497   3.59919   6.99000   1.87458   0.01569   1.007E+00   1.000E-03  -7.689E-03
 699  8.45977838   0.689  -1.15497   3.59918   6.98998   1.87456   0.01561   1.007E+00   1.000E-03  -7.674E-03
 700  8.46099293   0.689  -1.15497   3.59918   6.98996   1.87453   0.01554   1.007E+00   1.000E-03  -7.660E-03
 701  8.46220409   0.689  -1.15496   3.59917   6.98993   1.87451   0.01547   1.007E+00   1.000E-03  -7.646E-03
 702  8.46341188   0.689  -1.15496   3.59917   6.98991   1.87449   0.01539   1.007E+00   1.000E-03  -7.631E-03
 703  8.46461633   0.689  -1.15496   3.59917   6.98988   1.87447   0.01532   1.007E+00   1.000E-03  -7.617E-03
 704  8.46581744   0.689  -1.15496   3.59916   6.98986   1.87444   0.01525   1.007E+00   1.000E-03  -7.603E-03
 705  8.46701524   0.689  -1.15495   3.59916   6.98984   1.87442   0.01517   1.007E+00   1.000E-03  -7.588E-03
 706  8.46820975   0.689  -1.15495   3.59915   6.98981   1.87440   0.01510   1.007E+00   1.000E-03  -7.574E-03
 707  8.46940098   0.689  -1.15495   3.59915   6.98979   1.87438   0.01502   1.007E+00   1.000E-03  -7.560E-03
 708  8.47058895   0.689  -1.15494   3.59915   6.98976   1.87436   0.01495   1.007E+00   1.000E-03  -7.546E-03
 709  8.47177368   0.689  -1.15494   3.59914   6.98974   1.87433   0.01488   1.007E+00   1.000E-03  -7.531E-03
 710  8.47295519   0.689  -1.15494   3.59914   6.98971   1.87431   0.01480   1.007E+00   1.000E-03  -7.517E-03
 711  8.47413349   0.689  -1.15494   3.59914   6.98969   1.87429   0.01473   1.007E+00   1.000E-03  -7.503E-03
 712  8.47530861   0.689  -1.15493   3.59913   6.98967   1.87427   0.01465   1.007E+00   1.000E-03  -7.488E-03
 713  8.47648055   0.689  -1.15493   3.59913   6.98964   1.87424   0.01458   1.007E+00   1.000E-03  -7.474E-03
 714  8.47764934   0.689  -1.15493   3.59912   6.98962   1.87422   0.01451   1.007E+00   1.000E-03  -7.460E-03
 715  8.47881499   0.689  -1.15493   3.59912   6.98959   1.87420   0.01443   1.007E+00   1.000E-03  -7.446E-03
 716  8.47997752   0.689  -1.15492   3.59912   6.98957   1.87418   0.01436   1.007E+00   1.000E-03  -7.431E-03
 717  8.48113695   0.689  -1.15492   3.59911   6.98954   1.87415   0.01429   1.007E+00   1.000E-03  -7.417E-03
 718  8.48229329   0.689  -1.15492   3.59911   6.98952   1.87413   0.01421   1.007E+00   1.000E-03  -7.403E-03
 719  8.48344656   0.689  -1.15492   3.59911   6.98950   1.87411   0.01414   1.007E+00   1.000E-03  -7.388E-03
 720  8.48459678   0.689  -1.15491   3.59910   6.98947   1.87409   0.01406   1.006E+00   1.000E-03  -7.374E-03
 721  8.48574396   0.689  -1.15491   3.59910   6.98945   1.87407   0.01399   1.006E+00   1.000E-03  -7.360E-03
 722  8.48688811   0.689  -1.15491   3.59909   6.98942   1.87404   0.01392   1.006E+00   1.000E-03  -7.346E-03
 723  8.48802926   0.689  -1.15491   3.59909   6.98940   1.87402   0.01384   1.006E+00   1.000E-03  -7.331E-03
 724  8.48916742   0.689  -1.15490   3.59909   6.98937   1.87400   0.01377   1.006E+00   1.000E-03  -7.317E-03
 725  8.49030260   0.689  -1.15490   3.59908   6.98935   1.87398   0.01369   1.006E+00   1.000E-03  -7.303E-03
 726  8.49143483   0.689  -1.15490   3.59908   6.98933   1.87395   0.01362   1.006E+00   1.000E-03  -7.288E-03
 727  8.49256411   0.689  -1.15489   3.59908   6.98930   1.87393   0.01355   1.006E+00   1.000E-03  -7.274E-03
 728  8.49369046   0.689  -1.15489   3.59907   6.98928   1.87391   0.01347   1.006E+00   1.000E-03  -7.260E-03
 729  8.49481390   0.689  -1.15489   3.59907   6.98925   1.87389   0.01340   1.006E+00   1.000E-03  -7.246E-03
 730  8.49593444   0.689  -1.15489   3.59906   6.98923   1.87387   0.01333   1.006E+00   1.000E-03  -7.231E-03
 731  8.49705209   0.689  -1.15488   3.59906   6.98920   1.87384   0.01325   1.006E+00   1.000E-03  -7.217E-03
 732  8.49816688   0.689  -1.15488   3.59906   6.98918   1.87382   0.01318   1.006E+00   1.000E-03  -7.203E-03
 733  8.49927881   0.689  -1.15488   3.59905   6.98916   1.87380   0.01310   1.006E+00   1.000E-03  -7.188E-03
 734  8.50038790   0.689  -1.15488   3.59905   6.98913   1.87378   0.01303   1.006E+00   1.000E-03  -7.174E-03
 735  8.50149417   0.689  -1.15487   3.59905   6.98911   1.87375   0.01296   1.006E+00   1.000E-03  -7.160E-03
 736  8.50259763   0.689  -1.15487   3.59904   6.98908   1.87373   0.01288   1.006E+00   1.000E-03  -7.146E-03
 737  8.50369829   0.689  -1.15487   3.59904   6.98906   1.87371   0.01281   1.006E+00   1.000E-03  -7.131E-03
 738  8.50479616   0.689  -1.15487   3.59903   6.98904   1.87369   0.01273   1.006E+00   1.000E-03  -7.117E-03
 739  8.50589127   0.689  -1.15486   3.59903   6.98901   1.87366   0.01266   1.006E+00   1.000E-03  -7.103E-03
 740  8.50698363   0.689  -1.15486   3.59903   6.98899   1.87364   0.01259   1.006E+00   1.000E-03  -7.088E-03
 741  8.50807324   0.688  -1.15486   3.59902   6.98896   1.87362   0.01251   1.006E+00   1.000E-03  -7.074E-03
 742  8.50916013   0.688  -1.15486   3.59902   6.98894   1.87360   0.01244   1.006E+00   1.000E-03  -7.060E-03
 743  8.51024430   0.688  -1.15485   3.59902   6.98891   1.87358   0.01237   1.006E+00   1.000E-03  -7.045E-03
 744  8.51132578   0.688  -1.15485   3.59901   6.98889   1.87355   0.01229   1.006E+00   1.000E-03  -7.031E-03
 745  8.51240456   0.688  -1.15485   3.59901   6.98887   1.87353   0.01222   1.006E+00   1.000E-03  -7.017E-03
 746  8.51348068   0.688  -1.15484   3.59900   6.98884   1.87351   0.01214   1.006E+00   1.000E-03  -7.003E-03
 747  8.51455413   0.688  -1.15484   3.59900   6.98882   1.87349   0.01207   1.006E+00   1.000E-03  -6.988E-03
 748  8.51562494   0.688  -1.15484   3.59900   6.98879   1.87346   0.01200   1.006E+00   1.000E-03  -6.974E-03
 749  8.51669311   0.688  -1.15484   3.59899   6.98877   1.87344   0.01192   1.006E+00   1.000E-03  -6.960E-03
 750  8.51775867   0.688  -1.15483   3.59899   6.98874   1.87342   0.01185   1.006E+00   1.000E-03  -6.945E-03
 751  8.51882161   0.688  -1.15483   3.59899   6.98872   1.87340   0.01177   1.006E+00   1.000E-03  -6.931E-03
 752  8.51988196   0.688  -1.15483   3.59898   6.98870   1.87337   0.01170   1.006E+00   1.000E-03  -6.917E-03
 753  8.52093973   0.688  -1.15483   3.59898   6.98867   1.87335   0.01163   1.006E+00   1.000E-03  -6.903E-03
 754  8.52199493   0.688  -1.15482   3.59897   6.98865   1.87333   0.01155   1.006E+00   1.000E-03  -6.888E-03
 755  8.52304757   0.688  -1.15482   3.59897   6.98862   1.87331   0.01148   1.006E+00   1.000E-03  -6.874E-03
 756  8.52409766   0.688  -1.15482   3.59897   6.98860   1.87329   0.01141   1.006E+00   1.000E-03  -6.860E-03
 757  8.52514522   0.688  -1.15482   3.59896   6.98857   1.87326   0.01133   1.006E+00   1.000E-03  -6.845E-03
 758  8.52619027   0.688  -1.15481   3.59896   6.98855   1.87324   0.01126   1.006E+00   1.000E-03  -6.831E-03
 759  8.52723280   0.688  -1.15481   3.59896   6.98853   1.87322   0.01118   1.006E+00   1.000E-03  -6.817E-03
 760  8.52827283   0.688  -1.15481   3.59895   6.98850   1.87320   0.01111   1.006E+00   1.000E-03  -6.803E-03
 761  8.52931039   0.688  -1.15481   3.59895   6.98848   1.87317   0.01104   1.006E+00   1.000E-03  -6.788E-03
 762  8.53034546   0.688  -1.15480   3.59894   6.98845   1.87315   0.01096   1.006E+00   1.000E-03  -6.774E-03
 763  8.53137808   0.688  -1.15480   3.59894   6.98843   1.87313   0.01089   1.006E+00   1.000E-03  -6.760E-03
 764  8.53240825   0.688  -1.15479   3.59894   6.98841   1.87312   0.01085   1.006E+00   1.000E-03  -6.739E-03
 765  8.53343598   0.688  -1.15479   3.59894   6.98840   1.87312   0.01081   1.006E+00   1.000E-03  -6.719E-03
 766  8.53446128   0.688  -1.15478   3.59893   6.98838   1.87311   0.01077   1.006E+00   1.000E-03  -6.699E-03
 767  8.53548417   0.688  -1.15477   3.59893   6.98836   1.87311   0.01074   1.006E+00   1.000E-03  -6.679E-03
 768  8.53650466   0.688  -1.15477   3.59893   6.98835   1.87310   0.01070   1.006E+00   1.000E-03  -6.659E-03
 769  8.53752275   0.688  -1.15476   3.59893   6.98833   1.87310   0.01066   1.006E+00   1.000E-03  -6.638E-03
 770  8.53853846   0.688  -1.15476   3.59893   6.98832   1.87309   0.01062   1.006E+00   1.000E-03  -6.618E-03
 771  8.53955180   0.688  -1.15475   3.59892   6.98830   1.87309   0.01058   1.006E+00   1.000E-03  -6.598E-03
 772  8.54056279   0.688  -1.15474   3.59892   6.98828   1.87308   0.01054   1.006E+00   1.000E-03  -6.578E-03
 773  8.54157142   0.688  -1.15474   3.59892   6.98827   1.87308   0.01051   1.006E+00   1.000E-03  -6.558E-03
 774  8.54257772   0.688  -1.15473   3.59892   6.98825   1.87307   0.01047   1.006E+00   1.000E-03  -6.537E-03
 775  8.54358169   0.688  -1.15472   3.59892   6.98823   1.87307   0.01043   1.006E+00   1.000E-03  -6.517E-03
 776  8.54458335   0.688  -1.15472   3.59892   6.98822   1.87306   0.01039   1.006E+00   1.000E-03  -6.497E-03
 777  8.54558270   0.688  -1.15471   3.59891   6.98820   1.87306   0.01035   1.006E+00   1.000E-03  -6.477E-03
 778  8.54657975   0.688  -1.15471   3.59891   6.98819   1.87305   0.01031   1.006E+00   1.000E-03  -6.457E-03
 779  8.54757453   0.688  -1.15470   3.59891   6.98817   1.87305   0.01028   1.006E+00   1.000E-03  -6.436E-03
 780  8.54856703   0.688  -1.15469   3.59891   6.98815   1.87304   0.01024   1.006E+00   1.000E-03  -6.416E-03
 781  8.54955726   0.688  -1.15469   3.59891   6.98814   1.87304   0.01020   1.006E+00   1.000E-03  -6.396E-03
 782  8.55054525   0.688  -1.15468   3.59890   6.98812   1.87303   0.01016   1.006E+00   1.000E-03  -6.376E-03
 783  8.55153099   0.688  -1.15467   3.59890   6.98810   1.87302   0.01012   1.006E+00   1.000E-03  -6.356E-03
 784  8.55251450   0.688  -1.15467   3.59890   6.98809   1.87302   0.01008   1.006E+00   1.000E-03  -6.335E-03
 785  8.55349578   0.688  -1.15466   3.59890   6.98807   1.87301   0.01005   1.005E+00   1.000E-03  -6.315E-03
 786  8.55447486   0.688  -1.15466   3.59890   6.98806   1.87301   0.01001   1.005E+00   1.000E-03  -6.295E-03
 787  8.55545173   0.688  -1.15465   3.59889   6.98804   1.87300   0.00997   1.005E+00   1.000E-03  -6.275E-03
 788  8.55642641   0.688  -1.15464   3.59889   6.98802   1.87300   0.00993   1.005E+00   1.000E-03  -6.255E-03
 789  8.55739891   0.688  -1.15464   3.59889   6.98801   1.87299   0.00989   1.005E+00   1.000E-03  -6.234E-03
 790  8.55836923   0.688  -1.15463   3.59889   6.98799   1.87299   0.00985   1.005E+00   1.000E-03  -6.214E-03
 791  8.55933740   0.688  -1.15462   3.59889   6.98798   1.87298   0.00982   1.005E+00   1.000E-03  -6.194E-03
 792  8.56030340   0.688  -1.15462   3.59888   6.98796   1.87298   0.00978   1.005E+00   1.000E-03  -6.174E-03
 793  8.56126727   0.688  -1.15461   3.59888   6.98794   1.87297   0.00974   1.005E+00   1.000E-03  -6.154E-03
 794  8.56222900   0.688  -1.15461   3.59888   6.98793   1.87297   0.00970   1.005E+00   1.000E-03  -6.133E-03
 795  8.56318860   0.688  -1.15460   3.59888   6.98791   1.87296   0.00966   1.005E+00   1.000E-03  -6.113E-03
 796  8.56414609   0.688  -1.15459   3.59888   6.98789   1.87296   0.00962   1.005E+00   1.000E-03  -6.093E-03
 797  8.56510147   0.688  -1.15459   3.59888   6.98788   1.87295   0.00959   1.005E+00   1.000E-03  -6.073E-03
 798  8.56605476   0.688  -1.15458   3.59887   6.98786   1.87295   0.00955   1.005E+00   1.000E-03  -6.053E-03
 799  8.56700596   0.688  -1.15457   3.59887   6.98785   1.87294   0.00951   1.005E+00   1.000E-03  -6.032E-03
 800  8.56795508   0.688  -1.15457   3.59887   6.98783   1.87294   0.00947   1.005E+00   1.000E-03  -6.012E-03
 801  8.56890212   0.688  -1.15456   3.59887   6.98781   1.87293   0.00943   1.005E+00   1.000E-03  -5.992E-03
 802  8.56984711   0.688  -1.15456   3.59887   6.98780   1.87292   0.00939   1.005E+00   1.000E-03  -5.972E-03
 803  8.57079005   0.688  -1.15455   3.59886   6.98778   1.87292   0.00936   1.005E+00   1.000E-03  -5.952E-03
 804  8.57173094   0.688  -1.15454   3.59886   6.98776   1.87291   0.00932   1.005E+00   1.000E-03  -5.931E-03
 805  8.57266980   0.688  -1.15454   3.59886   6.98775   1.87291   0.00928   1.005E+00   1.000E-03  -5.911E-03
 806  8.57360664   0.688  -1.15453   3.59886   6.98773   1.87290   0.00924   1.005E+00   1.000E-03  -5.891E-03
 807  8.57454146   0.688  -1.15452   3.59886   6.98772   1.87290   0.00920   1.005E+00   1.000E-03  -5.871E-03
 808  8.57547427   0.688  -1.15452   3.59885   6.98770   1.87289   0.00916   1.005E+00   1.000E-03  -5.851E-03
 809  8.57640508   0.688  -1.15451   3.59885   6.98768   1.87289   0.00913   1.005E+00   1.000E-03  -5.830E-03
 810  8.57733390   0.688  -1.15451   3.59885   6.98767   1.87288   0.00909   1.005E+00   1.000E-03  -5.810E-03
 811  8.57826074   0.688  -1.15450   3.59885   6.98765   1.87288   0.00905   1.005E+00   1.000E-03  -5.790E-03
 812  8.57918560   0.688  -1.15449   3.59885   6.98763   1.87287   0.00901   1.005E+00   1.000E-03  -5.770E-03
 813  8.58010850   0.688  -1.15449   3.59884   6.98762   1.87287   0.00897   1.005E+00   1.000E-03  -5.750E-03
 814  8.58102944   0.688  -1.15448   3.59884   6.98760   1.87286   0.00893   1.005E+00   1.000E-03  -5.730E-03
 815  8.58194843   0.688  -1.15447   3.59884   6.98759   1.87286   0.00890   1.005E+00   1.000E-03  -5.709E-03
 816  8.58286549   0.688  -1.15447   3.59884   6.98757   1.87285   0.00886   1.005E+00   1.000E-03  -5.689E-03
 817  8.58378061   0.688  -1.15446   3.59884   6.98755   1.87285   0.00882   1.005E+00   1.000E-03  -5.669E-03
 818  8.58469380   0.688  -1.15446   3.59884   6.98754   1.87284   0.00878   1.005E+00   1.000E-03  -5.649E-03
 819  8.58560508   0.688  -1.15445   3.59883   6.98752   1.87284   0.00874   1.005E+00   1.000E-03  -5.629E-03
 820  8.58651445   0.688  -1.15444   3.59883   6.98750   1.87283   0.00870   1.005E+00   1.000E-03  -5.608E-03
 821  8.58742192   0.688  -1.15444   3.59883   6.98749   1.87282   0.00867   1.005E+00   1.000E-03  -5.588E-03
 822  8.58832750   0.688  -1.15443   3.59883   6.98747   1.87282   0.00863   1.005E+00   1.000E-03  -5.568E-03
 823  8.58923120   0.688  -1.15442   3.59883   6.98746   1.87281   0.00859   1.005E+00   1.000E-03  -5.548E-03
 824  8.59013302   0.688  -1.15442   3.59882   6.98744   1.87281   0.00855   1.005E+00   1.000E-03  -5.528E-03
 825  8.59103297   0.688  -1.15441   3.59882   6.98742   1.87280   0.00851   1.005E+00   1.000E-03  -5.507E-03
 826  8.59193105   0.688  -1.15441   3.59882   6.98741   1.87280   0.00847   1.005E+00   1.000E-03  -5.487E-03
 827  8.59282729   0.688  -1.15440   3.59882   6.98739   1.87279   0.00844   1.005E+00   1.000E-03  -5.467E-03
 828  8.59372168   0.688  -1.15439   3.59882   6.98737   1.87279   0.00840   1.005E+00   1.000E-03  -5.447E-03
 829  8.59461423   0.687  -1.15439   3.59881   6.98736   1.87278   0.00836   1.004E+00   1.000E-03  -5.427E-03
 830  8.59550495   0.687  -1.15438   3.59881   6.98734   1.87278   0.00832   1.004E+00   1.000E-03  -5.406E-03
 831  8.59639385   0.687  -1.15437   3.59881   6.98733   1.87277   0.00828   1.004E+00   1.000E-03  -5.386E-03
 832  8.59728093   0.687  -1.15437   3.59881   6.98731   1.87277   0.00824   1.004E+00   1.000E-03  -5.366E-03
 833  8.59816620   0.687  -1.15436   3.59881   6.98729   1.87276   0.00821   1.004E+00   1.000E-03  -5.346E-03
 834  8.59904968   0.687  -1.15436   3.59880   6.98728   1.87276   0.00817   1.004E+00   1.000E-03  -5.326E-03
 835  8.59993136   0.687  -1.15435   3.59880   6.98726   1.87275   0.00813   1.004E+00   1.000E-03  -5.305E-03
 836  8.60081125   0.687  -1.15434   3.59880   6.98724   1.87275   0.00809   1.004E+00   1.000E-03  -5.285E-03
 837  8.60168936   0.687  -1.15434   3.59880   6.98723   1.87274   0.00805   1.004E+00   1.000E-03  -5.265E-03
 838  8.60256571   0.687  -1.15433   3.59880   6.98721   1.87274   0.00801   1.004E+00   1.000E-03  -5.245E-03
 839  8.60344028   0.687  -1.15432   3.59880   6.98720   1.87273   0.00798   1.004E+00   1.000E-03  -5.225E-03
 840  8.60431310   0.687  -1.15432   3.59879   6.98718   1.87272   0.00794   1.004E+00   1.000E-03  -5.204E-03
 841  8.60518417   0.687  -1.15431   3.59879   6.98716   1.87272   0.00790   1.004E+00   1.000E-03  -5.184E-03
 842  8.60605350   0.687  -1.15431   3.59879   6.98715   1.87271   0.00786   1.004E+00   1.000E-03  -5.164E-03
 843  8.60692108   0.687  -1.15430   3.59879   6.98713   1.87271   0.00782   1.004E+00   1.000E-03  -5.144E-03
 844  8.60778694   0.687  -1.15429   3.59879   6.98711   1.87270   0.00778   1.004E+00   1.000E-03  -5.124E-03
 845  8.60865108   0.687  -1.15429   3.59878   6.98710   1.87270   0.00775   1.004E+00   1.000E-03  -5.103E-03
 846  8.60951350   0.687  -1.15428   3.59878   6.98708   1.87269   0.00771   1.004E+00   1.000E-03  -5.083E-03
 847  8.61037421   0.687  -1.15427   3.59878   6.98707   1.87269   0.00767   1.004E+00   1.000E-03  -5.063E-03
 848  8.61123322   0.687  -1.15427   3.59878   6.98705   1.87268   0.00763   1.004E+00   1.000E-03  -5.043E-03
 849  8.61209053   0.687  -1.15426   3.59878   6.98703   1.87268   0.00759   1.004E+00   1.000E-03  -5.023E-03
 850  8.61294616   0.687  -1.15426   3.59877   6.98702   1.87267   0.00755   1.004E+00   1.000E-03  -5.002E-03
 851  8.61380010   0.687  -1.15425   3.59877   6.98700   1.87267   0.00752   1.004E+00   1.000E-03  -4.982E-03
 852  8.61465236   0.687  -1.15424   3.59877   6.98698   1.87266   0.00748   1.004E+00   1.000E-03  -4.962E-03
 853  8.61550296   0.687  -1.15424   3.59877   6.98697   1.87266   0.00744   1.004E+00   1.000E-03  -4.942E-03
 854  8.61635189   0.687  -1.15423   3.59877   6.98695   1.87265   0.00740   1.004E+00   1.000E-03  -4.922E-03
 855  8.61719917   0.687  -1.15422   3.59876   6.98694   1.87265   0.00736   1.004E+00   1.000E-03  -4.901E-03
 856  8.61804480   0.687  -1.15422   3.59876   6.98692   1.87264   0.00732   1.004E+00   1.000E-03  -4.881E-03
 857  8.61888878   0.687  -1.15421   3.59876   6.98690   1.87264   0.00729   1.004E+00   1.000E-03  -4.861E-03
 858  8.61973113   0.687  -1.15421   3.59876   6.98689   1.87263   0.00725   1.004E+00   1.000E-03  -4.841E-03
 859  8.62057185   0.687  -1.15420   3.59876   6.98687   1.87263   0.00721   1.004E+00   1.000E-03  -4.821E-03
 860  8.62141094   0.687  -1.15419   3.59876   6.98685   1.87262   0.00717   1.004E+00   1.000E-03  -4.800E-03
 861  8.62224841   0.687  -1.15419   3.59875   6.98684   1.87261   0.00713   1.004E+00   1.000E-03  -4.780E-03
 862  8.62308427   0.687  -1.15418   3.59875   6.98682   1.87261   0.00709   1.004E+00   1.000E-03  -4.760E-03
 863  8.62391853   0.687  -1.15417   3.59875   6.98681   1.87260   0.00706   1.004E+00   1.000E-03  -4.740E-03
 864  8.62475119   0.687  -1.15417   3.59875   6.98679   1.87260   0.00702   1.004E+00   1.000E-03  -4.720E-03
 865  8.62558225   0.687  -1.15416   3.59875   6.98677   1.87259   0.00698   1.004E+00   1.000E-03  -4.699E-03
 866  8.62641173   0.687  -1.15416   3.59874   6.98676   1.87259   0.00694   1.004E+00   1.000E-03  -4.679E-03
 867  8.62723962   0.687  -1.15415   3.59874   6.98674   1.87258   0.00690   1.004E+00   1.000E-03  -4.659E-03
 868  8.62806595   0.687  -1.15414   3.59874   6.98673   1.87258   0.00686   1.004E+00   1.000E-03  -4.639E-03
 869  8.62889070   0.687  -1.15414   3.59874   6.98671   1.87257   0.00683   1.004E+00   1.000E-03  -4.619E-03
 870  8.62971388   0.687  -1.15413   3.59874   6.98669   1.87257   0.00679   1.004E+00   1.000E-03  -4.598E-03
 871  8.63053551   0.687  -1.15412   3.59873   6.98668   1.87256   0.00675   1.004E+00   1.000E-03  -4.578E-03
 872  8.63135559   0.687  -1.15412   3.59873   6.98666   1.87256   0.00671   1.004E+00   1.000E-03  -4.558E-03
 873  8.63217413   0.687  -1.15411   3.59873   6.98664   1.87255   0.00667   1.003E+00   1.000E-03  -4.538E-03
 874  8.63299112   0.687  -1.15411   3.59873   6.98663   1.87255   0.00663   1.003E+00   1.000E-03  -4.518E-03
 875  8.63380658   0.687  -1.15410   3.59873   6.98661   1.87254   0.00660   1.003E+00   1.000E-03  -4.497E-03
 876  8.63462051   0.687  -1.15409   3.59872   6.98660   1.87254   0.00656   1.003E+00   1.000E-03  -4.477E-03
 877  8.63543292   0.687  -1.15409   3.59872   6.98658   1.87253   0.00652   1.003E+00   1.000E-03  -4.457E-03
 878  8.63624381   0.687  -1.15408   3.59872   6.98656   1.87253   0.00648   1.003E+00   1.000E-03  -4.437E-03
 879  8.63705319   0.687  -1.15407   3.59872   6.98655   1.87252   0.00644   1.003E+00   1.000E-03  -4.417E-03
 880  8.63786107   0.687  -1.15407   3.59872   6.98653   1.87251   0.00640   1.003E+00   1.000E-03  -4.397E-03
 881  8.63866744   0.687  -1.15406   3.59872   6.98651   1.87251   0.00637   1.003E+00   1.000E-03  -4.376E-03
 882  8.63947232   0.687  -1.15406   3.59871   6.98650   1.87250   0.00633   1.003E+00   1.000E-03  -4.356E-03
 883  8.64027571   0.687  -1.15405   3.59871   6.98648   1.87250   0.00629   1.003E+00   1.000E-03  -4.336E-03
 884  8.64107762   0.687  -1.15404   3.59871   6.98647   1.87249   0.00625   1.003E+00   1.000E-03  -4.316E-03
 885  8.64187805   0.687  -1.15404   3.59871   6.98645   1.87249   0.00621   1.003E+00   1.000E-03  -4.296E-03
 886  8.64267701   0.687  -1.15403   3.59871   6.98643   1.87248   0.00617   1.003E+00   1.000E-03  -4.275E-03
 887  8.64347450   0.687  -1.15402   3.59870   6.98642   1.87248   0.00614   1.003E+00   1.000E-03  -4.255E-03
 888  8.64427053   0.687  -1.15402   3.59870   6.98640   1.87247   0.00610   1.003E+00   1.000E-03  -4.235E-03
 889  8.64506510   0.687  -1.15401   3.59870   6.98638   1.87247   0.00606   1.003E+00   1.000E-03  -4.215E-03
 890  8.64585822   0.687  -1.15401   3.59870   6.98637   1.87246   0.00602   1.003E+00   1.000E-03  -4.195E-03
 891  8.64664989   0.687  -1.15400   3.59870   6.98635   1.87246   0.00598   1.003E+00   1.000E-03  -4.174E-03
 892  8.64744013   0.687  -1.15399   3.59869   6.98634   1.87245   0.00594   1.003E+00   1.000E-03  -4.154E-03
 893  8.64822893   0.687  -1.15399   3.59869   6.98632   1.87245   0.00591   1.003E+00   1.000E-03  -4.134E-03
 894  8.64901630   0.687  -1.15398   3.59869   6.98630   1.87244   0.00587   1.003E+00   1.000E-03  -4.114E-03
 895  8.64980224   0.687  -1.15398   3.59869   6.98629   1.87244   0.00585   1.003E+00   1.000E-03  -4.104E-03
 896  8.65058677   0.687  -1.15397   3.59869   6.98628   1.87244   0.00583   1.003E+00   1.000E-03  -4.097E-03
 897  8.65136988   0.687  -1.15396   3.59869   6.98627   1.87244   0.00581   1.003E+00   1.000E-03  -4.090E-03
 898  8.65215158   0.687  -1.15396   3.59869   6.98626   1.87243   0.00579   1.003E+00   1.000E-03  -4.083E-03
 899  8.65293187   0.687  -1.15395   3.59868   6.98625   1.87243   0.00578   1.003E+00   1.000E-03  -4.076E-03
 900  8.65371077   0.687  -1.15395   3.59868   6.98624   1.87243   0.00576   1.003E+00   1.000E-03  -4.068E-03
 901  8.65448827   0.687  -1.15394   3.59868   6.98623   1.87243   0.00574   1.003E+00   1.000E-03  -4.061E-03
 902  8.65526439   0.687  -1.15394   3.59868   6.98622   1.87243   0.00572   1.003E+00   1.000E-03  -4.054E-03
 903  8.65603911   0.687  -1.15393   3.59868   6.98621   1.87243   0.00570   1.003E+00   1.000E-03  -4.047E-03
 904  8.65681246   0.687  -1.15392   3.59868   6.98620   1.87243   0.00569   1.003E+00   1.000E-03  -4.040E-03
 905  8.65758444   0.687  -1.15392   3.59868   6.98619   1.87242   0.00567   1.003E+00   1.000E-03  -4.033E-03
 906  8.65835504   0.687  -1.15391   3.59868   6.98618   1.87242   0.00565   1.003E+00   1.000E-03  -4.025E-03
 907  8.65912428   0.687  -1.15391   3.59868   6.98617   1.87242   0.00563   1.003E+00   1.000E-03  -4.018E-03
 908  8.65989216   0.687  -1.15390   3.59868   6.98616   1.87242   0.00562   1.003E+00   1.000E-03  -4.011E-03
 909  8.66065868   0.687  -1.15390   3.59867   6.98615   1.87242   0.00560   1.003E+00   1.000E-03  -4.004E-03
 910  8.66142386   0.687  -1.15389   3.59867   6.98614   1.87242   0.00558   1.003E+00   1.000E-03  -3.997E-03
 911  8.66218768   0.687  -1.15389   3.59867   6.98613   1.87242   0.00556   1.003E+00   1.000E-03  -3.990E-03
 912  8.66295017   0.687  -1.15388   3.59867   6.98612   1.87241   0.00555   1.003E+00   1.000E-03  -3.982E-03
 913  8.66371132   0.687  -1.15387   3.59867   6.98611   1.87241   0.00553   1.003E+00   1.000E-03  -3.975E-03
 914  8.66447114   0.686  -1.15387   3.59867   6.98610   1.87241   0.00551   1.003E+00   1.000E-03  -3.968E-03
 915  8.66522963   0.686  -1.15386   3.59867   6.98609   1.87241   0.00549   1.003E+00   1.000E-03  -3.961E-03
 916  8.66598680   0.686  -1.15386   3.59867   6.98608   1.87241   0.00548   1.003E+00   1.000E-03  -3.954E-03
 917  8.66674265   0.686  -1.15385   3.59867   6.98606   1.87241   0.00546   1.003E+00   1.000E-03  -3.947E-03
 918  8.66749719   0.686  -1.15385   3.59866   6.98605   1.87241   0.00544   1.003E+00   1.000E-03  -3.939E-03
 919  8.66825042   0.686  -1.15384   3.59866   6.98604   1.87240   0.00542   1.003E+00   1.000E-03  -3.932E-03
 920  8.66900235   0.686  -1.15383   3.59866   6.98603   1.87240   0.00540   1.003E+00   1.000E-03  -3.925E-03
 921  8.66975297   0.686  -1.15383   3.59866   6.98602   1.87240   0.00539   1.003E+00   1.000E-03  -3.918E-03
 922  8.67050230   0.686  -1.15382   3.59866   6.98601   1.87240   0.00537   1.003E+00   1.000E-03  -3.911E-03
 923  8.67125034   0.686  -1.15382   3.59866   6.98600   1.87240   0.00535   1.003E+00   1.000E-03  -3.904E-03
 924  8.67199710   0.686  -1.15381   3.59866   6.98599   1.87240   0.00533   1.003E+00   1.000E-03  -3.896E-03
 925  8.67274257   0.686  -1.15381   3.59866   6.98598   1.87240   0.00532   1.003E+00   1.000E-03  -3.889E-03
 926  8.67348676   0.686  -1.15380   3.59866   6.98597   1.87239   0.00530   1.003E+00   1.000E-03  -3.882E-03
 927  8.67422968   0.686  -1.15379   3.59865   6.98596   1.87239   0.00528   1.003E+00   1.000E-03  -3.875E-03
 928  8.67497134   0.686  -1.15379   3.59865   6.98595   1.87239   0.00526   1.003E+00   1.000E-03  -3.868E-03
 929  8.67571173   0.686  -1.15378   3.59865   6.98594   1.87239   0.00525   1.003E+00   1.000E-03  -3.861E-03
 930  8.67645085   0.686  -1.15378   3.59865   6.98593   1.87239   0.00523   1.003E+00   1.000E-03  -3.853E-03
 931  8.67718873   0.686  -1.15377   3.59865   6.98592   1.87239   0.00521   1.003E+00   1.000E-03  -3.846E-03
 932  8.67792535   0.686  -1.15377   3.59865   6.98591   1.87239   0.00519   1.003E+00   1.000E-03  -3.839E-03
 933  8.67866072   0.686  -1.15376   3.59865   6.98590   1.87238   0.00518   1.003E+00   1.000E-03  -3.832E-03
 934  8.67939485   0.686  -1.15376   3.59865   6.98589   1.87238   0.00516   1.003E+00   1.000E-03  -3.825E-03
 935  8.68012774   0.686  -1.15375   3.59865   6.98588   1.87238   0.00514   1.003E+00   1.000E-03  -3.818E-03
 936  8.68085940   0.686  -1.15374   3.59865   6.98587   1.87238   0.00512   1.003E+00   1.000E-03  -3.810E-03
 937  8.68158983   0.686  -1.15374   3.59864   6.98586   1.87238   0.00511   1.003E+00   1.000E-03  -3.803E-03
 938  8.68231903   0.686  -1.15373   3.59864   6.98585   1.87238   0.00509   1.003E+00   1.000E-03  -3.796E-03
 939  8.68304701   0.686  -1.15373   3.59864   6.98584   1.87238   0.00507   1.003E+00   1.000E-03  -3.789E-03
 940  8.68377377   0.686  -1.15372   3.59864   6.98583   1.87237   0.00505   1.003E+00   1.000E-03  -3.782E-03
 941  8.68449931   0.686  -1.15372   3.59864   6.98582   1.87237   0.00503   1.003E+00   1.000E-03  -3.775E-03
 942  8.68522365   0.686  -1.15371   3.59864   6.98581   1.87237   0.00502   1.003E+00   1.000E-03  -3.767E-03
 943  8.68594678   0.686  -1.15370   3.59864   6.98580   1.87237   0.00500   1.003E+00   1.000E-03  -3.760E-03
 944  8.68666870   0.686  -1.15370   3.59864   6.98579   1.87237   0.00498   1.003E+00   1.000E-03  -3.753E-03
 945  8.68738943   0.686  -1.15369   3.59864   6.98578   1.87237   0.00496   1.003E+00   1.000E-03  -3.746E-03
 946  8.68810897   0.686  -1.15369   3.59863   6.98577   1.87237   0.00495   1.003E+00   1.000E-03  -3.739E-03
 947  8.68882731   0.686  -1.15368   3.59863   6.98576   1.87236   0.00493   1.003E+00   1.000E-03  -3.732E-03
 948  8.68954447   0.686  -1.15368   3.59863   6.98574   1.87236   0.00491   1.003E+00   1.000E-03  -3.724E-03
 949  8.69026045   0.686  -1.15367   3.59863   6.98573   1.87236   0.00489   1.003E+00   1.000E-03  -3.717E-03
 950  8.69097524   0.686  -1.15367   3.59863   6.98572   1.87236   0.00488   1.003E+00   1.000E-03  -3.710E-03
 951  8.69168887   0.686  -1.15366   3.59863   6.98571   1.87236   0.00486   1.003E+00   1.000E-03  -3.703E-03
 952  8.69240132   0.686  -1.15365   3.59863   6.98570   1.87236   0.00484   1.003E+00   1.000E-03  -3.696E-03
 953  8.69311261   0.686  -1.15365   3.59863   6.98569   1.87236   0.00482   1.003E+00   1.000E-03  -3.689E-03
 954  8.69382273   0.686  -1.15364   3.59863   6.98568   1.87235   0.00481   1.003E+00   1.000E-03  -3.681E-03
 955  8.69453169   0.686  -1.15364   3.59863   6.98567   1.87235   0.00479   1.003E+00   1.000E-03  -3.674E-03
 956  8.69523950   0.686  -1.15363   3.59862   6.98566   1.87235   0.00477   1.003E+00   1.000E-03  -3.667E-03
 957  8.69594616   0.686  -1.15363   3.59862   6.98565   1.87235   0.00475   1.003E+00   1.000E-03  -3.660E-03
 958  8.69665167   0.686  -1.15362   3.59862   6.98564   1.87235   0.00473   1.003E+00   1.000E-03  -3.653E-03
 959  8.69735603   0.686  -1.15361   3.59862   6.98563   1.87235   0.00472   1.003E+00   1.000E-03  -3.646E-03
 960  8.69805925   0.686  -1.15361   3.59862   6.98562   1.87235   0.00470   1.003E+00   1.000E-03  -3.639E-03
 961  8.69876134   0.686  -1.15360   3.59862   6.98561   1.87234   0.00468   1.003E+00   1.000E-03  -3.631E-03
 962  8.69946230   0.686  -1.15360   3.59862   6.98560   1.87234   0.00466   1.003E+00   1.000E-03  -3.624E-03
 963  8.70016212   0.686  -1.15359   3.59862   6.98559   1.87234   0.00465   1.003E+00   1.000E-03  -3.617E-03
 964  8.70086082   0.686  -1.15359   3.59862   6.98558   1.87234   0.00463   1.003E+00   1.000E-03  -3.610E-03
 965  8.70155839   0.686  -1.15358   3.59861   6.98557   1.87234   0.00461   1.003E+00   1.000E-03  -3.603E-03
 966  8.70225485   0.686  -1.15357   3.59861   6.98556   1.87234   0.00459   1.003E+00   1.000E-03  -3.596E-03
 967  8.70295019   0.686  -1.15357   3.59861   6.98555   1.87234   0.00458   1.003E+00   1.000E-03  -3.588E-03
 968  8.70364442   0.686  -1.15356   3.59861   6.98554   1.87233   0.00456   1.003E+00   1.000E-03  -3.581E-03
 969  8.70433755   0.686  -1.15356   3.59861   6.98553   1.87233   0.00454   1.003E+00   1.000E-03  -3.574E-03
 970  8.70502957   0.686  -1.15355   3.59861   6.98552   1.87233   0.00452   1.003E+00   1.000E-03  -3.567E-03
 971  8.70572048   0.686  -1.15355   3.59861   6.98551   1.87233   0.00451   1.003E+00   1.000E-03  -3.560E-03
 972  8.70641030   0.686  -1.15354   3.59861   6.98550   1.87233   0.00449   1.003E+00   1.000E-03  -3.553E-03
 973  8.70709903   0.686  -1.15354   3.59861   6.98549   1.87233   0.00447   1.003E+00   1.000E-03  -3.545E-03
 974  8.70778666   0.686  -1.15353   3.59860   6.98548   1.87233   0.00445   1.003E+00   1.000E-03  -3.538E-03
 975  8.70847321   0.686  -1.15352   3.59860   6.98547   1.87233   0.00444   1.003E+00   1.000E-03  -3.531E-03
 976  8.70915868   0.686  -1.15352   3.59860   6.98546   1.87232   0.00442   1.003E+00   1.000E-03  -3.524E-03
 977  8.70984306   0.686  -1.15351   3.59860   6.98545   1.87232   0.00440   1.003E+00   1.000E-03  -3.517E-03
 978  8.71052637   0.686  -1.15351   3.59860   6.98544   1.87232   0.00438   1.003E+00   1.000E-03  -3.510E-03
 979  8.71120861   0.686  -1.15350   3.59860   6.98543   1.87232   0.00436   1.003E+00   1.000E-03  -3.502E-03
 980  8.71188977   0.686  -1.15350   3.59860   6.98541   1.87232   0.00435   1.003E+00   1.000E-03  -3.495E-03
 981  8.71256987   0.686  -1.15349   3.59860   6.98540   1.87232   0.00433   1.003E+00   1.000E-03  -3.488E-03
 982  8.71324890   0.686  -1.15348   3.59860   6.98539   1.87232   0.00431   1.003E+00   1.000E-03  -3.481E-03
 983  8.71392688   0.686  -1.15348   3.59860   6.98538   1.87231   0.00429   1.003E+00   1.000E-03  -3.474E-03
 984  8.71460379   0.686  -1.15347   3.59859   6.98537   1.87231   0.00428   1.003E+00   1.000E-03  -3.467E-03
 985  8.71527966   0.686  -1.15347   3.59859   6.98536   1.87231   0.00426   1.003E+00   1.000E-03  -3.459E-03
 986  8.71595447   0.686  -1.15346   3.59859   6.98535   1.87231   0.00424   1.003E+00   1.000E-03  -3.452E-03
 987  8.71662824   0.686  -1.15346   3.59859   6.98534   1.87231   0.00422   1.003E+00   1.000E-03  -3.445E-03
 988  8.71730096   0.686  -1.15345   3.59859   6.98533   1.87231   0.00421   1.003E+00   1.000E-03  -3.438E-03
 989  8.71797265   0.686  -1.15345   3.59859   6.98532   1.87231   0.00419   1.003E+00   1.000E-03  -3.431E-03
 990  8.71864329   0.686  -1.15344   3.59859   6.98531   1.87230   0.00417   1.003E+00   1.000E-03  -3.424E-03
 991  8.71931290   0.686  -1.15343   3.59859   6.98530   1.87230   0.00415   1.003E+00   1.000E-03  -3.416E-03
 992  8.71998148   0.686  -1.15343   3.59859   6.98529   1.87230   0.00414   1.003E+00   1.000E-03  -3.409E-03
 993  8.72064904   0.686  -1.15342   3.59858   6.98528   1.87230   0.00412   1.002E+00   1.000E-03  -3.402E-03
 994  8.72131557   0.686  -1.15342   3.59858   6.98527   1.87230   0.00410   1.002E+00   1.000E-03  -3.395E-03
 995  8.72198107   0.686  -1.15341   3.59858   6.98526   1.87230   0.00408   1.002E+00   1.000E-03  -3.388E-03
 996  8.72264556   0.685  -1.15341   3.59858   6.98525   1.87230   0.00406   1.002E+00   1.000E-03  -3.381E-03
 997  8.72330904   0.685  -1.15340   3.59858   6.98524   1.87229   0.00405   1.002E+00   1.000E-03  -3.373E-03
 998  8.72397150   0.685  -1.15339   3.59858   6.98523   1.87229   0.00403   1.002E+00   1.000E-03  -3.366E-03
 999  8.72463295   0.685  -1.15339   3.59858   6.98522   1.87229   0.00401   1.002E+00   1.000E-03  -3.359E-03
1000  8.72529340   0.685  -1.15338   3.59858   6.98521   1.87229   0.00399   1.002E+00   1.000E-03  -3.352E-03
1001  8.72595284   0.685  -1.15338   3.59858   6.98520   1.87229   0.00398   1.002E+00   1.000E-03  -3.345E-03
1002  8.72661129   0.685  -1.15337   3.59857   6.98519   1.87229   0.00396   1.002E+00   1.000E-03  -3.338E-03
1003  8.72726873   0.685  -1.15337   3.59857   6.98518   1.87229   0.00394   1.002E+00   1.000E-03  -3.330E-03
1004  8.72792519   0.685  -1.15336   3.59857   6.98517   1.87228   0.00392   1.002E+00   1.000E-03  -3.323E-03
1005  8.72858065   0.685  -1.15336   3.59857   6.98516   1.87228   0.00391   1.002E+00   1.000E-03  -3.316E-03
1006  8.72923513   0.685  -1.15335   3.59857   6.98515   1.87228   0.00389   1.002E+00   1.000E-03  -3.309E-03
1007  8.72988862   0.685  -1.15334   3.59857   6.98514   1.87228   0.00387   1.002E+00   1.000E-03  -3.302E-03
1008  8.73054113   0.685  -1.15334   3.59857   6.98513   1.87228   0.00385   1.002E+00   1.000E-03  -3.295E-03
1009  8.73119266   0.685  -1.15333   3.59857   6.98512   1.87228   0.00384   1.002E+00   1.000E-03  -3.287E-03
1010  8.73184321   0.685  -1.15333   3.59857   6.98511   1.87228   0.00382   1.002E+00   1.000E-03  -3.280E-03
1011  8.73249279   0.685  -1.15332   3.59857   6.98510   1.87227   0.00380   1.002E+00   1.000E-03  -3.273E-03
1012  8.73314140   0.685  -1.15332   3.59856   6.98508   1.87227   0.00378   1.002E+00   1.000E-03  -3.266E-03
1013  8.73378904   0.685  -1.15331   3.59856   6.98507   1.87227   0.00377   1.002E+00   1.000E-03  -3.259E-03
1014  8.73443572   0.685  -1.15330   3.59856   6.98506   1.87227   0.00375   1.002E+00   1.000E-03  -3.252E-03
1015  8.73508144   0.685  -1.15330   3.59856   6.98505   1.87227   0.00373   1.002E+00   1.000E-03  -3.244E-03
1016  8.73572620   0.685  -1.15329   3.59856   6.98504   1.87227   0.00371   1.002E+00   1.000E-03  -3.237E-03
1017  8.73637000   0.685  -1.15329   3.59856   6.98503   1.87227   0.00369   1.002E+00   1.000E-03  -3.230E-03
1018  8.73701285   0.685  -1.15328   3.59856   6.98502   1.87226   0.00368   1.002E+00   1.000E-03  -3.223E-03
1019  8.73765475   0.685  -1.15328   3.59856   6.98501   1.87226   0.00366   1.002E+00   1.000E-03  -3.216E-03
1020  8.73829571   0.685  -1.15327   3.59856   6.98500   1.87226   0.00364   1.002E+00   1.000E-03  -3.209E-03
1021  8.73893571   0.685  -1.15326   3.59855   6.98499   1.87226   0.00362   1.002E+00   1.000E-03  -3.201E-03
1022  8.73957478   0.685  -1.15326   3.59855   6.98498   1.87226   0.00361   1.002E+00   1.000E-03  -3.194E-03
1023  8.74021291   0.685  -1.15325   3.59855   6.98497   1.87226   0.00359   1.002E+00   1.000E-03  -3.187E-03
1024  8.74085010   0.685  -1.15325   3.59855   6.98496   1.87226   0.00357   1.002E+00   1.000E-03  -3.180E-03
1025  8.74148636   0.685  -1.15324   3.59855   6.98495   1.87225   0.00355   1.002E+00   1.000E-03  -3.173E-03
1026  8.74212168   0.685  -1.15324   3.59855   6.98494   1.87225   0.00354   1.002E+00   1.000E-03  -3.166E-03
1027  8.74275608   0.685  -1.15323   3.59855   6.98493   1.87225   0.00352   1.002E+00   1.000E-03  -3.159E-03
1028  8.74338956   0.685  -1.15323   3.59855   6.98492   1.87225   0.00350   1.002E+00   1.000E-03  -3.151E-03
1029  8.74402211   0.685  -1.15322   3.59855   6.98491   1.87225   0.00348   1.002E+00   1.000E-03  -3.144E-03
1030  8.74465374   0.685  -1.15321   3.59855   6.98490   1.87225   0.00347   1.002E+00   1.000E-03  -3.137E-03
1031  8.74528445   0.685  -1.15321   3.59854   6.98489   1.87225   0.00345   1.002E+00   1.000E-03  -3.130E-03
1032  8.74591425   0.685  -1.15320   3.59854   6.98488   1.87224   0.00343   1.002E+00   1.000E-03  -3.123E-03
1033  8.74654314   0.685  -1.15320   3.59854   6.98487   1.87224   0.00341   1.002E+00   1.000E-03  -3.116E-03
1034  8.74717111   0.685  -1.15319   3.59854   6.98486   1.87224   0.00339   1.002E+00   1.000E-03  -3.108E-03
1035  8.74779818   0.685  -1.15319   3.59854   6.98485   1.87224   0.00338   1.002E+00   1.000E-03  -3.101E-03
1036  8.74842435   0.685  -1.15318   3.59854   6.98484   1.87224   0.00336   1.002E+00   1.000E-03  -3.094E-03
1037  8.74904962   0.685  -1.15317   3.59854   6.98483   1.87224   0.00334   1.002E+00   1.000E-03  -3.087E-03
1038  8.74967398   0.685  -1.15317   3.59854   6.98482   1.87224   0.00332   1.002E+00   1.000E-03  -3.080E-03
1039  8.75029745   0.685  -1.15316   3.59854   6.98481   1.87223   0.00331   1.002E+00   1.000E-03  -3.073E-03
1040  8.75092003   0.685  -1.15316   3.59853   6.98480   1.87223   0.00329   1.002E+00   1.000E-03  -3.065E-03
1041  8.75154171   0.685  -1.15315   3.59853   6.98479   1.87223   0.00327   1.002E+00   1.000E-03  -3.058E-03
1042  8.75216251   0.685  -1.15315   3.59853   6.98478   1.87223   0.00325   1.002E+00   1.000E-03  -3.051E-03
1043  8.75278242   0.685  -1.15314   3.59853   6.98477   1.87223   0.00324   1.002E+00   1.000E-03  -3.044E-03
1044  8.75340145   0.685  -1.15314   3.59853   6.98475   1.87223   0.00322   1.002E+00   1.000E-03  -3.037E-03
1045  8.75401959   0.685  -1.15313   3.59853   6.98474   1.87223   0.00320   1.002E+00   1.000E-03  -3.030E-03
1046  8.75463686   0.685  -1.15312   3.59853   6.98473   1.87222   0.00318   1.002E+00   1.000E-03  -3.022E-03
1047  8.75525325   0.685  -1.15312   3.59853   6.98472   1.87222   0.00317   1.002E+00   1.000E-03  -3.015E-03
1048  8.75586877   0.685  -1.15311   3.59853   6.98471   1.87222   0.00315   1.002E+00   1.000E-03  -3.008E-03
1049  8.75648341   0.685  -1.15311   3.59852   6.98470   1.87222   0.00313   1.002E+00   1.000E-03  -3.001E-03
1050  8.75709719   0.685  -1.15310   3.59852   6.98469   1.87222   0.00311   1.002E+00   1.000E-03  -2.994E-03
1051  8.75771010   0.685  -1.15310   3.59852   6.98468   1.87222   0.00310   1.002E+00   1.000E-03  -2.987E-03
1052  8.75832215   0.685  -1.15309   3.59852   6.98467   1.87222   0.00308   1.002E+00   1.000E-03  -2.979E-03
1053  8.75893333   0.685  -1.15308   3.59852   6.98466   1.87221   0.00306   1.002E+00   1.000E-03  -2.972E-03
1054  8.75954366   0.685  -1.15308   3.59852   6.98465   1.87221   0.00304   1.002E+00   1.000E-03  -2.965E-03
1055  8.76015313   0.685  -1.15307   3.59852   6.98464   1.87221   0.00302   1.002E+00   1.000E-03  -2.958E-03
1056  8.76076175   0.685  -1.15307   3.59852   6.98463   1.87221   0.00301   1.002E+00   1.000E-03  -2.951E-03
1057  8.76136951   0.685  -1.15306   3.59852   6.98462   1.87221   0.00299   1.002E+00   1.000E-03  -2.944E-03
1058  8.76197643   0.685  -1.15306   3.59852   6.98461   1.87221   0.00297   1.002E+00   1.000E-03  -2.936E-03
1059  8.76258250   0.685  -1.15305   3.59851   6.98460   1.87221   0.00295   1.002E+00   1.000E-03  -2.929E-03
1060  8.76318772   0.685  -1.15304   3.59851   6.98459   1.87220   0.00294   1.002E+00   1.000E-03  -2.922E-03
1061  8.76379210   0.685  -1.15304   3.59851   6.98458   1.87220   0.00292   1.002E+00   1.000E-03  -2.915E-03
1062  8.76439564   0.685  -1.15303   3.59851   6.98457   1.87220   0.00290   1.002E+00   1.000E-03  -2.908E-03
1063  8.76499835   0.685  -1.15303   3.59851   6.98456   1.87220   0.00288   1.002E+00   1.000E-03  -2.901E-03
1064  8.76560022   0.685  -1.15302   3.59851   6.98455   1.87220   0.00287   1.002E+00   1.000E-03  -2.893E-03
1065  8.76620125   0.685  -1.15302   3.59851   6.98454   1.87220   0.00285   1.002E+00   1.000E-03  -2.886E-03
1066  8.76680146   0.685  -1.15301   3.59851   6.98453   1.87220   0.00283   1.002E+00   1.000E-03  -2.879E-03
1067  8.76740084   0.685  -1.15301   3.59851   6.98452   1.87219   0.00281   1.002E+00   1.000E-03  -2.872E-03
1068  8.76799939   0.685  -1.15300   3.59850   6.98451   1.87219   0.00280   1.002E+00   1.000E-03  -2.865E-03
1069  8.76859711   0.685  -1.15299   3.59850   6.98450   1.87219   0.00278   1.002E+00   1.000E-03  -2.858E-03
1070  8.76919402   0.685  -1.15299   3.59850   6.98449   1.87219   0.00276   1.002E+00   1.000E-03  -2.850E-03
1071  8.76979011   0.685  -1.15298   3.59850   6.98448   1.87219   0.00274   1.002E+00   1.000E-03  -2.843E-03
1072  8.77038537   0.685  -1.15298   3.59850   6.98447   1.87219   0.00272   1.002E+00   1.000E-03  -2.836E-03
1073  8.77097983   0.685  -1.15297   3.59850   6.98446   1.87219   0.00271   1.002E+00   1.000E-03  -2.829E-03
1074  8.77157347   0.685  -1.15297   3.59850   6.98445   1.87218   0.00269   1.002E+00   1.000E-03  -2.822E-03
1075  8.77216630   0.685  -1.15296   3.59850   6.98444   1.87218   0.00267   1.002E+00   1.000E-03  -2.815E-03
1076  8.77275833   0.685  -1.15295   3.59850   6.98442   1.87218   0.00265   1.002E+00   1.000E-03  -2.807E-03
1077  8.77334954   0.685  -1.15295   3.59849   6.98441   1.87218   0.00264   1.002E+00   1.000E-03  -2.800E-03
1078  8.77393996   0.684  -1.15294   3.59849   6.98440   1.87218   0.00262   1.002E+00   1.000E-03  -2.793E-03
1079  8.77452957   0.684  -1.15294   3.59849   6.98439   1.87218   0.00260   1.002E+00   1.000E-03  -2.786E-03
1080  8.77511838   0.684  -1.15293   3.59849   6.98438   1.87218   0.00258   1.002E+00   1.000E-03  -2.779E-03
1081  8.77570640   0.684  -1.15293   3.59849   6.98437   1.87217   0.00257   1.002E+00   1.000E-03  -2.772E-03
1082  8.77629362   0.684  -1.15292   3.59849   6.98436   1.87217   0.00255   1.002E+00   1.000E-03  -2.764E-03
1083  8.77688005   0.684  -1.15292   3.59849   6.98435   1.87217   0.00253   1.002E+00   1.000E-03  -2.757E-03
1084  8.77746568   0.684  -1.15291   3.59849   6.98434   1.87217   0.00251   1.002E+00   1.000E-03  -2.750E-03
1085  8.77805053   0.684  -1.15290   3.59849   6.98433   1.87217   0.00250   1.002E+00   1.000E-03  -2.743E-03
1086  8.77863459   0.684  -1.15290   3.59849   6.98432   1.87217   0.00248   1.002E+00   1.000E-03  -2.736E-03
1087  8.77921787   0.684  -1.15289   3.59848   6.98431   1.87217   0.00246   1.002E+00   1.000E-03  -2.729E-03
1088  8.77980036   0.684  -1.15289   3.59848   6.98430   1.87216   0.00244   1.002E+00   1.000E-03  -2.721E-03
1089  8.78038208   0.684  -1.15288   3.59848   6.98429   1.87216   0.00243   1.002E+00   1.000E-03  -2.714E-03
1090  8.78096302   0.684  -1.15288   3.59848   6.98428   1.87216   0.00241   1.002E+00   1.000E-03  -2.707E-03
1091  8.78154318   0.684  -1.15287   3.59848   6.98427   1.87216   0.00239   1.002E+00   1.000E-03  -2.700E-03
1092  9.02185392   0.677  -1.15026   3.59820   6.98176   1.87221   0.00000   1.001E+00   1.000E-03  -1.278E-03
1093  9.17566014   0.671  -1.14755   3.59819   6.98115   1.87396   0.00000   1.000E+00   1.000E-03  -5.785E-04
1094  9.28901233   0.664  -1.14482   3.59831   6.98117   1.87690   0.00000   1.000E+00   1.000E-03  -2.679E-04
1095  9.37881908   0.657  -1.14211   3.59849   6.98151   1.88040   0.00000   9.990E-01   1.000E-03  -1.038E-04
1096  9.45319944   0.649  -1.13945   3.59870   6.98203   1.88422   0.00000   9.990E-01   1.000E-03  -3.403E-06
1097  9.51668424   0.642  -1.13681   3.59892   6.98267   1.88821   0.00000   9.990E-01   1.000E-03   6.571E-05
1098  9.57206146   0.635  -1.13420   3.59916   6.98338   1.89230   0.00000   9.990E-01   1.000E-03   1.185E-04
1099  9.62116936   0.628  -1.13161   3.59940   6.98415   1.89646   0.00000   9.990E-01   1.000E-03   1.599E-04
1100  9.66528420   0.621  -1.12903   3.59965   6.98496   1.90066   0.00000   9.990E-01   1.000E-03   1.955E-04
1101  9.70532827   0.614  -1.12647   3.59991   6.98580   1.90488   0.00000   9.990E-01   1.000E-03   2.265E-04
1102  9.74198976   0.607  -1.12391   3.60017   6.98667   1.90912   0.00000   9.990E-01   1.000E-03   2.540E-04
1103  9.77579591   0.600  -1.12136   3.60043   6.98757   1.91346   0.00000   9.990E-01   1.000E-03   2.790E-04
1104  9.80715953   0.593  -1.11881   3.60070   6.98851   1.91849   0.00000   9.990E-01   1.000E-03   2.975E-04
1105  9.83640990   0.586  -1.11625   3.60096   6.98952   1.92356   0.00000   9.990E-01   1.000E-03   3.150E-04
1106  9.86381392   0.579  -1.11368   3.60123   6.99059   1.92863   0.00000   9.990E-01   1.000E-03   3.306E-04
1107  9.88959090   0.573  -1.11110   3.60151   6.99170   1.93371   0.00000   9.990E-01   1.000E-03   3.443E-04
1108  9.91392326   0.566  -1.10849   3.60178   6.99283   1.93879   0.00000   9.990E-01   1.000E-03   3.589E-04
1109  9.93696437   0.559  -1.10587   3.60206   6.99400   1.94389   0.00000   9.990E-01   1.000E-03   3.725E-04
1110  9.95884440   0.553  -1.10322   3.60234   6.99517   1.94900   0.00000   9.990E-01   1.000E-03   3.877E-04
1111  9.97967477   0.546  -1.10054   3.60262   6.99636   1.95415   0.00000   9.990E-01   1.000E-03   4.015E-04
1112  9.99955160   0.539  -1.09785   3.60290   6.99758   1.95930   0.00000   9.990E-01   1.000E-03   4.175E-04
1113 10.01855838   0.532  -1.09513   3.60319   6.99880   1.96449   0.00000   9.990E-01   1.000E-03   4.330E-04
1114 10.03676809   0.526  -1.09239   3.60348   7.00004   1.96971   0.00000   9.990E-01   1.000E-03   4.478E-04
1115 10.05424491   0.519  -1.08961   3.60378   7.00128   1.97494   0.00000   9.990E-01   1.000E-03   4.628E-04
1116 10.07104555   0.512  -1.08682   3.60408   7.00254   1.98014   0.00000   9.990E-01   1.000E-03   4.792E-04
1117 10.08722040   0.506  -1.08400   3.60438   7.00381   1.98535   0.00000   9.980E-01   1.000E-03   4.948E-04
1118 10.10281439   0.499  -1.08116   3.60469   7.00508   1.99056   0.00000   9.980E-01   1.000E-03   5.107E-04
1119 10.11786782   0.493  -1.07828   3.60499   7.00637   1.99580   0.00000   9.980E-01   1.000E-03   5.270E-04
1120 10.13241690   0.486  -1.07539   3.60531   7.00765   2.00108   0.00000   9.980E-01   1.000E-03   5.426E-04
1121 10.14649433   0.480  -1.07246   3.60563   7.00895   2.00639   0.00000   9.980E-01   1.000E-03   5.593E-04
1122 10.16012975   0.473  -1.06949   3.60595   7.01026   2.01177   0.00000   9.980E-01   1.000E-03   5.762E-04
1123 10.17335005   0.466  -1.06650   3.60628   7.01158   2.01715   0.00000   9.980E-01   1.000E-03   5.930E-04
1124 10.18617978   0.460  -1.06347   3.60661   7.01290   2.02259   0.00000   9.980E-01   1.000E-03   6.099E-04
1125 10.19864135   0.453  -1.06043   3.60696   7.01422   2.02807   0.00000   9.980E-01   1.000E-03   6.268E-04
1126 10.21075530   0.447  -1.05736   3.60729   7.01555   2.03361   0.00000   9.980E-01   1.000E-03   6.430E-04
1127 10.22254050   0.440  -1.05425   3.60764   7.01690   2.03916   0.00000   9.980E-01   1.000E-03   6.582E-04
1128 10.23401432   0.434  -1.05113   3.60799   7.01825   2.04478   0.00000   9.980E-01   1.000E-03   6.741E-04
1129 10.24519280   0.427  -1.04798   3.60835   7.01961   2.05041   0.00000   9.980E-01   1.000E-03   6.894E-04
1130 10.25609076   0.421  -1.04480   3.60870   7.02097   2.05610   0.00000   9.980E-01   1.000E-03   7.047E-04
1131 10.26672192   0.414  -1.04159   3.60907   7.02234   2.06177   0.00000   9.980E-01   1.000E-03   7.199E-04
1132 10.27709906   0.408  -1.03836   3.60944   7.02372   2.06754   0.00000   9.980E-01   1.000E-03   7.337E-04
1133 10.28723401   0.401  -1.03510   3.60981   7.02512   2.07331   0.00000   9.980E-01   1.000E-03   7.488E-04
1134 10.29713783   0.395  -1.03182   3.61018   7.02654   2.08006   0.00000   9.980E-01   1.000E-03   7.604E-04
1135 10.30682083   0.389  -1.02850   3.61056   7.02803   2.08703   0.00000   9.980E-01   1.000E-03   7.715E-04
1136 10.31629264   0.382  -1.02516   3.61094   7.02955   2.09414   0.00000   9.980E-01   1.000E-03   7.858E-04
1137 10.32556227   0.376  -1.02179   3.61133   7.03112   2.10122   0.00000   9.980E-01   1.000E-03   7.969E-04
1138 10.33463818   0.369  -1.01839   3.61172   7.03272   2.10840   0.00000   9.980E-01   1.000E-03   8.092E-04
1139 10.34352829   0.363  -1.01495   3.61212   7.03434   2.11561   0.00000   9.980E-01   1.000E-03   8.223E-04
1140 10.35224007   0.356  -1.01147   3.61251   7.03599   2.12286   0.00000   9.980E-01   1.000E-03   8.320E-04
1141 10.36078052   0.350  -1.00796   3.61291   7.03767   2.13013   0.00000   9.980E-01   1.000E-03   8.436E-04
1142 10.36915626   0.343  -1.00441   3.61331   7.03938   2.13750   0.00000   9.980E-01   1.000E-03   8.547E-04
1143 10.37737352   0.337  -1.00083   3.61372   7.04110   2.14491   0.00000   9.980E-01   1.000E-03   8.652E-04
1144 10.38543818   0.330  -0.99721   3.61413   7.04285   2.15237   0.00000   9.980E-01   1.000E-03   8.763E-04
1145 10.39335581   0.324  -0.99355   3.61454   7.04461   2.15988   0.00000   9.980E-01   1.000E-03   8.847E-04
1146 10.40113167   0.317  -0.98986   3.61496   7.04640   2.16745   0.00000   9.980E-01   1.000E-03   8.955E-04
1147 10.40877075   0.311  -0.98613   3.61538   7.04821   2.17510   0.00000   9.980E-01   1.000E-03   9.022E-04
1148 10.41627779   0.304  -0.98236   3.61580   7.05003   2.18279   0.00000   9.980E-01   1.000E-03   9.139E-04
1149 10.42365727   0.298  -0.97854   3.61622   7.05187   2.19053   0.00000   9.980E-01   2.000E-03   9.246E-04
1150 10.43091344   0.291  -0.97469   3.61666   7.05372   2.19832   0.00000   9.980E-01   2.000E-03   9.350E-04
1151 10.43805037   0.285  -0.97079   3.61709   7.05560   2.20618   0.00000   9.980E-01   2.000E-03   9.423E-04
1152 10.44507191   0.278  -0.96685   3.61753   7.05749   2.21411   0.00000   9.970E-01   2.000E-03   9.553E-04
1153 10.45198173   0.271  -0.96286   3.61798   7.05940   2.22213   0.00000   9.970E-01   2.000E-03   9.641E-04
1154 10.45878333   0.265  -0.95882   3.61842   7.06133   2.23019   0.00000   9.970E-01   2.000E-03   9.725E-04
1155 10.46548005   0.258  -0.95474   3.61888   7.06328   2.23832   0.00000   9.970E-01   2.000E-03   9.830E-04
1156 10.47207508   0.252  -0.95061   3.61934   7.06524   2.24644   0.00000   9.970E-01   2.000E-03   9.920E-04
1157 10.47857145   0.245  -0.94642   3.61980   7.06722   2.25465   0.00000   9.970E-01   2.000E-03   9.995E-04
1158 10.48497208   0.239  -0.94218   3.62028   7.06922   2.26287   0.00000   9.970E-01   2.000E-03   1.010E-03
1159 10.49127974   0.233  -0.93789   3.62076   7.07124   2.27117   0.00000   9.970E-01   2.000E-03   1.019E-03
1160 10.49749710   0.227  -0.93355   3.62124   7.07329   2.27952   0.00000   9.970E-01   2.000E-03   1.030E-03
1161 10.50362671   0.220  -0.92916   3.62172   7.07535   2.28797   0.00000   9.970E-01   2.000E-03   1.040E-03
1162 10.50967100   0.214  -0.92471   3.62222   7.07743   2.29636   0.00000   9.970E-01   2.000E-03   1.047E-03
1163 10.51563233   0.208  -0.92021   3.62272   7.07953   2.30483   0.00000   9.970E-01   2.000E-03   1.059E-03
1164 10.52151294   0.203  -0.91564   3.62323   7.08166   2.31324   0.00000   9.970E-01   2.000E-03   1.082E-03
1165 10.52731498   0.197  -0.91103   3.62374   7.08381   2.32255   0.00000   9.970E-01   2.000E-03   1.105E-03
1166 10.53304054   0.192  -0.90634   3.62426   7.08600   2.33262   0.00000   9.970E-01   2.000E-03   1.128E-03
1167 10.53869158   0.186  -0.90162   3.62478   7.08830   2.34286   0.00000   9.970E-01   2.000E-03   1.140E-03
1168 10.54427005   0.181  -0.89681   3.62531   7.09066   2.35308   0.00000   9.970E-01   2.000E-03   1.165E-03
1169 10.54977776   0.175  -0.89196   3.62585   7.09308   2.36348   0.00000   9.970E-01   2.000E-03   1.179E-03
1170 10.55521650   0.170  -0.88704   3.62639   7.09557   2.37392   0.00000   9.970E-01   2.000E-03   1.198E-03
1171 10.56058797   0.165  -0.88204   3.62693   7.09813   2.38452   0.00000   9.970E-01   2.000E-03   1.229E-03
1172 10.56589381   0.160  -0.87698   3.62748   7.10073   2.39517   0.00000   9.970E-01   2.000E-03   1.244E-03
1173 10.57113562   0.154  -0.87186   3.62804   7.10339   2.40595   0.00000   9.970E-01   2.000E-03   1.260E-03
1174 10.57631491   0.149  -0.86666   3.62859   7.10612   2.41685   0.00000   9.970E-01   2.000E-03   1.285E-03
1175 10.58143316   0.144  -0.86138   3.62916   7.10890   2.42791   0.00000   9.970E-01   2.000E-03   1.310E-03
1176 10.58649180   0.139  -0.85601   3.62974   7.11173   2.43911   0.00000   9.960E-01   2.000E-03   1.336E-03
1177 10.59149218   0.134  -0.85056   3.63032   7.11462   2.45046   0.00000   9.960E-01   2.000E-03   1.350E-03
1178 10.59643565   0.129  -0.84503   3.63091   7.11755   2.46201   0.00000   9.960E-01   2.000E-03   1.380E-03
1179 10.60132349   0.124  -0.83940   3.63150   7.12052   2.47372   0.00000   9.960E-01   2.070E-03   1.401E-03
1180 10.60615692   0.119  -0.83369   3.63210   7.12354   2.48564   0.00000   9.960E-01   3.000E-03   1.420E-03
1181 10.61093715   0.115  -0.82788   3.63272   7.12662   2.49777   0.00000   9.960E-01   3.000E-03   1.458E-03
1182 10.61566534   0.110  -0.82196   3.63334   7.12973   2.51012   0.00000   9.960E-01   3.000E-03   1.477E-03
1183 10.62034261   0.105  -0.81593   3.63396   7.13287   2.52264   0.00000   9.950E-01   3.000E-03   1.510E-03
1184 10.62497004   0.100  -0.80978   3.63461   7.13604   2.53543   0.00000   9.950E-01   3.000E-03   1.548E-03
1185 10.62954868   0.096  -0.80354   3.63525   7.13924   2.54846   0.00000   9.950E-01   3.893E-03   1.568E-03
1186 10.63407956   0.091  -0.79715   3.63591   7.14247   2.56176   0.00000   9.950E-01   4.000E-03   1.601E-03
1187 10.63856365   0.087  -0.79062   3.63659   7.14571   2.57537   0.00000   9.940E-01   4.000E-03   1.643E-03
1188 10.64300192   0.082  -0.78396   3.63728   7.14899   2.58934   0.00000   9.940E-01   4.621E-03   1.666E-03
1189 10.64739529   0.078  -0.77715   3.63798   7.15228   2.60365   0.00000   9.930E-01   5.000E-03   1.710E-03
1190 10.65174466   0.074  -0.77018   3.63869   7.15560   2.61833   0.00000   9.930E-01   5.000E-03   1.745E-03
1191 10.65605091   0.070  -0.76306   3.63942   7.15894   2.63342   0.00000   9.920E-01   6.000E-03   1.780E-03
1192 10.65745759   0.068  -0.76068   3.63966   7.16005   2.63848   0.00000   9.920E-01   6.000E-03   1.794E-03
1193 10.65885973   0.067  -0.75827   3.63991   7.16117   2.64360   0.00000   9.920E-01   6.379E-03   1.818E-03
1194 10.66025736   0.066  -0.75585   3.64015   7.16229   2.64874   0.00000   9.914E-01   7.000E-03   1.830E-03
1195 10.66165050   0.064  -0.75341   3.64040   7.16342   2.65390   0.00000   9.910E-01   7.000E-03   1.830E-03
1196 10.66303919   0.063  -0.75094   3.64064   7.16454   2.65914   0.00000   9.910E-01   7.000E-03   1.850E-03
1197 10.66442345   0.062  -0.74846   3.64090   7.16568   2.66444   0.00000   9.910E-01   7.249E-03   1.872E-03
1198 10.66580332   0.061  -0.74596   3.64115   7.16683   2.66979   0.00000   9.905E-01   8.000E-03   1.885E-03
1199 10.66717881   0.059  -0.74344   3.64141   7.16798   2.67518   0.00000   9.900E-01   8.000E-03   1.897E-03
1200 10.66854996   0.058  -0.74089   3.64166   7.16914   2.68062   0.00000   9.900E-01   8.010E-03   1.910E-03
1201 10.66991680   0.057  -0.73831   3.64192   7.17030   2.68614   0.00000   9.890E-01   9.000E-03   1.926E-03
1202 10.67127935   0.056  -0.73572   3.64218   7.17148   2.69168   0.00000   9.890E-01   9.000E-03   1.946E-03
1203 10.67263763   0.054  -0.73312   3.64243   7.17267   2.69726   0.00000   9.890E-01   9.000E-03   1.959E-03
1204 10.67399168   0.053  -0.73049   3.64270   7.17387   2.70291   0.00000   9.880E-01   1.000E-02   1.972E-03
1205 10.67534153   0.052  -0.72783   3.64296   7.17508   2.70860   0.00000   9.880E-01   1.000E-02   1.985E-03
1206 10.67668719   0.051  -0.72514   3.64323   7.17630   2.71435   0.00000   9.872E-01   1.083E-02   1.998E-03
1207 10.67802869   0.049  -0.72244   3.64350   7.17754   2.72013   0.00000   9.868E-01   1.118E-02   2.022E-03
1208 10.67936606   0.048  -0.71972   3.64377   7.17879   2.72595   0.00000   9.860E-01   1.200E-02   2.030E-03
1209 10.68069933   0.047  -0.71696   3.64404   7.18006   2.73182   0.00000   9.860E-01   1.200E-02   2.039E-03
1210 10.68202852   0.046  -0.71419   3.64430   7.18134   2.73774   0.00000   9.850E-01   1.300E-02   2.065E-03
1211 10.68335365   0.045  -0.71139   3.64458   7.18264   2.74369   0.00000   9.843E-01   1.367E-02   2.080E-03
1212 10.68467475   0.044  -0.70857   3.64485   7.18396   2.74967   0.00000   9.839E-01   1.407E-02   2.091E-03
1213 10.68599184   0.042  -0.70572   3.64514   7.18530   2.75573   0.00000   9.830E-01   1.500E-02   2.115E-03
1214 10.68730495   0.041  -0.70286   3.64541   7.18666   2.76183   0.00000   9.821E-01   1.591E-02   2.111E-03
1215 10.68861411   0.040  -0.69995   3.64570   7.18805   2.76798   0.00000   9.817E-01   1.635E-02   2.137E-03
1216 10.68991932   0.039  -0.69703   3.64597   7.18946   2.77418   0.00000   9.810E-01   1.700E-02   2.158E-03
1217 10.69122063   0.038  -0.69409   3.64625   7.19089   2.78039   0.00000   9.797E-01   1.800E-02   2.163E-03
1218 10.69251805   0.037  -0.69113   3.64654   7.19236   2.78662   0.00000   9.790E-01   1.874E-02   2.177E-03
1219 10.69381161   0.036  -0.68814   3.64682   7.19386   2.79290   0.00000   9.778E-01   2.000E-02   2.190E-03
1220 10.69510132   0.034  -0.68511   3.64711   7.19538   2.79920   0.00000   9.770E-01   2.073E-02   2.205E-03
1221 10.69638722   0.033  -0.68207   3.64739   7.19695   2.80556   0.00000   9.758E-01   2.224E-02   2.222E-03
1222 10.69766931   0.032  -0.67901   3.64768   7.19855   2.81194   0.00000   9.742E-01   2.300E-02   2.238E-03
1223 10.69894764   0.031  -0.67589   3.64799   7.20020   2.81835   0.00000   9.727E-01   2.430E-02   2.255E-03
1224 10.70022221   0.030  -0.67277   3.64828   7.20188   2.82475   0.00000   9.720E-01   2.587E-02   2.273E-03
1225 10.70149306   0.029  -0.66965   3.64857   7.20361   2.83115   0.00000   9.706E-01   2.743E-02   2.260E-03
1226 10.70276019   0.028  -0.66650   3.64885   7.20538   2.83756   0.00000   9.690E-01   2.899E-02   2.270E-03
1227 10.70402364   0.027  -0.66333   3.64914   7.20721   2.84399   0.00000   9.669E-01   3.057E-02   2.280E-03
1228 10.70528343   0.025  -0.66014   3.64942   7.20908   2.85042   0.00000   9.648E-01   3.231E-02   2.282E-03
1229 10.70653957   0.024  -0.65693   3.64971   7.21102   2.85685   0.00000   9.632E-01   3.476E-02   2.305E-03
1230 10.70779209   0.023  -0.65370   3.64999   7.21300   2.86325   0.00000   9.606E-01   3.674E-02   2.320E-03
1231 10.70904100   0.022  -0.65046   3.65028   7.21503   2.86963   0.00000   9.590E-01   3.898E-02   2.310E-03
1232 10.71028634   0.021  -0.64719   3.65055   7.21712   2.87598   0.00000   9.564E-01   4.121E-02   2.310E-03
1233 10.71152811   0.019  -0.64390   3.65084   7.21927   2.88234   0.00000   9.535E-01   4.425E-02   2.345E-03
1234 10.71276635   0.018  -0.64059   3.65112   7.22147   2.88871   0.00000   9.511E-01   4.680E-02   2.351E-03
1235 10.71400106   0.017  -0.63727   3.65140   7.22369   2.89509   0.00000   9.479E-01   4.956E-02   2.344E-03
1236 10.71523227   0.016  -0.63393   3.65169   7.22593   2.90149   0.00000   9.446E-01   5.244E-02   2.342E-03
1237 10.71646000   0.015  -0.63057   3.65196   7.22818   2.90792   0.00000   9.412E-01   5.578E-02   2.359E-03
1238 10.71768428   0.013  -0.62716   3.65225   7.23045   2.91447   0.00000   9.378E-01   5.925E-02   2.471E-03
1239 10.71890511   0.012  -0.62366   3.65256   7.23273   2.92119   0.00000   9.339E-01   6.306E-02   2.729E-03
1240 10.72012251   0.011  -0.62013   3.65287   7.23495   2.92812   0.00000   9.297E-01   6.730E-02   3.024E-03
1241 10.72133652   0.009  -0.61659   3.65316   7.23702   2.93537   0.00000   9.250E-01   7.100E-02   3.320E-03
1242 10.72162191   0.009  -0.61575   3.65323   7.23747   2.93715   0.00000   9.244E-01   7.219E-02   3.386E-03
1243 10.72190710   0.009  -0.61491   3.65329   7.23792   2.93893   0.00000   9.236E-01   7.340E-02   3.456E-03
1244 10.72219211   0.009  -0.61405   3.65336   7.23836   2.94072   0.00000   9.224E-01   7.464E-02   3.537E-03
1245 10.72247694   0.008  -0.61320   3.65343   7.23879   2.94255   0.00000   9.211E-01   7.546E-02   3.615E-03
1246 10.72276157   0.008  -0.61235   3.65349   7.23920   2.94439   0.00000   9.199E-01   7.621E-02   3.692E-03
1247 10.72304603   0.008  -0.61150   3.65356   7.23960   2.94626   0.00000   9.192E-01   7.754E-02   3.765E-03
1248 10.72333029   0.008  -0.61065   3.65362   7.23999   2.94816   0.00000   9.181E-01   7.845E-02   3.844E-03
1249 10.72361437   0.007  -0.60979   3.65369   7.24037   2.95008   0.00000   9.169E-01   7.914E-02   3.924E-03
1250 10.72389826   0.007  -0.60893   3.65376   7.24073   2.95203   0.00000   9.162E-01   7.985E-02   3.995E-03
1251 10.72418197   0.007  -0.60806   3.65382   7.24108   2.95401   0.00000   9.149E-01   8.114E-02   4.067E-03
1252 10.72446549   0.007  -0.60720   3.65389   7.24142   2.95601   0.00000   9.137E-01   8.230E-02   4.137E-03
1253 10.72474883   0.006  -0.60633   3.65395   7.24175   2.95804   0.00000   9.130E-01   8.305E-02   4.204E-03
1254 10.72503198   0.006  -0.60546   3.65402   7.24207   2.96010   0.00000   9.122E-01   8.381E-02   4.273E-03
1255 10.72531495   0.006  -0.60458   3.65409   7.24237   2.96218   0.00000   9.108E-01   8.459E-02   4.337E-03
1256 10.72559773   0.006  -0.60370   3.65415   7.24267   2.96429   0.00000   9.096E-01   8.575E-02   4.396E-03
1257 10.72588033   0.005  -0.60282   3.65421   7.24295   2.96643   0.00000   9.088E-01   8.718E-02   4.456E-03
1258 10.72616275   0.005  -0.60193   3.65428   7.24322   2.96859   0.00000   9.080E-01   8.799E-02   4.529E-03
1259 10.72644498   0.005  -0.60103   3.65435   7.24347   2.97076   0.00000   9.064E-01   8.882E-02   4.596E-03
1260 10.72672703   0.005  -0.60014   3.65441   7.24372   2.97296   0.00000   9.053E-01   8.966E-02   4.663E-03
1261 10.72700890   0.005  -0.59924   3.65447   7.24397   2.97519   0.00000   9.045E-01   9.052E-02   4.737E-03
1262 10.72729058   0.004  -0.59834   3.65454   7.24420   2.97744   0.00000   9.036E-01   9.139E-02   4.811E-03
1263 10.72757208   0.004  -0.59744   3.65460   7.24442   2.97971   0.00000   9.027E-01   9.227E-02   4.879E-03
1264 10.72785340   0.004  -0.59653   3.65466   7.24464   2.98201   0.00000   9.018E-01   9.316E-02   4.939E-03
1265 10.72813453   0.004  -0.59562   3.65472   7.24484   2.98433   0.00000   9.009E-01   9.406E-02   4.994E-03
1266 10.72841549   0.004  -0.59470   3.65479   7.24504   2.98666   0.00000   8.990E-01   9.498E-02   5.059E-03
1267 10.72869626   0.003  -0.59379   3.65485   7.24523   2.98901   0.00000   8.981E-01   9.591E-02   5.115E-03
1268 10.72897685   0.003  -0.59287   3.65492   7.24541   2.99139   0.00000   8.972E-01   9.685E-02   5.162E-03
1269 10.72925726   0.003  -0.59194   3.65498   7.24559   2.99378   0.00000   8.962E-01   9.861E-02   5.210E-03
1270 10.72953749   0.003  -0.59101   3.65504   7.24576   2.99620   0.00000   8.952E-01   9.977E-02   5.266E-03
1271 10.72981754   0.003  -0.59008   3.65510   7.24593   2.99864   0.00000   8.943E-01   1.000E-01   5.332E-03
1272 10.73009741   0.003  -0.58915   3.65516   7.24609   3.00110   0.00000   8.933E-01   1.007E-01   5.394E-03
1273 10.73037710   0.003  -0.58820   3.65523   7.24624   3.00358   0.00000   8.923E-01   1.017E-01   5.454E-03
1274 10.73065660   0.002  -0.58725   3.65529   7.24638   3.00608   0.00000   8.913E-01   1.027E-01   5.515E-03
1275 10.73093593   0.002  -0.58630   3.65536   7.24654   3.00860   0.00000   8.902E-01   1.038E-01   5.576E-03
1276 10.73121508   0.002  -0.58534   3.65543   7.24668   3.01114   0.00000   8.892E-01   1.048E-01   5.639E-03
1277 10.73149405   0.002  -0.58438   3.65549   7.24681   3.01371   0.00000   8.881E-01   1.059E-01   5.693E-03
1278 10.73177284   0.002  -0.58327   3.65561   7.24695   3.01627   0.00000   8.871E-01   1.069E-01   5.811E-03
1279 10.73205145   0.002  -0.58232   3.65568   7.24709   3.01885   0.00000   8.860E-01   1.080E-01   5.810E-03
1280 10.73232988   0.002  -0.58135   3.65575   7.24722   3.02146   0.00000   8.849E-01   1.091E-01   5.855E-03
1281 10.73260814   0.002  -0.58038   3.65581   7.24735   3.02410   0.00000   8.838E-01   1.102E-01   5.910E-03
1282 10.73288621   0.002  -0.57941   3.65587   7.24747   3.02676   0.00000   8.827E-01   1.113E-01   5.966E-03
1283 10.73316411   0.002  -0.57842   3.65593   7.24759   3.02943   0.00000   8.816E-01   1.124E-01   6.027E-03
1284 10.73344183   0.001  -0.57744   3.65600   7.24771   3.03211   0.00000   8.804E-01   1.136E-01   6.101E-03
1285 10.73371938   0.001  -0.57646   3.65606   7.24782   3.03481   0.00000   8.793E-01   1.140E-01   6.167E-03
1286 10.73399674   0.001  -0.57546   3.65612   7.24793   3.03753   0.00000   8.781E-01   1.149E-01   6.235E-03
1287 10.73427393   0.001  -0.57446   3.65618   7.24804   3.04028   0.00000   8.779E-01   1.161E-01   6.306E-03
1288 10.73455094   0.001  -0.57347   3.65625   7.24815   3.04304   0.00000   8.767E-01   1.173E-01   6.378E-03
1289 10.73482778   0.001  -0.57246   3.65631   7.24825   3.04582   0.00000   8.755E-01   1.185E-01   6.446E-03
1290 10.73510444   0.001  -0.57146   3.65637   7.24836   3.04862   0.00000   8.742E-01   1.198E-01   6.508E-03
1291 10.73538092   0.001  -0.57045   3.65642   7.24846   3.05144   0.00000   8.730E-01   1.200E-01   6.570E-03
1292 10.73610105   0.001  -0.56785   3.65658   7.24870   3.05891   0.00000   8.710E-01   1.230E-01   5.837E-03
1293 10.73681998   0.001  -0.56522   3.65673   7.24891   3.06651   0.00000   8.693E-01   1.257E-01   5.148E-03
1294 10.73753773   0.001  -0.56257   3.65687   7.24911   3.07427   0.00000   8.670E-01   1.290E-01   4.532E-03
1295 10.73825429   0.000  -0.55991   3.65701   7.24929   3.08212   0.00000   8.650E-01   1.310E-01   3.983E-03
1296 10.73896968   0.000  -0.55721   3.65714   7.24945   3.09013   0.00000   8.624E-01   1.338E-01   3.472E-03
1297 10.73968388   0.000  -0.55451   3.65727   7.24960   3.09830   0.00000   8.607E-01   1.366E-01   3.016E-03
1298 10.74039692   0.000  -0.55177   3.65739   7.24980   3.10657   0.00000   8.586E-01   1.394E-01   2.768E-03
1299 10.74110878   0.000  -0.54897   3.65753   7.25009   3.11478   0.00000   8.549E-01   1.421E-01   2.833E-03
1300 10.74181948   0.000  -0.54612   3.65767   7.25048   3.12334   0.00000   8.520E-01   1.454E-01   2.880E-03
1301 10.74252902   0.000  -0.54313   3.65786   7.25086   3.13209   0.00000   8.483E-01   1.488E-01   2.963E-03
1302 10.74323740   0.000  -0.54020   3.65800   7.25124   3.14091   0.00000   8.452E-01   1.518E-01   3.024E-03
1303 10.74394463   0.000  -0.53725   3.65814   7.25151   3.14992   0.00000   8.422E-01   1.556E-01   2.930E-03
1304 10.74465071   0.000  -0.53425   3.65827   7.25186   3.15913   0.00000   8.383E-01   1.587E-01   2.974E-03
1305 10.74535564   0.000  -0.53123   3.65840   7.25217   3.16851   0.00000   8.344E-01   1.626E-01   2.980E-03
1306 10.74605943   0.000  -0.52813   3.65852   7.25249   3.17807   0.00000   8.312E-01   1.658E-01   3.018E-03
1307 10.74676208   0.000  -0.52503   3.65865   7.25319   3.18849   0.00000   8.272E-01   1.698E-01   3.039E-03
1308 10.74746360   0.000  -0.52186   3.65876   7.25350   3.19883   0.00000   8.235E-01   1.735E-01   3.035E-03
1309 10.74816398   0.000  -0.51865   3.65888   7.25383   3.20927   0.00000   8.197E-01   1.773E-01   3.110E-03
1310 10.74886324   0.000  -0.51540   3.65898   7.25413   3.21982   0.00000   8.156E-01   1.814E-01   3.110E-03
1311 10.74956137   0.000  -0.51213   3.65908   7.25445   3.23073   0.00000   8.113E-01   1.857E-01   3.043E-03
1312 10.75025839   0.000  -0.50878   3.65918   7.25480   3.24175   0.00000   8.071E-01   1.899E-01   3.039E-03
1313 10.75095428   0.000  -0.50540   3.65927   7.25532   3.25320   0.00000   8.030E-01   1.940E-01   3.030E-03
1314 10.75164906   0.000  -0.50195   3.65935   7.25571   3.26469   0.00000   7.983E-01   1.987E-01   3.069E-03
1315 10.75234274   0.000  -0.49849   3.65942   7.25624   3.27652   0.00000   7.938E-01   2.032E-01   2.955E-03
1316 10.75303530   0.000  -0.49495   3.65950   7.25672   3.28870   0.00000   7.895E-01   2.075E-01   3.025E-03
1317 10.75372677   0.000  -0.49135   3.65956   7.25719   3.30118   0.00000   7.848E-01   2.122E-01   3.009E-03
1318 10.75441713   0.000  -0.48767   3.65962   7.25772   3.31380   0.00000   7.797E-01   2.173E-01   3.054E-03
1319 10.75510640   0.000  -0.48396   3.65968   7.25835   3.32674   0.00000   7.741E-01   2.229E-01   3.003E-03
1320 10.75579458   0.000  -0.48017   3.65972   7.25897   3.34008   0.00000   7.695E-01   2.275E-01   3.020E-03
1321 10.75648167   0.000  -0.47624   3.65978   7.25962   3.35364   0.00000   7.637E-01   2.333E-01   3.126E-03
1322 10.75716767   0.000  -0.47229   3.65981   7.26029   3.36763   0.00000   7.578E-01   2.392E-01   3.059E-03
1323 10.75785259   0.000  -0.46829   3.65982   7.26112   3.38190   0.00000   7.519E-01   2.451E-01   3.022E-03
1324 10.75853643   0.000  -0.46410   3.65984   7.26188   3.39683   0.00000   7.457E-01   2.513E-01   3.154E-03
1325 10.75921920   0.000  -0.45994   3.65982   7.26266   3.41232   0.00000   7.395E-01   2.575E-01   3.052E-03
1326 10.75990089   0.000  -0.45570   3.65977   7.26348   3.42824   0.00000   7.331E-01   2.639E-01   3.064E-03
1327 10.76058152   0.000  -0.45125   3.65974   7.26436   3.44458   0.00000   7.256E-01   2.704E-01   3.147E-03
1328 10.76126108   0.000  -0.44671   3.65969   7.26526   3.46158   0.00000   7.189E-01   2.781E-01   3.140E-03
1329 10.76193958   0.000  -0.44212   3.65961   7.26619   3.47901   0.00000   7.120E-01   2.850E-01   2.961E-03
1330 10.76261703   0.000  -0.43747   3.65952   7.26720   3.49706   0.00000   7.039E-01   2.928E-01   2.925E-03
1331 10.76329341   0.000  -0.43266   3.65939   7.26828   3.51548   0.00000   6.953E-01   3.017E-01   2.990E-03
1332 10.76396875   0.000  -0.42769   3.65930   7.26945   3.53444   0.00000   6.866E-01   3.104E-01   3.032E-03
1333 10.76464304   0.000  -0.42258   3.65913   7.27072   3.55430   0.00000   6.771E-01   3.199E-01   3.061E-03
1334 10.76531628   0.000  -0.41730   3.65893   7.27199   3.57491   0.00000   6.670E-01   3.300E-01   3.075E-03
1335 10.76598848   0.000  -0.41173   3.65873   7.27341   3.59624   0.00000   6.551E-01   3.409E-01   3.239E-03
1336 10.76665964   0.000  -0.40617   3.65850   7.27483   3.61853   0.00000   6.440E-01   3.530E-01   3.003E-03
1337 10.76732976   0.000  -0.40018   3.65822   7.27642   3.64164   0.00000   6.316E-01   3.654E-01   3.284E-03
1338 10.76799885   0.000  -0.39388   3.65795   7.27803   3.66539   0.00000   6.179E-01   3.788E-01   3.379E-03
1339 10.76866692   0.000  -0.38770   3.65755   7.27985   3.69032   0.00000   6.041E-01   3.929E-01   3.210E-03
1340 10.76933395   0.000  -0.37910   3.65694   7.28365   3.72781   0.00000   5.945E-01   4.013E-01   4.315E-03
1341 10.76999997   0.969  -0.37047   3.65613   7.28549   3.76859   0.00000   5.830E-01   4.140E-01   2.430E-03
